Ramp 10.00 °C/min to 375.00 °C,,
Time,Temperature,Heat Flow (Normalized)
min,°C,W/g
5.00333,249.877,-0.194857
5.005,249.876,-0.194859
5.00667,249.876,-0.194865
5.00833,249.876,-0.194865
5.01,249.876,-0.19487
5.01167,249.876,-0.194885
5.01333,249.876,-0.194909
5.015,249.876,-0.194942
5.01667,249.877,-0.194966
5.01833,249.876,-0.194993
5.02,249.877,-0.195015
5.02167,249.877,-0.195037
5.02333,249.877,-0.19507
5.025,249.878,-0.195109
5.02667,249.878,-0.195153
5.02833,249.879,-0.195198
5.03,249.879,-0.195239
5.03167,249.88,-0.195283
5.03333,249.881,-0.195324
5.035,249.882,-0.195363
5.03667,249.883,-0.195397
5.03833,249.884,-0.195424
5.04,249.885,-0.195447
5.04167,249.886,-0.195476
5.04333,249.887,-0.195503
5.045,249.889,-0.195521
5.04667,249.89,-0.195529
5.04833,249.892,-0.19552
5.05,249.893,-0.195464
5.05167,249.895,-0.19529
5.05333,249.897,-0.194932
5.055,249.899,-0.194199
5.05667,249.901,-0.19305
5.05833,249.903,-0.190969
5.06,249.906,-0.188465
5.06167,249.909,-0.18494
5.06333,249.912,-0.180327
5.065,249.915,-0.174813
5.06667,249.918,-0.16848
5.06833,249.921,-0.162878
5.07,249.925,-0.158287
5.07167,249.928,-0.153947
5.07333,249.932,-0.15008
5.075,249.936,-0.14624
5.07667,249.941,-0.143145
5.07833,249.945,-0.140154
5.08,249.949,-0.136594
5.08167,249.954,-0.133709
5.08333,249.959,-0.130568
5.085,249.965,-0.127626
5.08667,249.97,-0.125409
5.08833,249.976,-0.123699
5.09,249.982,-0.121986
5.09167,249.988,-0.120659
5.09333,249.994,-0.120292
5.095,250.001,-0.120041
5.09667,250.007,-0.120407
5.09833,250.014,-0.12095
5.1,250.021,-0.121877
5.10167,250.028,-0.122705
5.10333,250.035,-0.123531
5.105,250.043,-0.12653
5.10667,250.051,-0.128566
5.10833,250.059,-0.129924
5.11,250.067,-0.130745
5.11167,250.075,-0.131211
5.11333,250.084,-0.132212
5.115,250.092,-0.133809
5.11667,250.102,-0.13655
5.11833,250.11,-0.141517
5.12,250.119,-0.149163
5.12167,250.129,-0.160306
5.12333,250.139,-0.173722
5.125,250.148,-0.187124
5.12667,250.158,-0.198752
5.12833,250.168,-0.207535
5.13,250.178,-0.216573
5.13167,250.188,-0.225556
5.13333,250.198,-0.232338
5.135,250.208,-0.23919
5.13667,250.219,-0.247586
5.13833,250.23,-0.254515
5.14,250.241,-0.26247
5.14167,250.252,-0.270204
5.14333,250.263,-0.278871
5.145,250.274,-0.28742
5.14667,250.286,-0.296353
5.14833,250.297,-0.304701
5.15,250.309,-0.313496
5.15167,250.32,-0.323024
5.15333,250.332,-0.333278
5.155,250.344,-0.341084
5.15667,250.356,-0.349307
5.15833,250.368,-0.357773
5.16,250.38,-0.363752
5.16167,250.393,-0.370208
5.16333,250.405,-0.375866
5.165,250.417,-0.382903
5.16667,250.43,-0.389084
5.16833,250.443,-0.395033
5.17,250.455,-0.400787
5.17167,250.468,-0.407406
5.17333,250.481,-0.41434
5.175,250.494,-0.421204
5.17667,250.507,-0.428828
5.17833,250.52,-0.434773
5.18,250.533,-0.441385
5.18167,250.546,-0.446666
5.18333,250.559,-0.452137
5.185,250.572,-0.458216
5.18667,250.586,-0.463979
5.18833,250.6,-0.469747
5.19,250.613,-0.474909
5.19167,250.627,-0.48083
5.19333,250.641,-0.487179
5.195,250.654,-0.493401
5.19667,250.668,-0.499112
5.19833,250.682,-0.503085
5.2,250.695,-0.508143
5.20167,250.71,-0.510907
5.20333,250.723,-0.514052
5.205,250.738,-0.51733
5.20667,250.752,-0.522554
5.20833,250.766,-0.526861
5.21,250.78,-0.531867
5.21167,250.795,-0.535694
5.21333,250.809,-0.541198
5.215,250.823,-0.545236
5.21667,250.838,-0.548455
5.21833,250.852,-0.551589
5.22,250.866,-0.554028
5.22167,250.881,-0.557094
5.22333,250.895,-0.559425
5.225,250.91,-0.564448
5.22667,250.924,-0.568609
5.22833,250.939,-0.572143
5.23,250.954,-0.576427
5.23167,250.969,-0.580204
5.23333,250.984,-0.584221
5.235,250.998,-0.586818
5.23667,251.014,-0.590093
5.23833,251.028,-0.594083
5.24,251.044,-0.597524
5.24167,251.059,-0.601164
5.24333,251.074,-0.604391
5.245,251.089,-0.60706
5.24667,251.104,-0.608164
5.24833,251.119,-0.610147
5.25,251.134,-0.612389
5.25167,251.149,-0.614537
5.25333,251.164,-0.617228
5.255,251.179,-0.61901
5.25667,251.194,-0.620921
5.25833,251.209,-0.623427
5.26,251.225,-0.626596
5.26167,251.24,-0.630591
5.26333,251.256,-0.632841
5.265,251.271,-0.635665
5.26667,251.287,-0.638514
5.26833,251.302,-0.641448
5.27,251.317,-0.644139
5.27167,251.333,-0.645729
5.27333,251.348,-0.646851
5.275,251.364,-0.648317
5.27667,251.379,-0.649443
5.27833,251.395,-0.650636
5.28,251.41,-0.652933
5.28167,251.426,-0.6549
5.28333,251.441,-0.657704
5.285,251.457,-0.658832
5.28667,251.473,-0.661222
5.28833,251.488,-0.663423
5.29,251.504,-0.665091
5.29167,251.52,-0.667124
5.29333,251.535,-0.669262
5.295,251.551,-0.670971
5.29667,251.567,-0.673149
5.29833,251.582,-0.675041
5.3,251.599,-0.676236
5.30167,251.614,-0.677728
5.30333,251.63,-0.679255
5.305,251.646,-0.680689
5.30667,251.662,-0.681302
5.30833,251.678,-0.681819
5.31,251.693,-0.682515
5.31167,251.709,-0.682662
5.31333,251.725,-0.682716
5.315,251.741,-0.68287
5.31667,251.757,-0.683949
5.31833,251.773,-0.684936
5.32,251.788,-0.685779
5.32167,251.804,-0.68778
5.32333,251.82,-0.690187
5.325,251.836,-0.692919
5.32667,251.852,-0.694636
5.32833,251.869,-0.695964
5.33,251.885,-0.696809
5.33167,251.9,-0.697463
5.33333,251.917,-0.697777
5.335,251.932,-0.698217
5.33667,251.949,-0.698694
5.33833,251.965,-0.69898
5.34,251.981,-0.699465
5.34167,251.997,-0.700522
5.34333,252.013,-0.701827
5.345,252.029,-0.703034
5.34667,252.045,-0.704309
5.34833,252.061,-0.70554
5.35,252.077,-0.70645
5.35167,252.093,-0.707235
5.35333,252.109,-0.707941
5.355,252.125,-0.708718
5.35667,252.141,-0.709406
5.35833,252.157,-0.710298
5.36,252.174,-0.711131
5.36167,252.189,-0.712055
5.36333,252.206,-0.712907
5.365,252.222,-0.713922
5.36667,252.238,-0.714833
5.36833,252.254,-0.715196
5.37,252.27,-0.715616
5.37167,252.286,-0.715973
5.37333,252.303,-0.716436
5.375,252.319,-0.716537
5.37667,252.335,-0.716595
5.37833,252.351,-0.71662
5.38,252.367,-0.716723
5.38167,252.383,-0.716911
5.38333,252.4,-0.71726
5.385,252.416,-0.717951
5.38667,252.432,-0.718693
5.38833,252.448,-0.719405
5.39,252.464,-0.720173
5.39167,252.48,-0.720961
5.39333,252.497,-0.721615
5.395,252.513,-0.722322
5.39667,252.529,-0.722732
5.39833,252.546,-0.723
5.4,252.562,-0.723248
5.40167,252.578,-0.723469
5.40333,252.594,-0.723689
5.405,252.611,-0.723901
5.40667,252.627,-0.724026
5.40833,252.643,-0.724233
5.41,252.659,-0.724451
5.41167,252.675,-0.724648
5.41333,252.692,-0.724855
5.415,252.708,-0.725005
5.41667,252.724,-0.72529
5.41833,252.74,-0.725562
5.42,252.757,-0.725774
5.42167,252.773,-0.72599
5.42333,252.789,-0.726219
5.425,252.805,-0.726525
5.42667,252.822,-0.726999
5.42833,252.838,-0.727626
5.43,252.854,-0.72805
5.43167,252.871,-0.728453
5.43333,252.887,-0.728908
5.435,252.903,-0.729486
5.43667,252.919,-0.730083
5.43833,252.936,-0.730437
5.44,252.952,-0.730663
5.44167,252.969,-0.730929
5.44333,252.985,-0.731324
5.445,253.001,-0.731808
5.44667,253.018,-0.73251
5.44833,253.034,-0.733201
5.45,253.05,-0.733691
5.45167,253.067,-0.734166
5.45333,253.083,-0.734493
5.455,253.1,-0.73467
5.45667,253.116,-0.734792
5.45833,253.132,-0.734865
5.46,253.149,-0.735358
5.46167,253.165,-0.735397
5.46333,253.181,-0.735432
5.465,253.198,-0.735491
5.46667,253.214,-0.73559
5.46833,253.23,-0.735746
5.47,253.247,-0.735886
5.47167,253.263,-0.736031
5.47333,253.279,-0.736141
5.475,253.296,-0.736317
5.47667,253.312,-0.736513
5.47833,253.329,-0.736855
5.48,253.345,-0.737184
5.48167,253.361,-0.737479
5.48333,253.377,-0.737785
5.485,253.394,-0.738116
5.48667,253.41,-0.738383
5.48833,253.427,-0.738605
5.49,253.443,-0.73882
5.49167,253.46,-0.739056
5.49333,253.476,-0.739318
5.495,253.493,-0.739574
5.49667,253.509,-0.739787
5.49833,253.525,-0.739925
5.5,253.542,-0.740054
5.50167,253.558,-0.74016
5.50333,253.575,-0.740239
5.505,253.591,-0.740308
5.50667,253.607,-0.740406
5.50833,253.624,-0.740467
5.51,253.64,-0.740524
5.51167,253.657,-0.740604
5.51333,253.673,-0.740698
5.515,253.689,-0.740774
5.51667,253.705,-0.740853
5.51833,253.722,-0.740924
5.52,253.738,-0.740999
5.52167,253.755,-0.741091
5.52333,253.771,-0.741203
5.525,253.788,-0.741391
5.52667,253.805,-0.741552
5.52833,253.821,-0.741815
5.53,253.837,-0.742044
5.53167,253.854,-0.742267
5.53333,253.87,-0.742518
5.535,253.887,-0.742691
5.53667,253.903,-0.742795
5.53833,253.919,-0.742884
5.54,253.936,-0.742965
5.54167,253.952,-0.743051
5.54333,253.969,-0.743138
5.545,253.986,-0.743223
5.54667,254.002,-0.743313
5.54833,254.018,-0.743407
5.55,254.035,-0.743502
5.55167,254.051,-0.743625
5.55333,254.068,-0.743779
5.555,254.084,-0.74403
5.55667,254.1,-0.74433
5.55833,254.117,-0.744667
5.56,254.133,-0.744913
5.56167,254.15,-0.745102
5.56333,254.166,-0.745314
5.565,254.183,-0.745448
5.56667,254.199,-0.745538
5.56833,254.215,-0.745835
5.57,254.232,-0.746054
5.57167,254.248,-0.746283
5.57333,254.265,-0.746476
5.575,254.281,-0.746589
5.57667,254.298,-0.746692
5.57833,254.314,-0.746826
5.58,254.331,-0.746969
5.58167,254.347,-0.747049
5.58333,254.363,-0.747134
5.585,254.38,-0.747213
5.58667,254.396,-0.747303
5.58833,254.413,-0.747397
5.59,254.429,-0.747612
5.59167,254.445,-0.747859
5.59333,254.462,-0.748013
5.595,254.478,-0.748111
5.59667,254.495,-0.748208
5.59833,254.512,-0.748306
5.6,254.528,-0.748402
5.60167,254.544,-0.748496
5.60333,254.561,-0.74865
5.605,254.577,-0.748726
5.60667,254.593,-0.748796
5.60833,254.61,-0.748871
5.61,254.627,-0.748951
5.61167,254.643,-0.749037
5.61333,254.659,-0.749131
5.615,254.676,-0.749246
5.61667,254.692,-0.749428
5.61833,254.709,-0.749593
5.62,254.725,-0.749797
5.62167,254.742,-0.749965
5.62333,254.758,-0.75007
5.625,254.775,-0.750166
5.62667,254.791,-0.750256
5.62833,254.808,-0.750346
5.63,254.824,-0.750437
5.63167,254.841,-0.750536
5.63333,254.857,-0.750641
5.635,254.874,-0.750741
5.63667,254.89,-0.750844
5.63833,254.907,-0.750954
5.64,254.923,-0.751066
5.64167,254.939,-0.751176
5.64333,254.956,-0.751282
5.645,254.972,-0.751379
5.64667,254.989,-0.751473
5.64833,255.005,-0.751567
5.65,255.022,-0.751661
5.65167,255.038,-0.751756
5.65333,255.055,-0.751851
5.655,255.071,-0.751955
5.65667,255.088,-0.75206
5.65833,255.104,-0.752164
5.66,255.121,-0.752265
5.66167,255.137,-0.752373
5.66333,255.154,-0.752478
5.665,255.17,-0.752582
5.66667,255.187,-0.752683
5.66833,255.203,-0.752774
5.67,255.22,-0.752859
5.67167,255.236,-0.752948
5.67333,255.253,-0.753038
5.675,255.269,-0.753133
5.67667,255.285,-0.75323
5.67833,255.302,-0.753328
5.68,255.318,-0.753431
5.68167,255.334,-0.753531
5.68333,255.351,-0.753635
5.685,255.368,-0.753744
5.68667,255.384,-0.753858
5.68833,255.401,-0.753969
5.69,255.418,-0.754083
5.69167,255.434,-0.754198
5.69333,255.451,-0.754309
5.695,255.467,-0.75442
5.69667,255.483,-0.754526
5.69833,255.5,-0.75463
5.7,255.516,-0.754734
5.70167,255.533,-0.754828
5.70333,255.549,-0.754925
5.705,255.566,-0.755025
5.70667,255.582,-0.75513
5.70833,255.599,-0.755243
5.71,255.615,-0.755356
5.71167,255.632,-0.755468
5.71333,255.648,-0.755579
5.715,255.665,-0.755687
5.71667,255.681,-0.755797
5.71833,255.698,-0.755899
5.72,255.714,-0.755991
5.72167,255.731,-0.756087
5.72333,255.748,-0.75619
5.725,255.764,-0.756295
5.72667,255.78,-0.756414
5.72833,255.797,-0.75655
5.73,255.813,-0.756693
5.73167,255.83,-0.75681
5.73333,255.846,-0.756923
5.735,255.863,-0.75704
5.73667,255.879,-0.757143
5.73833,255.896,-0.757245
5.74,255.913,-0.757351
5.74167,255.929,-0.757457
5.74333,255.945,-0.757555
5.745,255.962,-0.757663
5.74667,255.978,-0.757779
5.74833,255.995,-0.757898
5.75,256.011,-0.758021
5.75167,256.028,-0.758141
5.75333,256.044,-0.758259
5.755,256.061,-0.758363
5.75667,256.077,-0.758455
5.75833,256.094,-0.758547
5.76,256.111,-0.758639
5.76167,256.127,-0.758716
5.76333,256.144,-0.758782
5.765,256.16,-0.75885
5.76667,256.177,-0.75892
5.76833,256.193,-0.758999
5.77,256.21,-0.759086
5.77167,256.226,-0.759187
5.77333,256.243,-0.759293
5.775,256.259,-0.7594
5.77667,256.276,-0.759514
5.77833,256.292,-0.759628
5.78,256.309,-0.759735
5.78167,256.325,-0.759834
5.78333,256.341,-0.759936
5.785,256.359,-0.760035
5.78667,256.375,-0.760127
5.78833,256.391,-0.760221
5.79,256.409,-0.760314
5.79167,256.425,-0.760418
5.79333,256.441,-0.760529
5.795,256.458,-0.760646
5.79667,256.474,-0.760758
5.79833,256.491,-0.760873
5.8,256.507,-0.76099
5.80167,256.524,-0.761125
5.80333,256.54,-0.761247
5.805,256.557,-0.761368
5.80667,256.573,-0.761487
5.80833,256.59,-0.7616
5.81,256.606,-0.761712
5.81167,256.622,-0.761821
5.81333,256.639,-0.76193
5.815,256.656,-0.762038
5.81667,256.673,-0.762149
5.81833,256.689,-0.762254
5.82,256.705,-0.762344
5.82167,256.722,-0.762426
5.82333,256.739,-0.762506
5.825,256.755,-0.762595
5.82667,256.771,-0.762678
5.82833,256.789,-0.762761
5.83,256.805,-0.762843
5.83167,256.822,-0.762936
5.83333,256.838,-0.76304
5.835,256.855,-0.763147
5.83667,256.871,-0.763248
5.83833,256.888,-0.76335
5.84,256.904,-0.763454
5.84167,256.921,-0.76356
5.84333,256.937,-0.763669
5.845,256.954,-0.763772
5.84667,256.97,-0.763876
5.84833,256.987,-0.763984
5.85,257.004,-0.76409
5.85167,257.02,-0.764198
5.85333,257.036,-0.7643
5.855,257.053,-0.7644
5.85667,257.07,-0.764501
5.85833,257.086,-0.764603
5.86,257.102,-0.764715
5.86167,257.119,-0.764842
5.86333,257.136,-0.764959
5.865,257.153,-0.765066
5.86667,257.169,-0.765177
5.86833,257.185,-0.76528
5.87,257.202,-0.765378
5.87167,257.218,-0.765468
5.87333,257.235,-0.765555
5.875,257.251,-0.76564
5.87667,257.268,-0.765724
5.87833,257.285,-0.765809
5.88,257.301,-0.765909
5.88167,257.317,-0.766022
5.88333,257.334,-0.766139
5.885,257.351,-0.76627
5.88667,257.368,-0.766389
5.88833,257.384,-0.766507
5.89,257.401,-0.766618
5.89167,257.417,-0.766729
5.89333,257.434,-0.766829
5.895,257.45,-0.766924
5.89667,257.467,-0.767013
5.89833,257.484,-0.7671
5.9,257.5,-0.767186
5.90167,257.517,-0.767275
5.90333,257.533,-0.767364
5.905,257.55,-0.767454
5.90667,257.566,-0.767545
5.90833,257.583,-0.767637
5.91,257.599,-0.767725
5.91167,257.616,-0.767822
5.91333,257.633,-0.767917
5.915,257.649,-0.768013
5.91667,257.666,-0.768112
5.91833,257.682,-0.768213
5.92,257.699,-0.768316
5.92167,257.716,-0.768417
5.92333,257.732,-0.768516
5.925,257.749,-0.768624
5.92667,257.765,-0.768721
5.92833,257.781,-0.768813
5.93,257.798,-0.768902
5.93167,257.814,-0.768985
5.93333,257.831,-0.76906
5.935,257.848,-0.769136
5.93667,257.864,-0.769206
5.93833,257.881,-0.769276
5.94,257.898,-0.769345
5.94167,257.914,-0.76941
5.94333,257.931,-0.769472
5.945,257.948,-0.769548
5.94667,257.964,-0.769626
5.94833,257.98,-0.769702
5.95,257.997,-0.769776
5.95167,258.013,-0.769853
5.95333,258.03,-0.769938
5.955,258.046,-0.770034
5.95667,258.063,-0.770131
5.95833,258.079,-0.770222
5.96,258.096,-0.770311
5.96167,258.113,-0.770402
5.96333,258.129,-0.770502
5.965,258.146,-0.770599
5.96667,258.162,-0.770683
5.96833,258.179,-0.770774
5.97,258.196,-0.770868
5.97167,258.212,-0.770961
5.97333,258.229,-0.771057
5.975,258.245,-0.771161
5.97667,258.262,-0.771266
5.97833,258.278,-0.771366
5.98,258.294,-0.771457
5.98167,258.311,-0.771541
5.98333,258.328,-0.771614
5.985,258.344,-0.771683
5.98667,258.361,-0.771756
5.98833,258.378,-0.771828
5.99,258.395,-0.771904
5.99167,258.411,-0.771975
5.99333,258.427,-0.772046
5.995,258.444,-0.772122
5.99667,258.46,-0.772202
5.99833,258.477,-0.772288
6,258.494,-0.77238
6.00167,258.51,-0.772469
6.00333,258.527,-0.772563
6.005,258.544,-0.77265
6.00667,258.56,-0.772739
6.00833,258.577,-0.772835
6.01,258.593,-0.772929
6.01167,258.61,-0.773013
6.01333,258.627,-0.773101
6.015,258.643,-0.773188
6.01667,258.66,-0.773282
6.01833,258.676,-0.773383
6.02,258.693,-0.773479
6.02167,258.709,-0.773567
6.02333,258.726,-0.773651
6.025,258.743,-0.773735
6.02667,258.759,-0.773812
6.02833,258.776,-0.773883
6.03,258.793,-0.773956
6.03167,258.809,-0.774031
6.03333,258.826,-0.774096
6.035,258.843,-0.774171
6.03667,258.859,-0.774251
6.03833,258.876,-0.774338
6.04,258.893,-0.774426
6.04167,258.909,-0.774516
6.04333,258.926,-0.774601
6.045,258.942,-0.774681
6.04667,258.958,-0.774757
6.04833,258.975,-0.774837
6.05,258.992,-0.774913
6.05167,259.008,-0.774983
6.05333,259.025,-0.775053
6.055,259.041,-0.775122
6.05667,259.058,-0.775201
6.05833,259.074,-0.775274
6.06,259.091,-0.775346
6.06167,259.108,-0.775415
6.06333,259.124,-0.775485
6.065,259.141,-0.775552
6.06667,259.157,-0.775625
6.06833,259.174,-0.775701
6.07,259.191,-0.775783
6.07167,259.207,-0.775859
6.07333,259.224,-0.775933
6.075,259.241,-0.776014
6.07667,259.257,-0.776092
6.07833,259.274,-0.776167
6.08,259.29,-0.776235
6.08167,259.307,-0.776293
6.08333,259.323,-0.776351
6.085,259.34,-0.776415
6.08667,259.356,-0.776495
6.08833,259.373,-0.776578
6.09,259.389,-0.776673
6.09167,259.406,-0.776778
6.09333,259.423,-0.776887
6.095,259.439,-0.777045
6.09667,259.456,-0.777231
6.09833,259.473,-0.777361
6.1,259.489,-0.777462
6.10167,259.506,-0.777551
6.10333,259.522,-0.777624
6.105,259.539,-0.777681
6.10667,259.556,-0.777734
6.10833,259.572,-0.777779
6.11,259.589,-0.777832
6.11167,259.605,-0.77788
6.11333,259.622,-0.777929
6.115,259.638,-0.777979
6.11667,259.655,-0.778031
6.11833,259.671,-0.778093
6.12,259.688,-0.778165
6.12167,259.705,-0.778238
6.12333,259.722,-0.778315
6.125,259.738,-0.778388
6.12667,259.755,-0.778464
6.12833,259.772,-0.77855
6.13,259.788,-0.77863
6.13167,259.805,-0.77871
6.13333,259.821,-0.778785
6.135,259.838,-0.77886
6.13667,259.854,-0.77893
6.13833,259.871,-0.778992
6.14,259.888,-0.779054
6.14167,259.904,-0.779125
6.14333,259.921,-0.77919
6.145,259.938,-0.779258
6.14667,259.954,-0.779324
6.14833,259.97,-0.779399
6.15,259.987,-0.779481
6.15167,260.004,-0.779571
6.15333,260.02,-0.779666
6.155,260.037,-0.779761
6.15667,260.054,-0.779853
6.15833,260.07,-0.779939
6.16,260.087,-0.780022
6.16167,260.103,-0.780097
6.16333,260.12,-0.780165
6.165,260.136,-0.780226
6.16667,260.153,-0.780284
6.16833,260.169,-0.78034
6.17,260.186,-0.780392
6.17167,260.203,-0.780447
6.17333,260.219,-0.780503
6.175,260.236,-0.780562
6.17667,260.253,-0.780623
6.17833,260.269,-0.780692
6.18,260.286,-0.780758
6.18167,260.303,-0.780828
6.18333,260.319,-0.780898
6.185,260.336,-0.780961
6.18667,260.352,-0.781022
6.18833,260.368,-0.781081
6.19,260.385,-0.781129
6.19167,260.402,-0.78117
6.19333,260.418,-0.7812
6.195,260.435,-0.781224
6.19667,260.451,-0.781244
6.19833,260.469,-0.781275
6.2,260.485,-0.781313
6.20167,260.502,-0.781351
6.20333,260.518,-0.781388
6.205,260.535,-0.781435
6.20667,260.551,-0.781488
6.20833,260.568,-0.781544
6.21,260.585,-0.7816
6.21167,260.601,-0.781648
6.21333,260.618,-0.781688
6.215,260.634,-0.781733
6.21667,260.651,-0.781777
6.21833,260.667,-0.781816
6.22,260.684,-0.781858
6.22167,260.701,-0.781902
6.22333,260.718,-0.781947
6.225,260.734,-0.782001
6.22667,260.751,-0.782063
6.22833,260.767,-0.782135
6.23,260.784,-0.782235
6.23167,260.801,-0.782377
6.23333,260.817,-0.782495
6.235,260.834,-0.782616
6.23667,260.851,-0.782713
6.23833,260.868,-0.782797
6.24,260.884,-0.782874
6.24167,260.901,-0.782942
6.24333,260.917,-0.782999
6.245,260.934,-0.78305
6.24667,260.951,-0.783093
6.24833,260.967,-0.783133
6.25,260.983,-0.783166
6.25167,261,-0.783204
6.25333,261.016,-0.78324
6.255,261.033,-0.783278
6.25667,261.05,-0.78332
6.25833,261.066,-0.783383
6.26,261.083,-0.783448
6.26167,261.1,-0.783522
6.26333,261.116,-0.783594
6.265,261.133,-0.783665
6.26667,261.15,-0.783736
6.26833,261.166,-0.783805
6.27,261.183,-0.783877
6.27167,261.2,-0.783933
6.27333,261.216,-0.783978
6.275,261.233,-0.784009
6.27667,261.249,-0.784041
6.27833,261.266,-0.784062
6.28,261.283,-0.784091
6.28167,261.299,-0.784115
6.28333,261.316,-0.784141
6.285,261.332,-0.784165
6.28667,261.349,-0.784199
6.28833,261.365,-0.784243
6.29,261.382,-0.784305
6.29167,261.399,-0.784373
6.29333,261.415,-0.784438
6.295,261.432,-0.784497
6.29667,261.448,-0.784559
6.29833,261.465,-0.784617
6.3,261.482,-0.784682
6.30167,261.498,-0.784753
6.30333,261.515,-0.78482
6.305,261.532,-0.784882
6.30667,261.548,-0.784942
6.30833,261.565,-0.785008
6.31,261.581,-0.785074
6.31167,261.598,-0.785141
6.31333,261.615,-0.785203
6.315,261.631,-0.785266
6.31667,261.648,-0.785331
6.31833,261.665,-0.785403
6.32,261.681,-0.785464
6.32167,261.698,-0.785517
6.32333,261.714,-0.785557
6.325,261.731,-0.785595
6.32667,261.748,-0.785632
6.32833,261.765,-0.785667
6.33,261.781,-0.785698
6.33167,261.798,-0.785736
6.33333,261.814,-0.785769
6.335,261.831,-0.785803
6.33667,261.848,-0.785845
6.33833,261.864,-0.785886
6.34,261.881,-0.785928
6.34167,261.897,-0.785966
6.34333,261.914,-0.785999
6.345,261.931,-0.786034
6.34667,261.947,-0.78606
6.34833,261.964,-0.786084
6.35,261.981,-0.786112
6.35167,261.997,-0.786138
6.35333,262.014,-0.78616
6.355,262.031,-0.786189
6.35667,262.047,-0.786225
6.35833,262.064,-0.786263
6.36,262.08,-0.786297
6.36167,262.097,-0.786333
6.36333,262.114,-0.786377
6.365,262.131,-0.78642
6.36667,262.147,-0.786469
6.36833,262.164,-0.78652
6.37,262.18,-0.786572
6.37167,262.197,-0.786626
6.37333,262.214,-0.786681
6.375,262.23,-0.786749
6.37667,262.247,-0.786822
6.37833,262.263,-0.786893
6.38,262.28,-0.786974
6.38167,262.297,-0.787064
6.38333,262.313,-0.787147
6.385,262.33,-0.787217
6.38667,262.346,-0.78728
6.38833,262.363,-0.787331
6.39,262.38,-0.78738
6.39167,262.397,-0.787427
6.39333,262.413,-0.787477
6.395,262.43,-0.787532
6.39667,262.447,-0.787581
6.39833,262.463,-0.787627
6.4,262.48,-0.787671
6.40167,262.496,-0.787727
6.40333,262.513,-0.787772
6.405,262.53,-0.787818
6.40667,262.546,-0.787853
6.40833,262.563,-0.787888
6.41,262.579,-0.787925
6.41167,262.596,-0.78796
6.41333,262.613,-0.787991
6.415,262.629,-0.788027
6.41667,262.646,-0.788064
6.41833,262.662,-0.788104
6.42,262.679,-0.788145
6.42167,262.696,-0.788183
6.42333,262.713,-0.788225
6.425,262.729,-0.788258
6.42667,262.746,-0.788284
6.42833,262.763,-0.788307
6.43,262.779,-0.78833
6.43167,262.796,-0.788347
6.43333,262.813,-0.788364
6.435,262.829,-0.788394
6.43667,262.846,-0.788438
6.43833,262.862,-0.788488
6.44,262.879,-0.788549
6.44167,262.896,-0.788616
6.44333,262.913,-0.788677
6.445,262.93,-0.788732
6.44667,262.946,-0.788793
6.44833,262.963,-0.788852
6.45,262.98,-0.788904
6.45167,262.996,-0.788949
6.45333,263.013,-0.788996
6.455,263.029,-0.789038
6.45667,263.046,-0.789072
6.45833,263.062,-0.789109
6.46,263.08,-0.78914
6.46167,263.096,-0.789167
6.46333,263.112,-0.789195
6.465,263.129,-0.789228
6.46667,263.146,-0.789264
6.46833,263.162,-0.789303
6.47,263.179,-0.789341
6.47167,263.196,-0.789389
6.47333,263.213,-0.789441
6.475,263.229,-0.789486
6.47667,263.246,-0.789525
6.47833,263.262,-0.789566
6.48,263.279,-0.789608
6.48167,263.295,-0.789647
6.48333,263.312,-0.789685
6.485,263.329,-0.789734
6.48667,263.345,-0.789788
6.48833,263.362,-0.789843
6.49,263.379,-0.789893
6.49167,263.395,-0.789942
6.49333,263.412,-0.789991
6.495,263.429,-0.790039
6.49667,263.445,-0.79009
6.49833,263.462,-0.790141
6.5,263.478,-0.790181
6.50167,263.495,-0.79022
6.50333,263.512,-0.790266
6.505,263.528,-0.790308
6.50667,263.545,-0.790353
6.50833,263.561,-0.79039
6.51,263.578,-0.790423
6.51167,263.595,-0.790451
6.51333,263.611,-0.790474
6.515,263.628,-0.790503
6.51667,263.645,-0.790538
6.51833,263.661,-0.790563
6.52,263.679,-0.790587
6.52167,263.695,-0.790601
6.52333,263.711,-0.790623
6.525,263.728,-0.790655
6.52667,263.744,-0.790686
6.52833,263.761,-0.790724
6.53,263.777,-0.790768
6.53167,263.794,-0.790813
6.53333,263.811,-0.790857
6.535,263.827,-0.790901
6.53667,263.844,-0.790936
6.53833,263.86,-0.790966
6.54,263.878,-0.790992
6.54167,263.894,-0.79101
6.54333,263.911,-0.791023
6.545,263.928,-0.791041
6.54667,263.944,-0.791067
6.54833,263.961,-0.791098
6.55,263.978,-0.791137
6.55167,263.994,-0.791183
6.55333,264.01,-0.79124
6.555,264.027,-0.791299
6.55667,264.043,-0.791349
6.55833,264.061,-0.791393
6.56,264.076,-0.791434
6.56167,264.093,-0.791469
6.56333,264.11,-0.791498
6.565,264.127,-0.791522
6.56667,264.143,-0.791542
6.56833,264.16,-0.791567
6.57,264.176,-0.791591
6.57167,264.193,-0.79163
6.57333,264.209,-0.791676
6.575,264.226,-0.791722
6.57667,264.243,-0.791771
6.57833,264.259,-0.791827
6.58,264.276,-0.791876
6.58167,264.293,-0.791923
6.58333,264.31,-0.791969
6.585,264.326,-0.792006
6.58667,264.343,-0.792039
6.58833,264.36,-0.792069
6.59,264.377,-0.792098
6.59167,264.393,-0.792135
6.59333,264.41,-0.792166
6.595,264.427,-0.792196
6.59667,264.443,-0.792235
6.59833,264.46,-0.792285
6.6,264.476,-0.792339
6.60167,264.493,-0.79239
6.60333,264.51,-0.792434
6.605,264.527,-0.792469
6.60667,264.543,-0.792499
6.60833,264.56,-0.792525
6.61,264.577,-0.792551
6.61167,264.593,-0.792571
6.61333,264.609,-0.79258
6.615,264.626,-0.792588
6.61667,264.643,-0.7926
6.61833,264.66,-0.792613
6.62,264.676,-0.792635
6.62167,264.693,-0.792662
6.62333,264.71,-0.792698
6.625,264.726,-0.792739
6.62667,264.743,-0.792788
6.62833,264.76,-0.792844
6.63,264.776,-0.792906
6.63167,264.793,-0.792966
6.63333,264.81,-0.793025
6.635,264.826,-0.793084
6.63667,264.843,-0.793142
6.63833,264.86,-0.793193
6.64,264.876,-0.793234
6.64167,264.893,-0.793268
6.64333,264.91,-0.793296
6.645,264.927,-0.79332
6.64667,264.943,-0.793346
6.64833,264.96,-0.793365
6.65,264.976,-0.793389
6.65167,264.993,-0.793413
6.65333,265.01,-0.793441
6.655,265.026,-0.793466
6.65667,265.043,-0.793488
6.65833,265.059,-0.793511
6.66,265.076,-0.793532
6.66167,265.093,-0.793552
6.66333,265.11,-0.793574
6.665,265.126,-0.793608
6.66667,265.142,-0.793642
6.66833,265.159,-0.79368
6.67,265.176,-0.793722
6.67167,265.192,-0.793753
6.67333,265.209,-0.793791
6.675,265.226,-0.793826
6.67667,265.242,-0.793859
6.67833,265.259,-0.793895
6.68,265.276,-0.793935
6.68167,265.293,-0.793974
6.68333,265.309,-0.794028
6.685,265.326,-0.794088
6.68667,265.342,-0.794148
6.68833,265.359,-0.794215
6.69,265.376,-0.79428
6.69167,265.392,-0.794342
6.69333,265.409,-0.7944
6.695,265.426,-0.794455
6.69667,265.442,-0.794505
6.69833,265.46,-0.794544
6.7,265.476,-0.79457
6.70167,265.493,-0.794594
6.70333,265.509,-0.794608
6.705,265.526,-0.794628
6.70667,265.542,-0.794656
6.70833,265.559,-0.794686
6.71,265.575,-0.794725
6.71167,265.592,-0.794756
6.71333,265.609,-0.79479
6.715,265.625,-0.794822
6.71667,265.642,-0.794842
6.71833,265.659,-0.794858
6.72,265.676,-0.794867
6.72167,265.692,-0.794877
6.72333,265.708,-0.794896
6.725,265.725,-0.794909
6.72667,265.741,-0.794938
6.72833,265.758,-0.794972
6.73,265.775,-0.795004
6.73167,265.792,-0.795045
6.73333,265.809,-0.795092
6.735,265.825,-0.795134
6.73667,265.842,-0.795166
6.73833,265.858,-0.795199
6.74,265.875,-0.795225
6.74167,265.892,-0.795246
6.74333,265.908,-0.795267
6.745,265.925,-0.795288
6.74667,265.942,-0.795308
6.74833,265.958,-0.795331
6.75,265.975,-0.795361
6.75167,265.991,-0.795396
6.75333,266.008,-0.795436
6.755,266.025,-0.795474
6.75667,266.041,-0.795513
6.75833,266.058,-0.795551
6.76,266.074,-0.795581
6.76167,266.091,-0.795609
6.76333,266.108,-0.795636
6.765,266.125,-0.795652
6.76667,266.141,-0.795666
6.76833,266.158,-0.795683
6.77,266.174,-0.795704
6.77167,266.191,-0.795733
6.77333,266.207,-0.795769
6.775,266.224,-0.795806
6.77667,266.241,-0.795835
6.77833,266.257,-0.795865
6.78,266.274,-0.795891
6.78167,266.291,-0.795916
6.78333,266.307,-0.795938
6.785,266.324,-0.79595
6.78667,266.34,-0.795965
6.78833,266.357,-0.795978
6.79,266.374,-0.79599
6.79167,266.39,-0.796002
6.79333,266.407,-0.79602
6.795,266.423,-0.796035
6.79667,266.44,-0.796053
6.79833,266.457,-0.796076
6.8,266.473,-0.79611
6.80167,266.491,-0.796143
6.80333,266.507,-0.796173
6.805,266.524,-0.796202
6.80667,266.54,-0.796238
6.80833,266.557,-0.796275
6.81,266.574,-0.796308
6.81167,266.59,-0.796347
6.81333,266.607,-0.796384
6.815,266.623,-0.796419
6.81667,266.64,-0.796461
6.81833,266.657,-0.796499
6.82,266.673,-0.796534
6.82167,266.69,-0.796572
6.82333,266.707,-0.796601
6.825,266.724,-0.796631
6.82667,266.74,-0.79666
6.82833,266.757,-0.796684
6.83,266.773,-0.796699
6.83167,266.79,-0.796711
6.83333,266.807,-0.796722
6.835,266.823,-0.796738
6.83667,266.84,-0.796754
6.83833,266.857,-0.796766
6.84,266.873,-0.79678
6.84167,266.89,-0.796794
6.84333,266.906,-0.796804
6.845,266.922,-0.796821
6.84667,266.94,-0.796837
6.84833,266.956,-0.796852
6.85,266.973,-0.796863
6.85167,266.989,-0.796881
6.85333,267.006,-0.796907
6.855,267.023,-0.796935
6.85667,267.04,-0.796968
6.85833,267.057,-0.797003
6.86,267.073,-0.79705
6.86167,267.09,-0.797093
6.86333,267.106,-0.797136
6.865,267.123,-0.797185
6.86667,267.14,-0.797229
6.86833,267.157,-0.797272
6.87,267.173,-0.797314
6.87167,267.19,-0.797354
6.87333,267.206,-0.797383
6.875,267.223,-0.797397
6.87667,267.24,-0.7974
6.87833,267.256,-0.797401
6.88,267.273,-0.797392
6.88167,267.289,-0.797386
6.88333,267.306,-0.797387
6.885,267.322,-0.797397
6.88667,267.339,-0.797411
6.88833,267.355,-0.79744
6.89,267.372,-0.797477
6.89167,267.389,-0.797522
6.89333,267.405,-0.797573
6.895,267.422,-0.797611
6.89667,267.439,-0.797651
6.89833,267.455,-0.79768
6.9,267.472,-0.797708
6.90167,267.489,-0.797745
6.90333,267.506,-0.797787
6.905,267.522,-0.797835
6.90667,267.539,-0.797882
6.90833,267.556,-0.797936
6.91,267.572,-0.798001
6.91167,267.589,-0.798087
6.91333,267.605,-0.798144
6.915,267.622,-0.798198
6.91667,267.639,-0.798238
6.91833,267.655,-0.798273
6.92,267.672,-0.798309
6.92167,267.689,-0.798337
6.92333,267.706,-0.798354
6.925,267.722,-0.798365
6.92667,267.739,-0.798384
6.92833,267.756,-0.798408
6.93,267.772,-0.79844
6.93167,267.789,-0.798464
6.93333,267.806,-0.798483
6.935,267.822,-0.798502
6.93667,267.839,-0.79852
6.93833,267.855,-0.798532
6.94,267.872,-0.798545
6.94167,267.888,-0.798554
6.94333,267.905,-0.798569
6.945,267.922,-0.798586
6.94667,267.938,-0.798612
6.94833,267.954,-0.798641
6.95,267.971,-0.798675
6.95167,267.988,-0.798718
6.95333,268.005,-0.798762
6.955,268.021,-0.798803
6.95667,268.038,-0.798848
6.95833,268.055,-0.798888
6.96,268.071,-0.798933
6.96167,268.088,-0.798969
6.96333,268.105,-0.798995
6.965,268.121,-0.799025
6.96667,268.138,-0.799054
6.96833,268.155,-0.799083
6.97,268.172,-0.799116
6.97167,268.188,-0.799145
6.97333,268.205,-0.799179
6.975,268.221,-0.799211
6.97667,268.238,-0.799243
6.97833,268.255,-0.799266
6.98,268.272,-0.799285
6.98167,268.288,-0.799293
6.98333,268.305,-0.799301
6.985,268.321,-0.799309
6.98667,268.338,-0.799319
6.98833,268.354,-0.799336
6.99,268.371,-0.799355
6.99167,268.388,-0.799391
6.99333,268.404,-0.799431
6.995,268.421,-0.799471
6.99667,268.438,-0.799514
6.99833,268.454,-0.799558
7,268.471,-0.799591
7.00167,268.487,-0.799626
7.00333,268.504,-0.799654
7.005,268.521,-0.79967
7.00667,268.537,-0.799681
7.00833,268.554,-0.799692
7.01,268.57,-0.799706
7.01167,268.587,-0.799721
7.01333,268.604,-0.799734
7.015,268.621,-0.799744
7.01667,268.637,-0.799748
7.01833,268.654,-0.799751
7.02,268.671,-0.799761
7.02167,268.688,-0.799779
7.02333,268.704,-0.799796
7.025,268.721,-0.799809
7.02667,268.737,-0.799822
7.02833,268.754,-0.799852
7.03,268.77,-0.799886
7.03167,268.787,-0.799919
7.03333,268.803,-0.799953
7.035,268.82,-0.799989
7.03667,268.836,-0.800021
7.03833,268.853,-0.800051
7.04,268.87,-0.800083
7.04167,268.886,-0.800119
7.04333,268.903,-0.80015
7.045,268.92,-0.800173
7.04667,268.937,-0.800196
7.04833,268.954,-0.800217
7.05,268.97,-0.800234
7.05167,268.987,-0.800241
7.05333,269.004,-0.800247
7.055,269.02,-0.800257
7.05667,269.037,-0.800268
7.05833,269.053,-0.800284
7.06,269.07,-0.800313
7.06167,269.087,-0.800342
7.06333,269.103,-0.800376
7.065,269.12,-0.800412
7.06667,269.137,-0.800447
7.06833,269.154,-0.800483
7.07,269.17,-0.800521
7.07167,269.187,-0.800549
7.07333,269.204,-0.80059
7.075,269.22,-0.800636
7.07667,269.237,-0.800679
7.07833,269.254,-0.800724
7.08,269.271,-0.800765
7.08167,269.288,-0.800802
7.08333,269.304,-0.80084
7.085,269.321,-0.800876
7.08667,269.337,-0.800907
7.08833,269.353,-0.800939
7.09,269.37,-0.800969
7.09167,269.387,-0.800997
7.09333,269.404,-0.801025
7.095,269.42,-0.801046
7.09667,269.437,-0.801061
7.09833,269.454,-0.801078
7.1,269.47,-0.801086
7.10167,269.487,-0.801091
7.10333,269.503,-0.801092
7.105,269.52,-0.801097
7.10667,269.537,-0.801109
7.10833,269.553,-0.801137
7.11,269.57,-0.801181
7.11167,269.586,-0.801227
7.11333,269.603,-0.801276
7.115,269.619,-0.801328
7.11667,269.636,-0.801383
7.11833,269.653,-0.801431
7.12,269.669,-0.801466
7.12167,269.686,-0.80149
7.12333,269.703,-0.801498
7.125,269.719,-0.801494
7.12667,269.736,-0.801484
7.12833,269.753,-0.80148
7.13,269.77,-0.801475
7.13167,269.786,-0.801475
7.13333,269.803,-0.801477
7.135,269.819,-0.801482
7.13667,269.836,-0.801496
7.13833,269.853,-0.801515
7.14,269.869,-0.801539
7.14167,269.886,-0.801566
7.14333,269.902,-0.801595
7.145,269.919,-0.801623
7.14667,269.936,-0.801652
7.14833,269.953,-0.801682
7.15,269.969,-0.801709
7.15167,269.986,-0.80173
7.15333,270.002,-0.801748
7.155,270.019,-0.801763
7.15667,270.036,-0.801769
7.15833,270.052,-0.801771
7.16,270.069,-0.801772
7.16167,270.086,-0.801766
7.16333,270.102,-0.801754
7.165,270.119,-0.801752
7.16667,270.136,-0.80176
7.16833,270.152,-0.801783
7.17,270.169,-0.801812
7.17167,270.186,-0.801851
7.17333,270.202,-0.801893
7.175,270.218,-0.801934
7.17667,270.235,-0.801981
7.17833,270.252,-0.802029
7.18,270.269,-0.80208
7.18167,270.285,-0.80212
7.18333,270.302,-0.802159
7.185,270.318,-0.802193
7.18667,270.335,-0.802222
7.18833,270.352,-0.802255
7.19,270.369,-0.802293
7.19167,270.385,-0.802333
7.19333,270.402,-0.802359
7.195,270.419,-0.802378
7.19667,270.435,-0.802391
7.19833,270.452,-0.802402
7.2,270.469,-0.802407
7.20167,270.485,-0.80242
7.20333,270.502,-0.802425
7.205,270.519,-0.802426
7.20667,270.535,-0.802437
7.20833,270.552,-0.802458
7.21,270.569,-0.802489
7.21167,270.585,-0.802525
7.21333,270.602,-0.802561
7.215,270.618,-0.802597
7.21667,270.635,-0.802634
7.21833,270.651,-0.802668
7.22,270.668,-0.802702
7.22167,270.685,-0.802718
7.22333,270.701,-0.802737
7.225,270.718,-0.80276
7.22667,270.735,-0.80279
7.22833,270.751,-0.802824
7.23,270.768,-0.802846
7.23167,270.784,-0.802878
7.23333,270.801,-0.802913
7.235,270.817,-0.80295
7.23667,270.834,-0.802987
7.23833,270.851,-0.803026
7.24,270.867,-0.803059
7.24167,270.884,-0.803089
7.24333,270.901,-0.803117
7.245,270.918,-0.803148
7.24667,270.934,-0.803177
7.24833,270.951,-0.803204
7.25,270.968,-0.803224
7.25167,270.984,-0.803237
7.25333,271.001,-0.803248
7.255,271.017,-0.803255
7.25667,271.034,-0.80326
7.25833,271.051,-0.803266
7.26,271.068,-0.80327
7.26167,271.084,-0.803285
7.26333,271.101,-0.803306
7.265,271.118,-0.803328
7.26667,271.134,-0.803353
7.26833,271.151,-0.803377
7.27,271.168,-0.803403
7.27167,271.184,-0.803428
7.27333,271.201,-0.803451
7.275,271.217,-0.803476
7.27667,271.234,-0.803495
7.27833,271.251,-0.80352
7.28,271.268,-0.803552
7.28167,271.284,-0.803588
7.28333,271.301,-0.803623
7.285,271.318,-0.803662
7.28667,271.334,-0.803698
7.28833,271.35,-0.803739
7.29,271.367,-0.803785
7.29167,271.384,-0.803836
7.29333,271.4,-0.803886
7.295,271.417,-0.803939
7.29667,271.434,-0.803992
7.29833,271.45,-0.804025
7.3,271.467,-0.804051
7.30167,271.484,-0.804069
7.30333,271.5,-0.80408
7.305,271.517,-0.804091
7.30667,271.534,-0.804099
7.30833,271.55,-0.804108
7.31,271.567,-0.804123
7.31167,271.584,-0.80414
7.31333,271.6,-0.80416
7.315,271.617,-0.804188
7.31667,271.634,-0.804214
7.31833,271.651,-0.804235
7.32,271.667,-0.804253
7.32167,271.684,-0.804281
7.32333,271.7,-0.804319
7.325,271.717,-0.804355
7.32667,271.733,-0.80439
7.32833,271.75,-0.804426
7.33,271.767,-0.804461
7.33167,271.783,-0.804496
7.33333,271.8,-0.804526
7.335,271.816,-0.804548
7.33667,271.833,-0.804577
7.33833,271.85,-0.804611
7.34,271.866,-0.80464
7.34167,271.883,-0.804661
7.34333,271.9,-0.804688
7.345,271.916,-0.804716
7.34667,271.933,-0.804745
7.34833,271.95,-0.804778
7.35,271.967,-0.804818
7.35167,271.983,-0.804858
7.35333,272,-0.804891
7.355,272.017,-0.804925
7.35667,272.034,-0.804963
7.35833,272.051,-0.805
7.36,272.067,-0.805038
7.36167,272.083,-0.805067
7.36333,272.1,-0.805094
7.365,272.117,-0.805123
7.36667,272.133,-0.805144
7.36833,272.15,-0.805166
7.37,272.167,-0.805189
7.37167,272.183,-0.805213
7.37333,272.2,-0.805234
7.375,272.217,-0.805245
7.37667,272.233,-0.805255
7.37833,272.25,-0.805268
7.38,272.267,-0.80529
7.38167,272.283,-0.805315
7.38333,272.3,-0.805344
7.385,272.316,-0.805373
7.38667,272.333,-0.805406
7.38833,272.35,-0.805443
7.39,272.366,-0.805484
7.39167,272.383,-0.805534
7.39333,272.4,-0.805577
7.395,272.417,-0.80562
7.39667,272.433,-0.805664
7.39833,272.45,-0.805704
7.4,272.467,-0.805744
7.40167,272.483,-0.805773
7.40333,272.5,-0.805794
7.405,272.516,-0.805811
7.40667,272.533,-0.805815
7.40833,272.55,-0.805829
7.41,272.567,-0.805855
7.41167,272.583,-0.805889
7.41333,272.6,-0.805925
7.415,272.617,-0.805966
7.41667,272.633,-0.806003
7.41833,272.65,-0.806036
7.42,272.667,-0.806063
7.42167,272.683,-0.80609
7.42333,272.699,-0.806116
7.425,272.716,-0.806141
7.42667,272.733,-0.806162
7.42833,272.75,-0.806188
7.43,272.766,-0.806217
7.43167,272.783,-0.806242
7.43333,272.8,-0.806263
7.435,272.816,-0.806283
7.43667,272.833,-0.806296
7.43833,272.85,-0.806306
7.44,272.866,-0.806319
7.44167,272.883,-0.806338
7.44333,272.9,-0.806357
7.445,272.916,-0.806371
7.44667,272.933,-0.806396
7.44833,272.95,-0.806426
7.45,272.966,-0.806452
7.45167,272.983,-0.806472
7.45333,272.999,-0.806484
7.455,273.016,-0.806498
7.45667,273.033,-0.806524
7.45833,273.049,-0.806547
7.46,273.066,-0.806576
7.46167,273.083,-0.806617
7.46333,273.1,-0.806653
7.465,273.116,-0.806695
7.46667,273.133,-0.806744
7.46833,273.15,-0.806797
7.47,273.166,-0.806849
7.47167,273.183,-0.806883
7.47333,273.199,-0.806912
7.475,273.216,-0.806932
7.47667,273.233,-0.806956
7.47833,273.25,-0.806982
7.48,273.266,-0.807005
7.48167,273.283,-0.807026
7.48333,273.3,-0.807054
7.485,273.316,-0.807084
7.48667,273.333,-0.807111
7.48833,273.35,-0.807141
7.49,273.366,-0.807172
7.49167,273.383,-0.807205
7.49333,273.4,-0.807236
7.495,273.417,-0.807269
7.49667,273.433,-0.807311
7.49833,273.449,-0.807358
7.5,273.466,-0.807407
7.50167,273.483,-0.80745
7.50333,273.5,-0.807487
7.505,273.516,-0.807527
7.50667,273.533,-0.807565
7.50833,273.55,-0.807598
7.51,273.566,-0.807624
7.51167,273.583,-0.807637
7.51333,273.6,-0.807645
7.515,273.616,-0.807665
7.51667,273.633,-0.807684
7.51833,273.65,-0.807707
7.52,273.666,-0.807725
7.52167,273.683,-0.807747
7.52333,273.7,-0.807769
7.525,273.716,-0.807797
7.52667,273.732,-0.807832
7.52833,273.749,-0.807881
7.53,273.766,-0.807931
7.53167,273.783,-0.807982
7.53333,273.8,-0.808028
7.535,273.816,-0.808063
7.53667,273.833,-0.808086
7.53833,273.85,-0.808101
7.54,273.866,-0.808106
7.54167,273.883,-0.808109
7.54333,273.9,-0.808105
7.545,273.916,-0.8081
7.54667,273.933,-0.808105
7.54833,273.949,-0.808128
7.55,273.966,-0.808153
7.55167,273.982,-0.808177
7.55333,273.999,-0.80821
7.555,274.016,-0.808246
7.55667,274.032,-0.808284
7.55833,274.049,-0.808324
7.56,274.066,-0.808362
7.56167,274.083,-0.808396
7.56333,274.099,-0.808423
7.565,274.116,-0.808449
7.56667,274.133,-0.808475
7.56833,274.149,-0.808496
7.57,274.166,-0.808505
7.57167,274.183,-0.808509
7.57333,274.199,-0.808512
7.575,274.216,-0.808517
7.57667,274.233,-0.808525
7.57833,274.249,-0.808545
7.58,274.266,-0.808572
7.58167,274.282,-0.808613
7.58333,274.299,-0.808652
7.585,274.316,-0.80869
7.58667,274.333,-0.808732
7.58833,274.349,-0.808774
7.59,274.366,-0.808812
7.59167,274.382,-0.808846
7.59333,274.399,-0.808877
7.595,274.416,-0.8089
7.59667,274.432,-0.808931
7.59833,274.449,-0.808953
7.6,274.465,-0.80898
7.60167,274.482,-0.809006
7.60333,274.499,-0.809028
7.605,274.515,-0.809041
7.60667,274.532,-0.809058
7.60833,274.549,-0.809077
7.61,274.565,-0.809095
7.61167,274.582,-0.809115
7.61333,274.599,-0.809134
7.615,274.615,-0.809161
7.61667,274.632,-0.809197
7.61833,274.649,-0.809237
7.62,274.665,-0.809283
7.62167,274.682,-0.809321
7.62333,274.699,-0.809361
7.625,274.715,-0.809392
7.62667,274.732,-0.809425
7.62833,274.749,-0.809458
7.63,274.765,-0.809481
7.63167,274.782,-0.809494
7.63333,274.799,-0.809517
7.635,274.816,-0.809541
7.63667,274.832,-0.80957
7.63833,274.849,-0.809606
7.64,274.865,-0.809648
7.64167,274.882,-0.809685
7.64333,274.898,-0.809714
7.645,274.915,-0.809736
7.64667,274.932,-0.809752
7.64833,274.949,-0.809752
7.65,274.965,-0.809751
7.65167,274.982,-0.809751
7.65333,274.999,-0.809749
7.655,275.015,-0.809756
7.65667,275.032,-0.809773
7.65833,275.048,-0.809806
7.66,275.065,-0.809852
7.66167,275.082,-0.809907
7.66333,275.099,-0.810062
7.665,275.115,-0.810231
7.66667,275.132,-0.810405
7.66833,275.149,-0.810516
7.67,275.165,-0.810587
7.67167,275.182,-0.810642
7.67333,275.199,-0.810686
7.675,275.215,-0.810729
7.67667,275.232,-0.810765
7.67833,275.248,-0.810793
7.68,275.265,-0.810811
7.68167,275.282,-0.810822
7.68333,275.298,-0.810829
7.685,275.315,-0.810844
7.68667,275.332,-0.810852
7.68833,275.349,-0.810861
7.69,275.365,-0.810862
7.69167,275.381,-0.81087
7.69333,275.399,-0.810886
7.695,275.415,-0.810917
7.69667,275.432,-0.810949
7.69833,275.449,-0.810984
7.7,275.465,-0.811021
7.70167,275.482,-0.811066
7.70333,275.499,-0.811119
7.705,275.516,-0.811167
7.70667,275.532,-0.81121
7.70833,275.549,-0.811255
7.71,275.566,-0.811304
7.71167,275.582,-0.811352
7.71333,275.599,-0.811402
7.715,275.616,-0.811442
7.71667,275.632,-0.811477
7.71833,275.649,-0.811505
7.72,275.665,-0.811535
7.72167,275.682,-0.811559
7.72333,275.699,-0.811578
7.725,275.715,-0.811588
7.72667,275.732,-0.811602
7.72833,275.748,-0.811616
7.73,275.765,-0.811635
7.73167,275.782,-0.811648
7.73333,275.798,-0.811655
7.735,275.815,-0.811658
7.73667,275.832,-0.81165
7.73833,275.848,-0.811628
7.74,275.865,-0.811612
7.74167,275.882,-0.811593
7.74333,275.898,-0.811574
7.745,275.915,-0.811566
7.74667,275.932,-0.811575
7.74833,275.949,-0.811597
7.75,275.965,-0.81163
7.75167,275.982,-0.811682
7.75333,275.999,-0.811754
7.755,276.015,-0.811823
7.75667,276.032,-0.811876
7.75833,276.048,-0.811923
7.76,276.065,-0.811971
7.76167,276.082,-0.812011
7.76333,276.098,-0.81205
7.765,276.115,-0.812095
7.76667,276.132,-0.812136
7.76833,276.148,-0.812178
7.77,276.165,-0.812227
7.77167,276.181,-0.812284
7.77333,276.198,-0.812342
7.775,276.215,-0.8124
7.77667,276.231,-0.812451
7.77833,276.248,-0.812507
7.78,276.265,-0.812551
7.78167,276.281,-0.812578
7.78333,276.298,-0.812604
7.785,276.315,-0.812623
7.78667,276.332,-0.812634
7.78833,276.348,-0.812643
7.79,276.365,-0.812641
7.79167,276.381,-0.812648
7.79333,276.398,-0.812659
7.795,276.415,-0.812676
7.79667,276.431,-0.812709
7.79833,276.448,-0.812746
7.8,276.465,-0.812776
7.80167,276.481,-0.812815
7.80333,276.498,-0.812846
7.805,276.514,-0.812869
7.80667,276.531,-0.812891
7.80833,276.548,-0.812907
7.81,276.565,-0.812913
7.81167,276.581,-0.812922
7.81333,276.598,-0.812941
7.815,276.615,-0.812964
7.81667,276.631,-0.812983
7.81833,276.648,-0.813006
7.82,276.664,-0.813035
7.82167,276.682,-0.813062
7.82333,276.698,-0.813095
7.825,276.715,-0.813133
7.82667,276.731,-0.813163
7.82833,276.748,-0.813198
7.83,276.765,-0.813233
7.83167,276.781,-0.813264
7.83333,276.798,-0.813295
7.835,276.814,-0.813324
7.83667,276.831,-0.813358
7.83833,276.848,-0.813385
7.84,276.864,-0.813406
7.84167,276.881,-0.813421
7.84333,276.898,-0.813439
7.845,276.914,-0.813451
7.84667,276.931,-0.81347
7.84833,276.948,-0.813488
7.85,276.965,-0.813513
7.85167,276.982,-0.813539
7.85333,276.998,-0.813571
7.855,277.015,-0.813606
7.85667,277.032,-0.813643
7.85833,277.048,-0.813688
7.86,277.065,-0.813739
7.86167,277.081,-0.813787
7.86333,277.098,-0.813828
7.865,277.114,-0.813861
7.86667,277.131,-0.813894
7.86833,277.148,-0.813922
7.87,277.165,-0.813945
7.87167,277.181,-0.813959
7.87333,277.198,-0.813965
7.875,277.215,-0.813978
7.87667,277.232,-0.813992
7.87833,277.248,-0.814007
7.88,277.265,-0.814015
7.88167,277.281,-0.814026
7.88333,277.298,-0.814041
7.885,277.315,-0.814057
7.88667,277.331,-0.814086
7.88833,277.348,-0.814118
7.89,277.365,-0.814151
7.89167,277.381,-0.814191
7.89333,277.398,-0.814237
7.895,277.415,-0.81428
7.89667,277.431,-0.814317
7.89833,277.448,-0.814351
7.9,277.465,-0.814384
7.90167,277.481,-0.814414
7.90333,277.498,-0.814437
7.905,277.515,-0.814455
7.90667,277.531,-0.814474
7.90833,277.548,-0.814496
7.91,277.564,-0.81452
7.91167,277.581,-0.814542
7.91333,277.598,-0.814573
7.915,277.614,-0.814602
7.91667,277.631,-0.814632
7.91833,277.648,-0.814661
7.92,277.664,-0.814689
7.92167,277.681,-0.814722
7.92333,277.698,-0.814755
7.925,277.714,-0.81479
7.92667,277.731,-0.814817
7.92833,277.748,-0.814842
7.93,277.765,-0.814863
7.93167,277.781,-0.814886
7.93333,277.798,-0.814918
7.935,277.815,-0.814948
7.93667,277.831,-0.814979
7.93833,277.848,-0.815014
7.94,277.864,-0.815056
7.94167,277.881,-0.815104
7.94333,277.898,-0.815145
7.945,277.914,-0.815187
7.94667,277.931,-0.815216
7.94833,277.947,-0.815239
7.95,277.964,-0.815257
7.95167,277.98,-0.815274
7.95333,277.997,-0.815283
7.955,278.014,-0.815282
7.95667,278.03,-0.815282
7.95833,278.047,-0.81528
7.96,278.064,-0.815283
7.96167,278.081,-0.815287
7.96333,278.098,-0.815293
7.965,278.114,-0.815304
7.96667,278.131,-0.815321
7.96833,278.148,-0.815349
7.97,278.165,-0.815384
7.97167,278.181,-0.815432
7.97333,278.198,-0.815495
7.975,278.214,-0.815551
7.97667,278.231,-0.815605
7.97833,278.248,-0.815663
7.98,278.264,-0.815717
7.98167,278.281,-0.815765
7.98333,278.297,-0.815817
7.985,278.314,-0.815855
7.98667,278.331,-0.815888
7.98833,278.347,-0.815919
7.99,278.364,-0.815955
7.99167,278.381,-0.815993
7.99333,278.397,-0.816023
7.995,278.414,-0.816057
7.99667,278.431,-0.816082
7.99833,278.447,-0.816113
8,278.464,-0.816144
8.00167,278.481,-0.81617
8.00333,278.497,-0.816191
8.005,278.514,-0.816213
8.00667,278.531,-0.816243
8.00833,278.548,-0.816273
8.01,278.564,-0.816304
8.01167,278.581,-0.816334
8.01333,278.598,-0.816363
8.015,278.614,-0.816393
8.01667,278.631,-0.816421
8.01833,278.647,-0.816441
8.02,278.664,-0.816461
8.02167,278.681,-0.816472
8.02333,278.697,-0.816486
8.025,278.714,-0.816502
8.02667,278.731,-0.816513
8.02833,278.748,-0.816529
8.03,278.765,-0.816554
8.03167,278.781,-0.816579
8.03333,278.798,-0.816606
8.035,278.814,-0.816635
8.03667,278.831,-0.816669
8.03833,278.847,-0.816711
8.04,278.864,-0.816745
8.04167,278.881,-0.816773
8.04333,278.897,-0.816793
8.045,278.914,-0.816814
8.04667,278.931,-0.816831
8.04833,278.948,-0.816852
8.05,278.964,-0.816874
8.05167,278.981,-0.816903
8.05333,278.998,-0.816944
8.055,279.014,-0.816994
8.05667,279.031,-0.81705
8.05833,279.047,-0.817124
8.06,279.064,-0.817263
8.06167,279.08,-0.817413
8.06333,279.097,-0.817544
8.065,279.114,-0.81764
8.06667,279.131,-0.817697
8.06833,279.147,-0.817739
8.07,279.164,-0.817771
8.07167,279.181,-0.817784
8.07333,279.197,-0.81779
8.075,279.214,-0.81779
8.07667,279.231,-0.817788
8.07833,279.247,-0.817782
8.08,279.264,-0.817781
8.08167,279.28,-0.817783
8.08333,279.297,-0.817792
8.085,279.314,-0.817803
8.08667,279.331,-0.817813
8.08833,279.347,-0.817818
8.09,279.364,-0.817821
8.09167,279.381,-0.817829
8.09333,279.397,-0.817836
8.095,279.414,-0.817841
8.09667,279.431,-0.81786
8.09833,279.447,-0.817893
8.1,279.464,-0.817929
8.10167,279.481,-0.817969
8.10333,279.497,-0.818017
8.105,279.514,-0.818065
8.10667,279.53,-0.818099
8.10833,279.547,-0.818124
8.11,279.564,-0.818145
8.11167,279.581,-0.818167
8.11333,279.598,-0.818188
8.115,279.614,-0.818212
8.11667,279.631,-0.818227
8.11833,279.648,-0.818239
8.12,279.664,-0.818251
8.12167,279.681,-0.818265
8.12333,279.697,-0.818272
8.125,279.714,-0.818276
8.12667,279.731,-0.818283
8.12833,279.747,-0.818296
8.13,279.764,-0.818317
8.13167,279.781,-0.818342
8.13333,279.797,-0.818377
8.135,279.814,-0.818422
8.13667,279.83,-0.818471
8.13833,279.847,-0.818526
8.14,279.864,-0.818579
8.14167,279.88,-0.81863
8.14333,279.897,-0.818672
8.145,279.914,-0.818706
8.14667,279.93,-0.818736
8.14833,279.947,-0.818758
8.15,279.964,-0.81878
8.15167,279.98,-0.818805
8.15333,279.997,-0.818836
8.155,280.014,-0.818865
8.15667,280.03,-0.81889
8.15833,280.047,-0.818904
8.16,280.064,-0.818914
8.16167,280.08,-0.818924
8.16333,280.097,-0.818938
8.165,280.114,-0.81896
8.16667,280.13,-0.818989
8.16833,280.147,-0.819026
8.17,280.164,-0.819069
8.17167,280.181,-0.81912
8.17333,280.197,-0.819199
8.175,280.214,-0.81928
8.17667,280.23,-0.81934
8.17833,280.247,-0.819396
8.18,280.263,-0.819453
8.18167,280.28,-0.819506
8.18333,280.296,-0.819553
8.185,280.313,-0.819595
8.18667,280.33,-0.819639
8.18833,280.347,-0.819676
8.19,280.363,-0.819706
8.19167,280.38,-0.819737
8.19333,280.397,-0.819754
8.195,280.413,-0.819773
8.19667,280.43,-0.819785
8.19833,280.446,-0.819804
8.2,280.463,-0.819818
8.20167,280.48,-0.819828
8.20333,280.496,-0.819844
8.205,280.513,-0.819864
8.20667,280.53,-0.81989
8.20833,280.546,-0.819914
8.21,280.564,-0.819942
8.21167,280.58,-0.819969
8.21333,280.597,-0.819993
8.215,280.614,-0.820011
8.21667,280.63,-0.820025
8.21833,280.647,-0.820035
8.22,280.664,-0.820039
8.22167,280.68,-0.820048
8.22333,280.697,-0.820071
8.225,280.714,-0.820088
8.22667,280.73,-0.820118
8.22833,280.747,-0.820152
8.23,280.764,-0.820191
8.23167,280.78,-0.820239
8.23333,280.797,-0.820279
8.235,280.813,-0.820314
8.23667,280.83,-0.820341
8.23833,280.846,-0.820366
8.24,280.863,-0.820386
8.24167,280.88,-0.820401
8.24333,280.896,-0.820418
8.245,280.913,-0.820444
8.24667,280.93,-0.820476
8.24833,280.947,-0.820503
8.25,280.963,-0.820534
8.25167,280.981,-0.820562
8.25333,280.997,-0.820596
8.255,281.014,-0.820633
8.25667,281.03,-0.820664
8.25833,281.047,-0.820688
8.26,281.064,-0.820717
8.26167,281.08,-0.820749
8.26333,281.097,-0.820786
8.265,281.113,-0.820829
8.26667,281.13,-0.820872
8.26833,281.147,-0.820906
8.27,281.163,-0.820939
8.27167,281.18,-0.820974
8.27333,281.196,-0.821014
8.275,281.213,-0.821049
8.27667,281.229,-0.821096
8.27833,281.247,-0.821155
8.28,281.263,-0.821208
8.28167,281.28,-0.821266
8.28333,281.297,-0.821315
8.285,281.313,-0.821348
8.28667,281.33,-0.821374
8.28833,281.347,-0.821392
8.29,281.364,-0.821411
8.29167,281.38,-0.821429
8.29333,281.396,-0.821435
8.295,281.413,-0.821448
8.29667,281.43,-0.821466
8.29833,281.446,-0.821486
8.3,281.463,-0.821515
8.30167,281.479,-0.821546
8.30333,281.496,-0.821572
8.305,281.513,-0.821603
8.30667,281.529,-0.821636
8.30833,281.546,-0.82167
8.31,281.563,-0.821699
8.31167,281.579,-0.821726
8.31333,281.596,-0.821758
8.315,281.613,-0.821785
8.31667,281.63,-0.821817
8.31833,281.646,-0.82185
8.32,281.663,-0.821886
8.32167,281.68,-0.821928
8.32333,281.696,-0.821959
8.325,281.713,-0.821986
8.32667,281.73,-0.822015
8.32833,281.746,-0.822043
8.33,281.762,-0.82207
8.33167,281.779,-0.822097
8.33333,281.796,-0.822117
8.335,281.813,-0.822128
8.33667,281.829,-0.822134
8.33833,281.846,-0.822136
8.34,281.863,-0.82214
8.34167,281.879,-0.822149
8.34333,281.896,-0.822162
8.345,281.913,-0.822176
8.34667,281.929,-0.822201
8.34833,281.946,-0.822236
8.35,281.963,-0.822272
8.35167,281.98,-0.822312
8.35333,281.996,-0.822356
8.355,282.013,-0.822402
8.35667,282.03,-0.822444
8.35833,282.046,-0.822482
8.36,282.063,-0.822511
8.36167,282.079,-0.822534
8.36333,282.096,-0.82255
8.365,282.112,-0.822568
8.36667,282.129,-0.822591
8.36833,282.146,-0.822601
8.37,282.162,-0.822604
8.37167,282.179,-0.822618
8.37333,282.196,-0.822644
8.375,282.212,-0.822666
8.37667,282.229,-0.822691
8.37833,282.245,-0.822714
8.38,282.262,-0.822735
8.38167,282.279,-0.822762
8.38333,282.295,-0.822796
8.385,282.312,-0.822838
8.38667,282.329,-0.822879
8.38833,282.345,-0.822927
8.39,282.362,-0.822972
8.39167,282.379,-0.823013
8.39333,282.396,-0.823044
8.395,282.412,-0.82307
8.39667,282.429,-0.823095
8.39833,282.445,-0.823108
8.4,282.462,-0.82312
8.40167,282.479,-0.823138
8.40333,282.496,-0.823165
8.405,282.513,-0.823188
8.40667,282.529,-0.823209
8.40833,282.546,-0.823238
8.41,282.562,-0.823265
8.41167,282.579,-0.823294
8.41333,282.596,-0.82332
8.415,282.612,-0.82335
8.41667,282.629,-0.823378
8.41833,282.645,-0.823404
8.42,282.662,-0.823432
8.42167,282.679,-0.823464
8.42333,282.695,-0.823494
8.425,282.712,-0.823527
8.42667,282.729,-0.823561
8.42833,282.746,-0.823599
8.43,282.763,-0.82363
8.43167,282.779,-0.823655
8.43333,282.796,-0.823677
8.435,282.812,-0.823704
8.43667,282.829,-0.823724
8.43833,282.846,-0.823751
8.44,282.862,-0.82377
8.44167,282.879,-0.823797
8.44333,282.895,-0.82383
8.445,282.912,-0.823867
8.44667,282.929,-0.823905
8.44833,282.946,-0.82394
8.45,282.962,-0.823981
8.45167,282.979,-0.824023
8.45333,282.996,-0.824059
8.455,283.012,-0.824112
8.45667,283.029,-0.824169
8.45833,283.046,-0.824209
8.46,283.062,-0.824249
8.46167,283.079,-0.824289
8.46333,283.096,-0.824326
8.465,283.112,-0.824359
8.46667,283.129,-0.824386
8.46833,283.146,-0.82442
8.47,283.163,-0.824453
8.47167,283.179,-0.824493
8.47333,283.196,-0.82454
8.475,283.212,-0.824599
8.47667,283.229,-0.824658
8.47833,283.245,-0.824714
8.48,283.262,-0.824771
8.48167,283.279,-0.824826
8.48333,283.295,-0.824874
8.485,283.312,-0.824913
8.48667,283.329,-0.824943
8.48833,283.345,-0.82497
8.49,283.362,-0.824983
8.49167,283.379,-0.824994
8.49333,283.396,-0.824985
8.495,283.412,-0.824972
8.49667,283.429,-0.824956
8.49833,283.445,-0.82494
8.5,283.462,-0.824938
8.50167,283.479,-0.824942
8.50333,283.496,-0.824951
8.505,283.512,-0.82497
8.50667,283.529,-0.824998
8.50833,283.546,-0.825042
8.51,283.562,-0.825082
8.51167,283.579,-0.825132
8.51333,283.595,-0.825185
8.515,283.612,-0.825237
8.51667,283.628,-0.82529
8.51833,283.645,-0.825343
8.52,283.662,-0.825394
8.52167,283.678,-0.825447
8.52333,283.695,-0.82549
8.525,283.712,-0.825526
8.52667,283.728,-0.825564
8.52833,283.745,-0.825608
8.53,283.762,-0.825653
8.53167,283.779,-0.8257
8.53333,283.796,-0.825743
8.535,283.812,-0.82579
8.53667,283.829,-0.825837
8.53833,283.846,-0.825885
8.54,283.862,-0.825931
8.54167,283.879,-0.825976
8.54333,283.896,-0.82602
8.545,283.912,-0.826057
8.54667,283.929,-0.826089
8.54833,283.946,-0.826116
8.55,283.962,-0.82614
8.55167,283.979,-0.826158
8.55333,283.995,-0.826176
8.555,284.012,-0.826192
8.55667,284.029,-0.826201
8.55833,284.046,-0.826204
8.56,284.063,-0.826201
8.56167,284.079,-0.82621
8.56333,284.096,-0.826218
8.565,284.112,-0.826228
8.56667,284.129,-0.826236
8.56833,284.145,-0.826255
8.57,284.162,-0.826284
8.57167,284.179,-0.826318
8.57333,284.196,-0.826362
8.575,284.212,-0.826402
8.57667,284.229,-0.826444
8.57833,284.245,-0.826495
8.58,284.262,-0.826554
8.58167,284.279,-0.826609
8.58333,284.295,-0.826661
8.585,284.312,-0.826706
8.58667,284.329,-0.826755
8.58833,284.345,-0.8268
8.59,284.362,-0.826847
8.59167,284.379,-0.82689
8.59333,284.395,-0.826933
8.595,284.412,-0.826969
8.59667,284.428,-0.827008
8.59833,284.446,-0.827055
8.6,284.462,-0.827107
8.60167,284.479,-0.827162
8.60333,284.495,-0.82722
8.605,284.512,-0.827274
8.60667,284.529,-0.827316
8.60833,284.545,-0.827353
8.61,284.562,-0.827389
8.61167,284.579,-0.827426
8.61333,284.595,-0.827463
8.615,284.612,-0.827486
8.61667,284.628,-0.827515
8.61833,284.645,-0.827548
8.62,284.662,-0.827582
8.62167,284.679,-0.827619
8.62333,284.695,-0.827654
8.625,284.712,-0.827686
8.62667,284.729,-0.827721
8.62833,284.745,-0.827752
8.63,284.762,-0.827787
8.63167,284.779,-0.827815
8.63333,284.796,-0.827838
8.635,284.812,-0.82786
8.63667,284.829,-0.82789
8.63833,284.845,-0.827919
8.64,284.862,-0.827951
8.64167,284.878,-0.827983
8.64333,284.895,-0.828013
8.645,284.912,-0.828039
8.64667,284.928,-0.828068
8.64833,284.945,-0.828098
8.65,284.961,-0.828126
8.65167,284.978,-0.828157
8.65333,284.995,-0.828191
8.655,285.012,-0.828226
8.65667,285.028,-0.828262
8.65833,285.045,-0.828298
8.66,285.062,-0.828344
8.66167,285.079,-0.828391
8.66333,285.096,-0.828439
8.665,285.112,-0.828496
8.66667,285.128,-0.828546
8.66833,285.145,-0.828596
8.67,285.161,-0.828653
8.67167,285.178,-0.828709
8.67333,285.195,-0.828762
8.675,285.212,-0.828815
8.67667,285.228,-0.828869
8.67833,285.245,-0.828925
8.68,285.262,-0.828971
8.68167,285.278,-0.82901
8.68333,285.295,-0.829035
8.685,285.312,-0.82905
8.68667,285.329,-0.829067
8.68833,285.345,-0.829081
8.69,285.362,-0.829092
8.69167,285.378,-0.829106
8.69333,285.395,-0.82912
8.695,285.412,-0.829136
8.69667,285.428,-0.829143
8.69833,285.445,-0.829156
8.7,285.461,-0.829168
8.70167,285.478,-0.829186
8.70333,285.495,-0.829206
8.705,285.511,-0.829239
8.70667,285.528,-0.829281
8.70833,285.544,-0.829328
8.71,285.561,-0.829373
8.71167,285.578,-0.829432
8.71333,285.594,-0.829488
8.715,285.611,-0.829537
8.71667,285.628,-0.829592
8.71833,285.645,-0.829638
8.72,285.661,-0.829685
8.72167,285.678,-0.829733
8.72333,285.694,-0.829785
8.725,285.711,-0.829835
8.72667,285.728,-0.829884
8.72833,285.744,-0.82993
8.73,285.761,-0.82997
8.73167,285.778,-0.830005
8.73333,285.794,-0.830041
8.735,285.811,-0.830079
8.73667,285.827,-0.830114
8.73833,285.844,-0.830148
8.74,285.861,-0.830176
8.74167,285.877,-0.830212
8.74333,285.894,-0.830247
8.745,285.911,-0.830282
8.74667,285.928,-0.830326
8.74833,285.944,-0.830377
8.75,285.961,-0.830426
8.75167,285.978,-0.830483
8.75333,285.994,-0.830541
8.755,286.011,-0.830596
8.75667,286.027,-0.830645
8.75833,286.044,-0.830682
8.76,286.061,-0.830711
8.76167,286.077,-0.830735
8.76333,286.094,-0.830758
8.765,286.111,-0.830775
8.76667,286.127,-0.830796
8.76833,286.144,-0.830819
8.77,286.16,-0.830845
8.77167,286.177,-0.830876
8.77333,286.194,-0.830909
8.775,286.21,-0.830941
8.77667,286.227,-0.830985
8.77833,286.244,-0.831029
8.78,286.26,-0.831072
8.78167,286.277,-0.831113
8.78333,286.294,-0.831149
8.785,286.31,-0.831179
8.78667,286.327,-0.831209
8.78833,286.344,-0.831241
8.79,286.361,-0.831272
8.79167,286.377,-0.831306
8.79333,286.394,-0.831347
8.795,286.41,-0.831386
8.79667,286.427,-0.831425
8.79833,286.443,-0.831467
8.8,286.46,-0.831514
8.80167,286.477,-0.831556
8.80333,286.493,-0.831612
8.805,286.51,-0.831661
8.80667,286.526,-0.831708
8.80833,286.543,-0.831748
8.81,286.56,-0.831787
8.81167,286.577,-0.831825
8.81333,286.593,-0.831859
8.815,286.61,-0.8319
8.81667,286.626,-0.831949
8.81833,286.643,-0.831996
8.82,286.66,-0.832045
8.82167,286.676,-0.832096
8.82333,286.693,-0.832154
8.825,286.71,-0.832209
8.82667,286.726,-0.832258
8.82833,286.743,-0.832305
8.83,286.759,-0.832346
8.83167,286.776,-0.832385
8.83333,286.793,-0.832423
8.835,286.809,-0.832462
8.83667,286.826,-0.8325
8.83833,286.843,-0.832535
8.84,286.86,-0.832566
8.84167,286.876,-0.832612
8.84333,286.893,-0.832652
8.845,286.909,-0.832696
8.84667,286.926,-0.832738
8.84833,286.943,-0.832777
8.85,286.959,-0.832822
8.85167,286.976,-0.832867
8.85333,286.992,-0.832917
8.855,287.009,-0.832967
8.85667,287.026,-0.833019
8.85833,287.043,-0.83308
8.86,287.059,-0.833145
8.86167,287.076,-0.833209
8.86333,287.093,-0.833276
8.865,287.109,-0.833346
8.86667,287.126,-0.833418
8.86833,287.142,-0.833478
8.87,287.159,-0.833536
8.87167,287.176,-0.833587
8.87333,287.192,-0.833629
8.875,287.209,-0.833655
8.87667,287.226,-0.833674
8.87833,287.243,-0.833697
8.88,287.259,-0.833716
8.88167,287.276,-0.833728
8.88333,287.292,-0.833735
8.885,287.309,-0.833739
8.88667,287.326,-0.833754
8.88833,287.342,-0.833782
8.89,287.359,-0.833808
8.89167,287.375,-0.833839
8.89333,287.392,-0.833868
8.895,287.408,-0.8339
8.89667,287.425,-0.83394
8.89833,287.442,-0.833992
8.9,287.459,-0.834057
8.90167,287.475,-0.834159
8.90333,287.492,-0.834294
8.905,287.508,-0.834406
8.90667,287.525,-0.834525
8.90833,287.542,-0.834649
8.91,287.559,-0.834774
8.91167,287.575,-0.834854
8.91333,287.592,-0.834927
8.915,287.609,-0.834988
8.91667,287.625,-0.835054
8.91833,287.642,-0.835115
8.92,287.658,-0.835167
8.92167,287.675,-0.835214
8.92333,287.692,-0.835264
8.925,287.708,-0.835309
8.92667,287.725,-0.835342
8.92833,287.742,-0.835378
8.93,287.758,-0.835415
8.93167,287.775,-0.835452
8.93333,287.792,-0.835486
8.935,287.808,-0.835534
8.93667,287.825,-0.835584
8.93833,287.841,-0.835629
8.94,287.858,-0.835676
8.94167,287.875,-0.835729
8.94333,287.892,-0.83579
8.945,287.908,-0.835845
8.94667,287.925,-0.835901
8.94833,287.942,-0.83595
8.95,287.958,-0.835999
8.95167,287.975,-0.83605
8.95333,287.992,-0.836103
8.955,288.008,-0.836159
8.95667,288.025,-0.83621
8.95833,288.041,-0.836252
8.96,288.058,-0.8363
8.96167,288.075,-0.836355
8.96333,288.091,-0.836409
8.965,288.108,-0.836471
8.96667,288.125,-0.836539
8.96833,288.141,-0.8366
8.97,288.158,-0.836654
8.97167,288.175,-0.836706
8.97333,288.192,-0.83676
8.975,288.208,-0.836809
8.97667,288.225,-0.83686
8.97833,288.242,-0.836901
8.98,288.258,-0.836944
8.98167,288.275,-0.836987
8.98333,288.291,-0.837029
8.985,288.308,-0.837083
8.98667,288.325,-0.837146
8.98833,288.341,-0.837206
8.99,288.358,-0.837269
8.99167,288.374,-0.837335
8.99333,288.391,-0.837399
8.995,288.408,-0.837463
8.99667,288.424,-0.837534
8.99833,288.441,-0.83761
9,288.458,-0.83768
9.00167,288.474,-0.837747
9.00333,288.49,-0.837814
9.005,288.507,-0.837883
9.00667,288.524,-0.837942
9.00833,288.541,-0.837991
9.01,288.558,-0.838031
9.01167,288.575,-0.838064
9.01333,288.591,-0.838093
9.015,288.608,-0.838122
9.01667,288.625,-0.838159
9.01833,288.641,-0.838199
9.02,288.657,-0.838245
9.02167,288.674,-0.838294
9.02333,288.691,-0.83835
9.025,288.708,-0.838409
9.02667,288.724,-0.838472
9.02833,288.74,-0.838549
9.03,288.757,-0.838623
9.03167,288.774,-0.838691
9.03333,288.791,-0.838755
9.035,288.807,-0.838819
9.03667,288.824,-0.838889
9.03833,288.841,-0.838956
9.04,288.858,-0.839013
9.04167,288.874,-0.839068
9.04333,288.891,-0.83912
9.045,288.908,-0.839164
9.04667,288.924,-0.83921
9.04833,288.941,-0.839257
9.05,288.957,-0.839309
9.05167,288.974,-0.839366
9.05333,288.99,-0.83942
9.055,289.007,-0.839483
9.05667,289.024,-0.83954
9.05833,289.041,-0.839597
9.06,289.057,-0.839654
9.06167,289.074,-0.839708
9.06333,289.09,-0.839763
9.065,289.107,-0.839808
9.06667,289.124,-0.839853
9.06833,289.14,-0.8399
9.07,289.157,-0.83995
9.07167,289.174,-0.839992
9.07333,289.191,-0.840031
9.075,289.207,-0.840073
9.07667,289.224,-0.840118
9.07833,289.241,-0.840169
9.08,289.257,-0.840221
9.08167,289.274,-0.840276
9.08333,289.291,-0.840334
9.085,289.307,-0.840394
9.08667,289.324,-0.840462
9.08833,289.34,-0.840534
9.09,289.357,-0.840601
9.09167,289.374,-0.840673
9.09333,289.39,-0.840746
9.095,289.407,-0.840823
9.09667,289.423,-0.840899
9.09833,289.44,-0.84097
9.1,289.457,-0.841037
9.10167,289.474,-0.841103
9.10333,289.491,-0.841161
9.105,289.507,-0.84122
9.10667,289.524,-0.841286
9.10833,289.54,-0.841349
9.11,289.557,-0.841408
9.11167,289.573,-0.841474
9.11333,289.59,-0.841543
9.115,289.607,-0.841604
9.11667,289.624,-0.841659
9.11833,289.64,-0.841712
9.12,289.657,-0.841759
9.12167,289.673,-0.8418
9.12333,289.69,-0.841833
9.125,289.707,-0.84187
9.12667,289.723,-0.841905
9.12833,289.74,-0.841937
9.13,289.757,-0.841972
9.13167,289.774,-0.842025
9.13333,289.79,-0.842091
9.135,289.807,-0.842164
9.13667,289.824,-0.842236
9.13833,289.84,-0.842313
9.14,289.857,-0.842381
9.14167,289.873,-0.842435
9.14333,289.89,-0.842479
9.145,289.907,-0.84252
9.14667,289.923,-0.842557
9.14833,289.94,-0.842601
9.15,289.957,-0.842652
9.15167,289.973,-0.842714
9.15333,289.99,-0.842779
9.155,290.007,-0.842846
9.15667,290.023,-0.842926
9.15833,290.04,-0.843016
9.16,290.057,-0.843136
9.16167,290.073,-0.84324
9.16333,290.09,-0.843332
9.165,290.106,-0.843408
9.16667,290.123,-0.843474
9.16833,290.14,-0.843531
9.17,290.156,-0.843583
9.17167,290.173,-0.843626
9.17333,290.19,-0.843672
9.175,290.207,-0.843717
9.17667,290.223,-0.843764
9.17833,290.24,-0.8438
9.18,290.256,-0.843842
9.18167,290.273,-0.843891
9.18333,290.29,-0.843949
9.185,290.306,-0.844002
9.18667,290.323,-0.844057
9.18833,290.34,-0.844116
9.19,290.356,-0.844178
9.19167,290.373,-0.844242
9.19333,290.39,-0.844309
9.195,290.406,-0.844381
9.19667,290.423,-0.844449
9.19833,290.44,-0.844509
9.2,290.457,-0.844577
9.20167,290.473,-0.844651
9.20333,290.49,-0.844719
9.205,290.506,-0.844785
9.20667,290.524,-0.844849
9.20833,290.54,-0.844915
9.21,290.557,-0.844977
9.21167,290.574,-0.845039
9.21333,290.59,-0.845099
9.215,290.607,-0.845164
9.21667,290.623,-0.845219
9.21833,290.64,-0.845269
9.22,290.656,-0.845322
9.22167,290.673,-0.845385
9.22333,290.69,-0.845445
9.225,290.706,-0.84551
9.22667,290.723,-0.845581
9.22833,290.74,-0.845654
9.23,290.757,-0.845725
9.23167,290.773,-0.845794
9.23333,290.79,-0.845869
9.235,290.806,-0.845943
9.23667,290.823,-0.846009
9.23833,290.84,-0.846082
9.24,290.857,-0.84614
9.24167,290.873,-0.846197
9.24333,290.89,-0.846259
9.245,290.906,-0.846323
9.24667,290.923,-0.84639
9.24833,290.94,-0.84646
9.25,290.957,-0.846522
9.25167,290.973,-0.846581
9.25333,290.99,-0.846644
9.255,291.006,-0.846712
9.25667,291.023,-0.846785
9.25833,291.04,-0.846862
9.26,291.056,-0.846936
9.26167,291.073,-0.84701
9.26333,291.089,-0.847089
9.265,291.106,-0.847159
9.26667,291.123,-0.847232
9.26833,291.139,-0.847303
9.27,291.156,-0.847373
9.27167,291.173,-0.847432
9.27333,291.19,-0.84749
9.275,291.206,-0.847552
9.27667,291.223,-0.847608
9.27833,291.24,-0.847659
9.28,291.256,-0.847714
9.28167,291.273,-0.84777
9.28333,291.29,-0.847831
9.285,291.306,-0.847905
9.28667,291.323,-0.84797
9.28833,291.34,-0.848036
9.29,291.356,-0.848107
9.29167,291.373,-0.848179
9.29333,291.389,-0.848249
9.295,291.406,-0.848319
9.29667,291.422,-0.848395
9.29833,291.439,-0.848473
9.3,291.456,-0.848559
9.30167,291.473,-0.848646
9.30333,291.489,-0.848731
9.305,291.506,-0.848808
9.30667,291.522,-0.848864
9.30833,291.539,-0.84891
9.31,291.555,-0.84896
9.31167,291.572,-0.849002
9.31333,291.589,-0.849033
9.315,291.606,-0.849068
9.31667,291.622,-0.849107
9.31833,291.639,-0.849151
9.32,291.655,-0.849201
9.32167,291.672,-0.849258
9.32333,291.689,-0.849319
9.325,291.706,-0.849389
9.32667,291.722,-0.849459
9.32833,291.739,-0.84953
9.33,291.755,-0.849592
9.33167,291.772,-0.849639
9.33333,291.789,-0.849682
9.335,291.805,-0.849722
9.33667,291.822,-0.849751
9.33833,291.839,-0.849776
9.34,291.855,-0.849798
9.34167,291.872,-0.849825
9.34333,291.889,-0.849872
9.345,291.905,-0.849923
9.34667,291.922,-0.849989
9.34833,291.939,-0.850061
9.35,291.955,-0.850131
9.35167,291.972,-0.850204
9.35333,291.989,-0.850278
9.355,292.005,-0.850349
9.35667,292.022,-0.850423
9.35833,292.039,-0.850493
9.36,292.055,-0.850567
9.36167,292.072,-0.850642
9.36333,292.088,-0.850724
9.365,292.105,-0.850811
9.36667,292.122,-0.850911
9.36833,292.139,-0.850997
9.37,292.155,-0.851081
9.37167,292.172,-0.85116
9.37333,292.189,-0.85123
9.375,292.205,-0.851299
9.37667,292.222,-0.851356
9.37833,292.238,-0.851411
9.38,292.255,-0.851461
9.38167,292.272,-0.851514
9.38333,292.288,-0.851558
9.385,292.305,-0.851609
9.38667,292.321,-0.851671
9.38833,292.338,-0.851737
9.39,292.355,-0.851802
9.39167,292.371,-0.851872
9.39333,292.388,-0.851948
9.395,292.404,-0.852037
9.39667,292.421,-0.852119
9.39833,292.438,-0.852205
9.4,292.454,-0.852295
9.40167,292.471,-0.852381
9.40333,292.488,-0.852467
9.405,292.505,-0.85255
9.40667,292.521,-0.852624
9.40833,292.538,-0.852685
9.41,292.555,-0.85274
9.41167,292.571,-0.852797
9.41333,292.588,-0.852854
9.415,292.604,-0.852907
9.41667,292.621,-0.852968
9.41833,292.637,-0.853034
9.42,292.654,-0.853102
9.42167,292.671,-0.85317
9.42333,292.688,-0.853239
9.425,292.704,-0.853309
9.42667,292.721,-0.853385
9.42833,292.738,-0.85346
9.43,292.754,-0.853534
9.43167,292.771,-0.853612
9.43333,292.787,-0.853687
9.435,292.804,-0.853755
9.43667,292.82,-0.853811
9.43833,292.838,-0.853858
9.44,292.854,-0.853899
9.44167,292.871,-0.853936
9.44333,292.887,-0.853975
9.445,292.904,-0.854018
9.44667,292.92,-0.85407
9.44833,292.937,-0.854126
9.45,292.954,-0.854197
9.45167,292.971,-0.854281
9.45333,292.987,-0.854366
9.455,293.004,-0.854447
9.45667,293.021,-0.854532
9.45833,293.037,-0.854613
9.46,293.054,-0.854685
9.46167,293.07,-0.854754
9.46333,293.087,-0.854812
9.465,293.104,-0.85486
9.46667,293.12,-0.854907
9.46833,293.137,-0.854951
9.47,293.154,-0.855003
9.47167,293.17,-0.855057
9.47333,293.187,-0.855117
9.475,293.203,-0.855186
9.47667,293.22,-0.855257
9.47833,293.237,-0.855326
9.48,293.254,-0.855386
9.48167,293.27,-0.855447
9.48333,293.287,-0.855508
9.485,293.303,-0.855558
9.48667,293.32,-0.855605
9.48833,293.337,-0.855663
9.49,293.353,-0.855721
9.49167,293.37,-0.855775
9.49333,293.386,-0.85584
9.495,293.403,-0.855907
9.49667,293.42,-0.855975
9.49833,293.437,-0.856036
9.5,293.453,-0.856099
9.50167,293.47,-0.856173
9.50333,293.487,-0.856229
9.505,293.504,-0.856284
9.50667,293.52,-0.856338
9.50833,293.537,-0.856397
9.51,293.553,-0.856463
9.51167,293.57,-0.856529
9.51333,293.587,-0.856593
9.515,293.604,-0.856654
9.51667,293.62,-0.856724
9.51833,293.637,-0.856791
9.52,293.653,-0.856862
9.52167,293.67,-0.856938
9.52333,293.686,-0.857014
9.525,293.703,-0.857086
9.52667,293.72,-0.85716
9.52833,293.736,-0.857232
9.53,293.753,-0.857306
9.53167,293.77,-0.857374
9.53333,293.786,-0.857436
9.535,293.803,-0.857493
9.53667,293.819,-0.857538
9.53833,293.836,-0.857581
9.54,293.853,-0.857626
9.54167,293.869,-0.857668
9.54333,293.886,-0.857715
9.545,293.903,-0.857765
9.54667,293.919,-0.857815
9.54833,293.936,-0.857879
9.55,293.952,-0.857954
9.55167,293.969,-0.858031
9.55333,293.986,-0.858109
9.555,294.003,-0.858177
9.55667,294.019,-0.858243
9.55833,294.036,-0.858309
9.56,294.052,-0.858375
9.56167,294.069,-0.858444
9.56333,294.085,-0.85851
9.565,294.102,-0.858582
9.56667,294.119,-0.858652
9.56833,294.136,-0.858715
9.57,294.152,-0.858769
9.57167,294.169,-0.85882
9.57333,294.186,-0.858873
9.575,294.203,-0.858912
9.57667,294.219,-0.858948
9.57833,294.236,-0.858994
9.58,294.252,-0.859049
9.58167,294.269,-0.859116
9.58333,294.286,-0.859189
9.585,294.302,-0.859272
9.58667,294.319,-0.859371
9.58833,294.336,-0.859453
9.59,294.352,-0.859527
9.59167,294.369,-0.859593
9.59333,294.386,-0.859651
9.595,294.402,-0.859706
9.59667,294.419,-0.859752
9.59833,294.436,-0.859795
9.6,294.452,-0.859841
9.60167,294.469,-0.859885
9.60333,294.486,-0.859922
9.605,294.502,-0.859963
9.60667,294.519,-0.860006
9.60833,294.536,-0.860053
9.61,294.552,-0.860103
9.61167,294.569,-0.860163
9.61333,294.585,-0.860233
9.615,294.602,-0.860309
9.61667,294.618,-0.860386
9.61833,294.635,-0.860467
9.62,294.651,-0.860547
9.62167,294.668,-0.860623
9.62333,294.685,-0.860691
9.625,294.701,-0.860757
9.62667,294.718,-0.860813
9.62833,294.735,-0.86086
9.63,294.751,-0.860907
9.63167,294.768,-0.860962
9.63333,294.785,-0.861014
9.635,294.802,-0.861076
9.63667,294.818,-0.86114
9.63833,294.835,-0.861202
9.64,294.852,-0.86127
9.64167,294.868,-0.861341
9.64333,294.885,-0.861416
9.645,294.901,-0.861488
9.64667,294.918,-0.861554
9.64833,294.934,-0.861619
9.65,294.951,-0.861676
9.65167,294.968,-0.861725
9.65333,294.984,-0.861773
9.655,295.001,-0.861818
9.65667,295.018,-0.861869
9.65833,295.034,-0.86193
9.66,295.051,-0.861991
9.66167,295.068,-0.862045
9.66333,295.084,-0.862103
9.665,295.102,-0.862166
9.66667,295.118,-0.862222
9.66833,295.135,-0.862281
9.67,295.151,-0.862323
9.67167,295.168,-0.862358
9.67333,295.185,-0.862389
9.675,295.201,-0.862414
9.67667,295.218,-0.862434
9.67833,295.234,-0.862451
9.68,295.251,-0.862468
9.68167,295.268,-0.862497
9.68333,295.284,-0.86253
9.685,295.301,-0.862567
9.68667,295.318,-0.862612
9.68833,295.334,-0.862656
9.69,295.351,-0.862708
9.69167,295.368,-0.862763
9.69333,295.384,-0.862826
9.695,295.401,-0.862897
9.69667,295.417,-0.86299
9.69833,295.434,-0.863099
9.7,295.451,-0.863214
9.70167,295.467,-0.863353
9.70333,295.484,-0.863542
9.705,295.501,-0.863715
9.70667,295.517,-0.863821
9.70833,295.534,-0.863899
9.71,295.551,-0.863972
9.71167,295.568,-0.864028
9.71333,295.584,-0.864082
9.715,295.6,-0.864137
9.71667,295.617,-0.864186
9.71833,295.634,-0.864238
9.72,295.651,-0.864289
9.72167,295.667,-0.864335
9.72333,295.684,-0.864389
9.725,295.7,-0.864445
9.72667,295.717,-0.864506
9.72833,295.734,-0.864578
9.73,295.751,-0.864645
9.73167,295.767,-0.864719
9.73333,295.784,-0.864794
9.735,295.801,-0.864865
9.73667,295.818,-0.864931
9.73833,295.834,-0.864997
9.74,295.851,-0.865065
9.74167,295.867,-0.865132
9.74333,295.884,-0.865203
9.745,295.901,-0.865281
9.74667,295.917,-0.865355
9.74833,295.934,-0.865419
9.75,295.95,-0.865477
9.75167,295.967,-0.865533
9.75333,295.984,-0.865577
9.755,296,-0.865618
9.75667,296.017,-0.865659
9.75833,296.034,-0.865703
9.76,296.051,-0.86574
9.76167,296.067,-0.865779
9.76333,296.084,-0.865818
9.765,296.1,-0.865861
9.76667,296.117,-0.865907
9.76833,296.134,-0.865954
9.77,296.151,-0.866002
9.77167,296.167,-0.866044
9.77333,296.184,-0.866089
9.775,296.2,-0.86613
9.77667,296.217,-0.866179
9.77833,296.234,-0.866235
9.78,296.25,-0.866289
9.78167,296.267,-0.866346
9.78333,296.283,-0.866409
9.785,296.3,-0.866473
9.78667,296.316,-0.866542
9.78833,296.333,-0.866605
9.79,296.35,-0.866669
9.79167,296.367,-0.866724
9.79333,296.384,-0.866771
9.795,296.4,-0.866813
9.79667,296.417,-0.866849
9.79833,296.434,-0.86688
9.8,296.45,-0.866895
9.80167,296.467,-0.866912
9.80333,296.483,-0.866933
9.805,296.5,-0.866964
9.80667,296.517,-0.866999
9.80833,296.533,-0.867045
9.81,296.55,-0.867104
9.81167,296.567,-0.867177
9.81333,296.584,-0.867307
9.815,296.6,-0.867419
9.81667,296.617,-0.867558
9.81833,296.633,-0.867681
9.82,296.65,-0.867759
9.82167,296.666,-0.867825
9.82333,296.683,-0.867888
9.825,296.7,-0.867944
9.82667,296.717,-0.867994
9.82833,296.733,-0.86804
9.83,296.75,-0.868083
9.83167,296.767,-0.868119
9.83333,296.783,-0.868153
9.835,296.8,-0.868199
9.83667,296.817,-0.868247
9.83833,296.833,-0.868287
9.84,296.85,-0.868328
9.84167,296.866,-0.868365
9.84333,296.883,-0.868407
9.845,296.9,-0.868438
9.84667,296.916,-0.86847
9.84833,296.933,-0.868499
9.85,296.95,-0.868528
9.85167,296.966,-0.868568
9.85333,296.983,-0.868616
9.855,296.999,-0.868659
9.85667,297.016,-0.868706
9.85833,297.033,-0.868755
9.86,297.05,-0.868811
9.86167,297.066,-0.86887
9.86333,297.083,-0.868924
9.865,297.1,-0.868973
9.86667,297.116,-0.869021
9.86833,297.133,-0.869065
9.87,297.15,-0.869115
9.87167,297.166,-0.869168
9.87333,297.183,-0.869218
9.875,297.199,-0.869275
9.87667,297.216,-0.869329
9.87833,297.233,-0.869399
9.88,297.25,-0.869468
9.88167,297.266,-0.869538
9.88333,297.283,-0.869607
9.885,297.299,-0.869672
9.88667,297.316,-0.869732
9.88833,297.332,-0.869783
9.89,297.349,-0.86983
9.89167,297.366,-0.869876
9.89333,297.383,-0.869919
9.895,297.399,-0.869959
9.89667,297.416,-0.87
9.89833,297.433,-0.870044
9.9,297.449,-0.870087
9.90167,297.466,-0.870134
9.90333,297.483,-0.870177
9.905,297.499,-0.87022
9.90667,297.516,-0.870265
9.90833,297.532,-0.870312
9.91,297.549,-0.870363
9.91167,297.566,-0.870411
9.91333,297.582,-0.870458
9.915,297.599,-0.870508
9.91667,297.616,-0.870567
9.91833,297.632,-0.870628
9.92,297.649,-0.870686
9.92167,297.666,-0.870732
9.92333,297.683,-0.87078
9.925,297.699,-0.870824
9.92667,297.716,-0.870863
9.92833,297.733,-0.870888
9.93,297.749,-0.870912
9.93167,297.766,-0.870933
9.93333,297.782,-0.870948
9.935,297.799,-0.870966
9.93667,297.816,-0.870993
9.93833,297.833,-0.871035
9.94,297.849,-0.871084
9.94167,297.866,-0.871146
9.94333,297.883,-0.871214
9.945,297.899,-0.871284
9.94667,297.916,-0.871349
9.94833,297.933,-0.871412
9.95,297.949,-0.87147
9.95167,297.966,-0.871513
9.95333,297.982,-0.871543
9.955,297.999,-0.871574
9.95667,298.016,-0.871614
9.95833,298.032,-0.87166
9.96,298.049,-0.871716
9.96167,298.066,-0.871779
9.96333,298.083,-0.87187
9.965,298.099,-0.871983
9.96667,298.116,-0.872076
9.96833,298.132,-0.872254
9.97,298.149,-0.872391
9.97167,298.165,-0.8725
9.97333,298.183,-0.872579
9.975,298.199,-0.872652
9.97667,298.216,-0.872714
9.97833,298.233,-0.872768
9.98,298.249,-0.872805
9.98167,298.266,-0.872834
9.98333,298.283,-0.872862
9.985,298.299,-0.872874
9.98667,298.316,-0.872892
9.98833,298.333,-0.87291
9.99,298.349,-0.872936
9.99167,298.366,-0.872957
9.99333,298.383,-0.87299
9.995,298.399,-0.873024
9.99667,298.416,-0.873058
9.99833,298.433,-0.873091
10,298.449,-0.873129
10.0017,298.466,-0.873163
10.0033,298.482,-0.873202
10.005,298.499,-0.873238
10.0067,298.516,-0.873278
10.0083,298.532,-0.873329
10.01,298.549,-0.873383
10.0117,298.566,-0.873438
10.0133,298.583,-0.873489
10.015,298.599,-0.873544
10.0167,298.616,-0.873601
10.0183,298.632,-0.873664
10.02,298.649,-0.873719
10.0217,298.665,-0.873766
10.0233,298.682,-0.873814
10.025,298.699,-0.87386
10.0267,298.715,-0.873905
10.0283,298.732,-0.873947
10.03,298.748,-0.873996
10.0317,298.765,-0.874047
10.0333,298.782,-0.874097
10.035,298.798,-0.874162
10.0367,298.815,-0.874234
10.0383,298.832,-0.874299
10.04,298.848,-0.874358
10.0417,298.865,-0.874414
10.0433,298.882,-0.874468
10.045,298.898,-0.874515
10.0467,298.915,-0.874557
10.0483,298.932,-0.874601
10.05,298.949,-0.874635
10.0517,298.965,-0.874666
10.0533,298.982,-0.874703
10.055,298.999,-0.874746
10.0567,299.015,-0.874781
10.0583,299.032,-0.874816
10.06,299.049,-0.874856
10.0617,299.065,-0.874903
10.0633,299.082,-0.874951
10.065,299.099,-0.874999
10.0667,299.116,-0.875036
10.0683,299.132,-0.875076
10.07,299.149,-0.875114
10.0717,299.166,-0.875149
10.0733,299.182,-0.875183
10.075,299.199,-0.875224
10.0767,299.216,-0.87528
10.0783,299.232,-0.87534
10.08,299.249,-0.875409
10.0817,299.266,-0.87548
10.0833,299.282,-0.875548
10.085,299.299,-0.875605
10.0867,299.316,-0.875659
10.0883,299.332,-0.875706
10.09,299.349,-0.875744
10.0917,299.365,-0.875775
10.0933,299.382,-0.875802
10.095,299.399,-0.875826
10.0967,299.415,-0.875861
10.0983,299.432,-0.875898
10.1,299.449,-0.875937
10.1017,299.466,-0.87598
10.1033,299.482,-0.876029
10.105,299.499,-0.876078
10.1067,299.516,-0.876126
10.1083,299.532,-0.876181
10.11,299.549,-0.876235
10.1117,299.565,-0.876286
10.1133,299.582,-0.876338
10.115,299.599,-0.876393
10.1167,299.615,-0.876458
10.1183,299.632,-0.876518
10.12,299.649,-0.876582
10.1217,299.665,-0.876644
10.1233,299.682,-0.876713
10.125,299.699,-0.876776
10.1267,299.715,-0.876828
10.1283,299.732,-0.876866
10.13,299.749,-0.876909
10.1317,299.765,-0.876945
10.1333,299.782,-0.876977
10.135,299.798,-0.876999
10.1367,299.815,-0.877026
10.1383,299.832,-0.877054
10.14,299.848,-0.877077
10.1417,299.865,-0.877101
10.1433,299.882,-0.877132
10.145,299.898,-0.877168
10.1467,299.915,-0.8772
10.1483,299.932,-0.877235
10.15,299.949,-0.877274
10.1517,299.965,-0.877324
10.1533,299.982,-0.877367
10.155,299.998,-0.87742
10.1567,300.015,-0.877478
10.1583,300.031,-0.877541
10.16,300.048,-0.877605
10.1617,300.064,-0.87767
10.1633,300.081,-0.877736
10.165,300.098,-0.877804
10.1667,300.115,-0.877874
10.1683,300.131,-0.877943
10.17,300.148,-0.878006
10.1717,300.165,-0.87806
10.1733,300.181,-0.87811
10.175,300.198,-0.878148
10.1767,300.215,-0.878182
10.1783,300.232,-0.878206
10.18,300.249,-0.87823
10.1817,300.265,-0.878246
10.1833,300.282,-0.878267
10.185,300.299,-0.878297
10.1867,300.315,-0.878333
10.1883,300.332,-0.878377
10.19,300.349,-0.878422
10.1917,300.365,-0.878467
10.1933,300.382,-0.878523
10.195,300.399,-0.878578
10.1967,300.415,-0.87863
10.1983,300.432,-0.878686
10.2,300.448,-0.878739
10.2017,300.465,-0.878799
10.2033,300.481,-0.878856
10.205,300.498,-0.878912
10.2067,300.515,-0.878974
10.2083,300.531,-0.879042
10.21,300.548,-0.879105
10.2117,300.565,-0.879164
10.2133,300.582,-0.879214
10.215,300.598,-0.879261
10.2167,300.615,-0.879301
10.2183,300.632,-0.879342
10.22,300.648,-0.879384
10.2217,300.665,-0.87943
10.2233,300.682,-0.879484
10.225,300.698,-0.879541
10.2267,300.715,-0.879605
10.2283,300.732,-0.879672
10.23,300.749,-0.87974
10.2317,300.765,-0.879803
10.2333,300.782,-0.879857
10.235,300.798,-0.879917
10.2367,300.815,-0.879974
10.2383,300.832,-0.880024
10.24,300.848,-0.880079
10.2417,300.865,-0.880138
10.2433,300.881,-0.880196
10.245,300.898,-0.880249
10.2467,300.915,-0.880296
10.2483,300.931,-0.88034
10.25,300.948,-0.880378
10.2517,300.965,-0.88041
10.2533,300.982,-0.880444
10.255,300.998,-0.880469
10.2567,301.015,-0.880495
10.2583,301.032,-0.88052
10.26,301.049,-0.880562
10.2617,301.065,-0.880608
10.2633,301.082,-0.88066
10.265,301.099,-0.880711
10.2667,301.115,-0.880755
10.2683,301.132,-0.8808
10.27,301.148,-0.880843
10.2717,301.165,-0.880875
10.2733,301.181,-0.880902
10.275,301.198,-0.880929
10.2767,301.215,-0.880952
10.2783,301.232,-0.880977
10.28,301.248,-0.88101
10.2817,301.265,-0.88105
10.2833,301.281,-0.88109
10.285,301.298,-0.881136
10.2867,301.315,-0.881185
10.2883,301.331,-0.881248
10.29,301.348,-0.881312
10.2917,301.365,-0.881377
10.2933,301.381,-0.881441
10.295,301.398,-0.88151
10.2967,301.414,-0.881573
10.2983,301.431,-0.881634
10.3,301.448,-0.881689
10.3017,301.465,-0.881738
10.3033,301.481,-0.881784
10.305,301.498,-0.88182
10.3067,301.514,-0.881862
10.3083,301.531,-0.881904
10.31,301.548,-0.881944
10.3117,301.564,-0.881987
10.3133,301.581,-0.882023
10.315,301.598,-0.882068
10.3167,301.615,-0.882118
10.3183,301.631,-0.882169
10.32,301.648,-0.882215
10.3217,301.664,-0.882257
10.3233,301.681,-0.882296
10.325,301.698,-0.882343
10.3267,301.714,-0.882381
10.3283,301.731,-0.88242
10.33,301.747,-0.882459
10.3317,301.764,-0.88249
10.3333,301.781,-0.882529
10.335,301.797,-0.882576
10.3367,301.814,-0.882635
10.3383,301.831,-0.882695
10.34,301.847,-0.882751
10.3417,301.864,-0.882807
10.3433,301.881,-0.882869
10.345,301.897,-0.882925
10.3467,301.914,-0.882974
10.3483,301.931,-0.883011
10.35,301.947,-0.883046
10.3517,301.964,-0.883083
10.3533,301.981,-0.883114
10.355,301.998,-0.883149
10.3567,302.015,-0.883186
10.3583,302.031,-0.883219
10.36,302.048,-0.883253
10.3617,302.064,-0.883291
10.3633,302.081,-0.883331
10.365,302.098,-0.88337
10.3667,302.115,-0.883414
10.3683,302.131,-0.883463
10.37,302.148,-0.883515
10.3717,302.164,-0.88357
10.3733,302.181,-0.883625
10.375,302.198,-0.88368
10.3767,302.214,-0.883738
10.3783,302.231,-0.883809
10.38,302.248,-0.883874
10.3817,302.265,-0.883937
10.3833,302.281,-0.884004
10.385,302.298,-0.884071
10.3867,302.315,-0.884137
10.3883,302.331,-0.884203
10.39,302.347,-0.884268
10.3917,302.364,-0.884327
10.3933,302.381,-0.884389
10.395,302.398,-0.884443
10.3967,302.414,-0.884499
10.3983,302.431,-0.884544
10.4,302.448,-0.884585
10.4017,302.464,-0.884619
10.4033,302.481,-0.884647
10.405,302.498,-0.884675
10.4067,302.514,-0.884703
10.4083,302.531,-0.884729
10.41,302.548,-0.884756
10.4117,302.565,-0.8848
10.4133,302.581,-0.884846
10.415,302.598,-0.884886
10.4167,302.615,-0.884924
10.4183,302.631,-0.884957
10.42,302.648,-0.884989
10.4217,302.665,-0.885024
10.4233,302.681,-0.885061
10.425,302.698,-0.885095
10.4267,302.714,-0.885125
10.4283,302.731,-0.885159
10.43,302.748,-0.885194
10.4317,302.765,-0.885227
10.4333,302.781,-0.885259
10.435,302.798,-0.885294
10.4367,302.815,-0.885335
10.4383,302.831,-0.885377
10.44,302.848,-0.885424
10.4417,302.865,-0.885479
10.4433,302.882,-0.885532
10.445,302.898,-0.885592
10.4467,302.915,-0.885654
10.4483,302.931,-0.885713
10.45,302.948,-0.885776
10.4517,302.965,-0.885833
10.4533,302.981,-0.885891
10.455,302.998,-0.885945
10.4567,303.015,-0.885994
10.4583,303.031,-0.886045
10.46,303.048,-0.886089
10.4617,303.065,-0.886134
10.4633,303.081,-0.886179
10.465,303.098,-0.886225
10.4667,303.114,-0.886273
10.4683,303.131,-0.886329
10.47,303.148,-0.886389
10.4717,303.164,-0.886444
10.4733,303.181,-0.886496
10.475,303.198,-0.886547
10.4767,303.215,-0.886602
10.4783,303.231,-0.886661
10.48,303.248,-0.88671
10.4817,303.264,-0.886759
10.4833,303.281,-0.886793
10.485,303.298,-0.886827
10.4867,303.315,-0.886857
10.4883,303.331,-0.886878
10.49,303.348,-0.886898
10.4917,303.365,-0.886919
10.4933,303.381,-0.88694
10.495,303.398,-0.886963
10.4967,303.415,-0.886989
10.4983,303.431,-0.887029
10.5,303.448,-0.887071
10.5017,303.464,-0.887114
10.5033,303.481,-0.887157
10.505,303.498,-0.887204
10.5067,303.514,-0.887263
10.5083,303.531,-0.887329
10.51,303.547,-0.887396
10.5117,303.564,-0.887463
10.5133,303.581,-0.88752
10.515,303.598,-0.887573
10.5167,303.614,-0.887625
10.5183,303.631,-0.887676
10.52,303.648,-0.88772
10.5217,303.664,-0.887758
10.5233,303.681,-0.887797
10.525,303.697,-0.887839
10.5267,303.714,-0.88789
10.5283,303.731,-0.887936
10.53,303.748,-0.887981
10.5317,303.764,-0.888026
10.5333,303.781,-0.888068
10.535,303.798,-0.888106
10.5367,303.814,-0.888149
10.5383,303.831,-0.888186
10.54,303.848,-0.888222
10.5417,303.865,-0.888261
10.5433,303.882,-0.888301
10.545,303.898,-0.888335
10.5467,303.915,-0.888367
10.5483,303.932,-0.888393
10.55,303.948,-0.888416
10.5517,303.965,-0.888434
10.5533,303.981,-0.888449
10.555,303.998,-0.888469
10.5567,304.014,-0.888486
10.5583,304.031,-0.888522
10.56,304.048,-0.888565
10.5617,304.065,-0.888621
10.5633,304.081,-0.888681
10.565,304.098,-0.888747
10.5667,304.115,-0.888843
10.5683,304.131,-0.888948
10.57,304.148,-0.889017
10.5717,304.164,-0.88907
10.5733,304.181,-0.889116
10.575,304.198,-0.889154
10.5767,304.214,-0.889188
10.5783,304.231,-0.889218
10.58,304.248,-0.889248
10.5817,304.265,-0.889282
10.5833,304.281,-0.889318
10.585,304.298,-0.889358
10.5867,304.315,-0.889403
10.5883,304.331,-0.889443
10.59,304.348,-0.889476
10.5917,304.364,-0.889511
10.5933,304.381,-0.889547
10.595,304.398,-0.889589
10.5967,304.414,-0.889644
10.5983,304.431,-0.889705
10.6,304.448,-0.889774
10.6017,304.465,-0.889838
10.6033,304.481,-0.889899
10.605,304.498,-0.889968
10.6067,304.514,-0.890032
10.6083,304.531,-0.890093
10.61,304.548,-0.890148
10.6117,304.565,-0.890199
10.6133,304.581,-0.890244
10.615,304.598,-0.890284
10.6167,304.614,-0.890314
10.6183,304.631,-0.890349
10.62,304.648,-0.890383
10.6217,304.664,-0.890416
10.6233,304.681,-0.890459
10.625,304.698,-0.890501
10.6267,304.715,-0.890541
10.6283,304.731,-0.890595
10.63,304.748,-0.890647
10.6317,304.765,-0.890706
10.6333,304.781,-0.890759
10.635,304.798,-0.890803
10.6367,304.814,-0.890843
10.6383,304.831,-0.890886
10.64,304.848,-0.890926
10.6417,304.864,-0.890965
10.6433,304.881,-0.891007
10.645,304.897,-0.89105
10.6467,304.914,-0.8911
10.6483,304.931,-0.891159
10.65,304.948,-0.89122
10.6517,304.965,-0.891274
10.6533,304.982,-0.891331
10.655,304.998,-0.891386
10.6567,305.015,-0.891436
10.6583,305.031,-0.891486
10.66,305.048,-0.891534
10.6617,305.064,-0.891581
10.6633,305.081,-0.891632
10.665,305.098,-0.891682
10.6667,305.115,-0.89173
10.6683,305.132,-0.891781
10.67,305.148,-0.891828
10.6717,305.164,-0.891879
10.6733,305.181,-0.891933
10.675,305.198,-0.891982
10.6767,305.214,-0.892031
10.6783,305.231,-0.892075
10.68,305.248,-0.892121
10.6817,305.265,-0.892165
10.6833,305.281,-0.892201
10.685,305.298,-0.892244
10.6867,305.315,-0.892285
10.6883,305.331,-0.892324
10.69,305.348,-0.892367
10.6917,305.365,-0.892408
10.6933,305.381,-0.892458
10.695,305.398,-0.892511
10.6967,305.414,-0.892559
10.6983,305.431,-0.892606
10.7,305.448,-0.89265
10.7017,305.465,-0.892692
10.7033,305.481,-0.892731
10.705,305.498,-0.892768
10.7067,305.514,-0.892789
10.7083,305.531,-0.89281
10.71,305.548,-0.892831
10.7117,305.565,-0.89285
10.7133,305.581,-0.892875
10.715,305.598,-0.892903
10.7167,305.614,-0.892939
10.7183,305.631,-0.892979
10.72,305.648,-0.893021
10.7217,305.665,-0.89307
10.7233,305.681,-0.893119
10.725,305.698,-0.893169
10.7267,305.715,-0.893228
10.7283,305.732,-0.893284
10.73,305.748,-0.893346
10.7317,305.765,-0.893412
10.7333,305.781,-0.893484
10.735,305.798,-0.893558
10.7367,305.814,-0.893624
10.7383,305.831,-0.893684
10.74,305.848,-0.89374
10.7417,305.865,-0.893789
10.7433,305.881,-0.893838
10.745,305.898,-0.893885
10.7467,305.915,-0.893918
10.7483,305.931,-0.893944
10.75,305.948,-0.893967
10.7517,305.965,-0.893997
10.7533,305.981,-0.89402
10.755,305.998,-0.894049
10.7567,306.015,-0.894076
10.7583,306.031,-0.894099
10.76,306.048,-0.894119
10.7617,306.065,-0.89414
10.7633,306.081,-0.894164
10.765,306.098,-0.894185
10.7667,306.115,-0.894212
10.7683,306.131,-0.894239
10.77,306.148,-0.894273
10.7717,306.164,-0.894315
10.7733,306.181,-0.894358
10.775,306.198,-0.894409
10.7767,306.215,-0.894466
10.7783,306.232,-0.894525
10.78,306.249,-0.894587
10.7817,306.265,-0.894651
10.7833,306.281,-0.894708
10.785,306.298,-0.894774
10.7867,306.315,-0.894831
10.7883,306.331,-0.894885
10.79,306.348,-0.894935
10.7917,306.365,-0.89498
10.7933,306.381,-0.895024
10.795,306.398,-0.895064
10.7967,306.415,-0.895104
10.7983,306.431,-0.89515
10.8,306.448,-0.895201
10.8017,306.464,-0.895245
10.8033,306.481,-0.89529
10.805,306.498,-0.895334
10.8067,306.514,-0.895383
10.8083,306.531,-0.895427
10.81,306.547,-0.89547
10.8117,306.564,-0.895517
10.8133,306.581,-0.895555
10.815,306.598,-0.895595
10.8167,306.614,-0.895633
10.8183,306.631,-0.895664
10.82,306.648,-0.895695
10.8217,306.664,-0.895721
10.8233,306.681,-0.895744
10.825,306.698,-0.895765
10.8267,306.714,-0.895785
10.8283,306.731,-0.895809
10.83,306.748,-0.895844
10.8317,306.764,-0.895884
10.8333,306.781,-0.895924
10.835,306.797,-0.895973
10.8367,306.814,-0.896026
10.8383,306.831,-0.896088
10.84,306.848,-0.896149
10.8417,306.864,-0.896204
10.8433,306.881,-0.896256
10.845,306.897,-0.896297
10.8467,306.914,-0.896333
10.8483,306.931,-0.896372
10.85,306.947,-0.896412
10.8517,306.964,-0.896448
10.8533,306.981,-0.896482
10.855,306.997,-0.896522
10.8567,307.014,-0.896562
10.8583,307.031,-0.896599
10.86,307.048,-0.896631
10.8617,307.064,-0.896669
10.8633,307.081,-0.896711
10.865,307.097,-0.896757
10.8667,307.114,-0.896806
10.8683,307.13,-0.896855
10.87,307.147,-0.896899
10.8717,307.163,-0.896946
10.8733,307.18,-0.896987
10.875,307.197,-0.897027
10.8767,307.213,-0.897065
10.8783,307.23,-0.8971
10.88,307.247,-0.897131
10.8817,307.264,-0.897162
10.8833,307.28,-0.897193
10.885,307.297,-0.897231
10.8867,307.313,-0.897263
10.8883,307.33,-0.897308
10.89,307.347,-0.897349
10.8917,307.363,-0.897392
10.8933,307.38,-0.897436
10.895,307.397,-0.897482
10.8967,307.414,-0.897523
10.8983,307.43,-0.897571
10.9,307.446,-0.897621
10.9017,307.463,-0.897666
10.9033,307.48,-0.897715
10.905,307.496,-0.897764
10.9067,307.514,-0.897816
10.9083,307.53,-0.897872
10.91,307.547,-0.897936
10.9117,307.563,-0.897998
10.9133,307.58,-0.89806
10.915,307.596,-0.898113
10.9167,307.613,-0.898165
10.9183,307.63,-0.898211
10.92,307.646,-0.898249
10.9217,307.663,-0.898284
10.9233,307.68,-0.898311
10.925,307.697,-0.89834
10.9267,307.713,-0.898373
10.9283,307.73,-0.89841
10.93,307.747,-0.898455
10.9317,307.763,-0.898502
10.9333,307.78,-0.89855
10.935,307.796,-0.898599
10.9367,307.813,-0.898645
10.9383,307.83,-0.898685
10.94,307.846,-0.898727
10.9417,307.863,-0.89876
10.9433,307.879,-0.898787
10.945,307.896,-0.898812
10.9467,307.913,-0.898838
10.9483,307.929,-0.898868
10.95,307.946,-0.898898
10.9517,307.963,-0.898933
10.9533,307.98,-0.89897
10.955,307.996,-0.89901
10.9567,308.013,-0.89906
10.9583,308.029,-0.899114
10.96,308.046,-0.899178
10.9617,308.062,-0.899242
10.9633,308.079,-0.899299
10.965,308.095,-0.899357
10.9667,308.112,-0.899409
10.9683,308.129,-0.899466
10.97,308.146,-0.899512
10.9717,308.162,-0.899552
10.9733,308.179,-0.899594
10.975,308.196,-0.899638
10.9767,308.212,-0.899679
10.9783,308.229,-0.899724
10.98,308.246,-0.899769
10.9817,308.262,-0.89981
10.9833,308.279,-0.899847
10.985,308.296,-0.899883
10.9867,308.312,-0.899915
10.9883,308.329,-0.899952
10.99,308.346,-0.899993
10.9917,308.362,-0.90003
10.9933,308.379,-0.900075
10.995,308.396,-0.900131
10.9967,308.412,-0.900182
10.9983,308.429,-0.900228
11,308.445,-0.900277
11.0017,308.462,-0.90032
11.0033,308.479,-0.900354
11.005,308.495,-0.900387
11.0067,308.512,-0.900424
11.0083,308.529,-0.900465
11.01,308.545,-0.900508
11.0117,308.562,-0.900551
11.0133,308.579,-0.900605
11.015,308.596,-0.900665
11.0167,308.612,-0.900731
11.0183,308.628,-0.900803
11.02,308.645,-0.900885
11.0217,308.661,-0.900958
11.0233,308.678,-0.901047
11.025,308.695,-0.901128
11.0267,308.711,-0.9012
11.0283,308.728,-0.901263
11.03,308.745,-0.901312
11.0317,308.762,-0.901354
11.0333,308.778,-0.90139
11.035,308.795,-0.901423
11.0367,308.812,-0.901449
11.0383,308.828,-0.901466
11.04,308.845,-0.901475
11.0417,308.862,-0.901486
11.0433,308.878,-0.9015
11.045,308.894,-0.901517
11.0467,308.911,-0.901542
11.0483,308.928,-0.901559
11.05,308.944,-0.901589
11.0517,308.961,-0.901631
11.0533,308.978,-0.901687
11.055,308.994,-0.901748
11.0567,309.011,-0.901805
11.0583,309.028,-0.901876
11.06,309.044,-0.90198
11.0617,309.061,-0.902055
11.0633,309.078,-0.902126
11.065,309.094,-0.902188
11.0667,309.111,-0.902249
11.0683,309.128,-0.90231
11.07,309.144,-0.902382
11.0717,309.161,-0.902458
11.0733,309.178,-0.902527
11.075,309.194,-0.902593
11.0767,309.211,-0.902659
11.0783,309.228,-0.902715
11.08,309.244,-0.902764
11.0817,309.261,-0.902806
11.0833,309.277,-0.902846
11.085,309.294,-0.902883
11.0867,309.31,-0.902919
11.0883,309.327,-0.902959
11.09,309.344,-0.903014
11.0917,309.36,-0.903077
11.0933,309.377,-0.903138
11.095,309.394,-0.903203
11.0967,309.41,-0.903265
11.0983,309.427,-0.903333
11.1,309.444,-0.903398
11.1017,309.461,-0.903455
11.1033,309.477,-0.903508
11.105,309.494,-0.903553
11.1067,309.51,-0.903595
11.1083,309.527,-0.903623
11.11,309.544,-0.903655
11.1117,309.56,-0.903687
11.1133,309.577,-0.903722
11.115,309.594,-0.903763
11.1167,309.61,-0.903816
11.1183,309.627,-0.903865
11.12,309.643,-0.903921
11.1217,309.66,-0.903979
11.1233,309.676,-0.904042
11.125,309.694,-0.904105
11.1267,309.71,-0.904162
11.1283,309.727,-0.904221
11.13,309.744,-0.904275
11.1317,309.76,-0.904322
11.1333,309.777,-0.904364
11.135,309.794,-0.904414
11.1367,309.81,-0.904461
11.1383,309.826,-0.904506
11.14,309.843,-0.904556
11.1417,309.86,-0.904604
11.1433,309.877,-0.904653
11.145,309.893,-0.904706
11.1467,309.91,-0.904756
11.1483,309.926,-0.904807
11.15,309.943,-0.904847
11.1517,309.959,-0.904886
11.1533,309.976,-0.904926
11.155,309.993,-0.904964
11.1567,310.009,-0.905006
11.1583,310.026,-0.905058
11.16,310.043,-0.905122
11.1617,310.06,-0.905191
11.1633,310.076,-0.905268
11.165,310.093,-0.905341
11.1667,310.109,-0.905411
11.1683,310.126,-0.905475
11.17,310.143,-0.905532
11.1717,310.159,-0.905595
11.1733,310.176,-0.905652
11.175,310.193,-0.905696
11.1767,310.209,-0.905737
11.1783,310.226,-0.905785
11.18,310.242,-0.905831
11.1817,310.259,-0.90587
11.1833,310.275,-0.905911
11.185,310.292,-0.905944
11.1867,310.309,-0.905975
11.1883,310.326,-0.906013
11.19,310.342,-0.906054
11.1917,310.359,-0.906099
11.1933,310.375,-0.906141
11.195,310.392,-0.906183
11.1967,310.409,-0.906231
11.1983,310.425,-0.906284
11.2,310.441,-0.906339
11.2017,310.458,-0.906396
11.2033,310.474,-0.906456
11.205,310.491,-0.906515
11.2067,310.508,-0.906572
11.2083,310.524,-0.90664
11.21,310.541,-0.906712
11.2117,310.558,-0.906777
11.2133,310.574,-0.906838
11.215,310.591,-0.906894
11.2167,310.608,-0.906945
11.2183,310.624,-0.906997
11.22,310.641,-0.907051
11.2217,310.658,-0.907101
11.2233,310.674,-0.907141
11.225,310.691,-0.907189
11.2267,310.707,-0.907236
11.2283,310.724,-0.907283
11.23,310.741,-0.907338
11.2317,310.757,-0.907405
11.2333,310.774,-0.907475
11.235,310.791,-0.907542
11.2367,310.807,-0.907612
11.2383,310.824,-0.907686
11.24,310.841,-0.907768
11.2417,310.857,-0.907838
11.2433,310.874,-0.907897
11.245,310.891,-0.90795
11.2467,310.908,-0.907992
11.2483,310.924,-0.908026
11.25,310.941,-0.908056
11.2517,310.957,-0.908078
11.2533,310.974,-0.908095
11.255,310.991,-0.908113
11.2567,311.008,-0.908139
11.2583,311.024,-0.90817
11.26,311.041,-0.908212
11.2617,311.057,-0.90826
11.2633,311.074,-0.90832
11.265,311.09,-0.908371
11.2667,311.107,-0.908424
11.2683,311.124,-0.908481
11.27,311.14,-0.90854
11.2717,311.157,-0.908606
11.2733,311.174,-0.908673
11.275,311.19,-0.908738
11.2767,311.207,-0.9088
11.2783,311.224,-0.908864
11.28,311.24,-0.908936
11.2817,311.257,-0.909014
11.2833,311.274,-0.909093
11.285,311.29,-0.909165
11.2867,311.307,-0.909236
11.2883,311.323,-0.909303
11.29,311.34,-0.909366
11.2917,311.357,-0.909432
11.2933,311.374,-0.909497
11.295,311.391,-0.909559
11.2967,311.407,-0.909618
11.2983,311.424,-0.909684
11.3,311.441,-0.90976
11.3017,311.457,-0.909856
11.3033,311.474,-0.909943
11.305,311.49,-0.910035
11.3067,311.507,-0.910141
11.3083,311.524,-0.910227
11.31,311.54,-0.910311
11.3117,311.557,-0.910396
11.3133,311.574,-0.91047
11.315,311.59,-0.91054
11.3167,311.607,-0.910597
11.3183,311.624,-0.910643
11.32,311.64,-0.910679
11.3217,311.657,-0.910704
11.3233,311.673,-0.910728
11.325,311.69,-0.910749
11.3267,311.707,-0.910771
11.3283,311.723,-0.910797
11.33,311.74,-0.910824
11.3317,311.756,-0.91086
11.3333,311.773,-0.910902
11.335,311.79,-0.910951
11.3367,311.806,-0.911009
11.3383,311.823,-0.911067
11.34,311.84,-0.911129
11.3417,311.856,-0.911196
11.3433,311.873,-0.911264
11.345,311.89,-0.91134
11.3467,311.906,-0.911416
11.3483,311.923,-0.911499
11.35,311.94,-0.911576
11.3517,311.956,-0.911653
11.3533,311.973,-0.911729
11.355,311.99,-0.911805
11.3567,312.006,-0.91188
11.3583,312.023,-0.911938
11.36,312.04,-0.911996
11.3617,312.056,-0.912058
11.3633,312.072,-0.912115
11.365,312.089,-0.912164
11.3667,312.106,-0.912202
11.3683,312.122,-0.912233
11.37,312.139,-0.91227
11.3717,312.155,-0.912312
11.3733,312.172,-0.912352
11.375,312.189,-0.912392
11.3767,312.206,-0.912439
11.3783,312.223,-0.91249
11.38,312.239,-0.912549
11.3817,312.256,-0.912619
11.3833,312.272,-0.912696
11.385,312.289,-0.912765
11.3867,312.306,-0.912818
11.3883,312.323,-0.912867
11.39,312.339,-0.912915
11.3917,312.356,-0.912961
11.3933,312.372,-0.913006
11.395,312.389,-0.913047
11.3967,312.406,-0.913081
11.3983,312.422,-0.913124
11.4,312.439,-0.913173
11.4017,312.456,-0.913231
11.4033,312.472,-0.913298
11.405,312.489,-0.913359
11.4067,312.506,-0.913419
11.4083,312.523,-0.913473
11.41,312.54,-0.913526
11.4117,312.556,-0.913577
11.4133,312.572,-0.913625
11.415,312.589,-0.91367
11.4167,312.606,-0.913719
11.4183,312.622,-0.913771
11.42,312.639,-0.913825
11.4217,312.655,-0.913889
11.4233,312.672,-0.913953
11.425,312.689,-0.914027
11.4267,312.706,-0.914118
11.4283,312.722,-0.914225
11.43,312.739,-0.914309
11.4317,312.755,-0.914388
11.4333,312.772,-0.914463
11.435,312.789,-0.914533
11.4367,312.805,-0.914604
11.4383,312.822,-0.914675
11.44,312.839,-0.91475
11.4417,312.855,-0.914816
11.4433,312.872,-0.914877
11.445,312.889,-0.914939
11.4467,312.905,-0.915007
11.4483,312.922,-0.915077
11.45,312.938,-0.915144
11.4517,312.955,-0.915212
11.4533,312.972,-0.915279
11.455,312.988,-0.915346
11.4567,313.005,-0.915419
11.4583,313.021,-0.915486
11.46,313.038,-0.91555
11.4617,313.055,-0.915607
11.4633,313.071,-0.91566
11.465,313.088,-0.915714
11.4667,313.105,-0.915762
11.4683,313.122,-0.915805
11.47,313.138,-0.915845
11.4717,313.155,-0.915889
11.4733,313.172,-0.91593
11.475,313.188,-0.915979
11.4767,313.205,-0.916034
11.4783,313.222,-0.916083
11.48,313.238,-0.916135
11.4817,313.255,-0.916197
11.4833,313.271,-0.916258
11.485,313.288,-0.916327
11.4867,313.305,-0.916393
11.4883,313.321,-0.916459
11.49,313.338,-0.916516
11.4917,313.355,-0.916572
11.4933,313.371,-0.916628
11.495,313.388,-0.916689
11.4967,313.404,-0.916741
11.4983,313.421,-0.916783
11.5,313.438,-0.916838
11.5017,313.455,-0.916904
11.5033,313.471,-0.916973
11.505,313.488,-0.917042
11.5067,313.505,-0.917126
11.5083,313.522,-0.917212
11.51,313.538,-0.917296
11.5117,313.555,-0.917397
11.5133,313.571,-0.917544
11.515,313.588,-0.917726
11.5167,313.604,-0.917824
11.5183,313.621,-0.917903
11.52,313.638,-0.917979
11.5217,313.654,-0.918049
11.5233,313.671,-0.918106
11.525,313.688,-0.918164
11.5267,313.704,-0.918213
11.5283,313.721,-0.918267
11.53,313.737,-0.918324
11.5317,313.754,-0.918387
11.5333,313.771,-0.918449
11.535,313.787,-0.918522
11.5367,313.804,-0.918593
11.5383,313.821,-0.91866
11.54,313.837,-0.918738
11.5417,313.854,-0.918815
11.5433,313.871,-0.918893
11.545,313.887,-0.918968
11.5467,313.904,-0.919043
11.5483,313.921,-0.919122
11.55,313.937,-0.919204
11.5517,313.953,-0.919274
11.5533,313.97,-0.919335
11.555,313.987,-0.919391
11.5567,314.004,-0.91944
11.5583,314.02,-0.919483
11.56,314.037,-0.919531
11.5617,314.054,-0.919583
11.5633,314.07,-0.919628
11.565,314.087,-0.919674
11.5667,314.103,-0.919725
11.5683,314.121,-0.919778
11.57,314.137,-0.919836
11.5717,314.154,-0.919897
11.5733,314.17,-0.919964
11.575,314.187,-0.920028
11.5767,314.203,-0.920087
11.5783,314.22,-0.920148
11.58,314.237,-0.920211
11.5817,314.253,-0.92027
11.5833,314.27,-0.920325
11.585,314.287,-0.92038
11.5867,314.303,-0.920432
11.5883,314.32,-0.920483
11.59,314.337,-0.920535
11.5917,314.353,-0.920595
11.5933,314.37,-0.920658
11.595,314.386,-0.920719
11.5967,314.403,-0.920774
11.5983,314.42,-0.920835
11.6,314.436,-0.920893
11.6017,314.453,-0.920955
11.6033,314.47,-0.921018
11.605,314.486,-0.92108
11.6067,314.503,-0.921127
11.6083,314.519,-0.921171
11.61,314.536,-0.921218
11.6117,314.553,-0.921271
11.6133,314.57,-0.921324
11.615,314.586,-0.921378
11.6167,314.603,-0.921429
11.6183,314.62,-0.921474
11.62,314.636,-0.921522
11.6217,314.653,-0.921579
11.6233,314.67,-0.92164
11.625,314.686,-0.921699
11.6267,314.703,-0.921762
11.6283,314.72,-0.92183
11.63,314.736,-0.9219
11.6317,314.753,-0.921976
11.6333,314.769,-0.922057
11.635,314.786,-0.922136
11.6367,314.803,-0.922214
11.6383,314.819,-0.922294
11.64,314.836,-0.922375
11.6417,314.853,-0.922452
11.6433,314.87,-0.922526
11.645,314.886,-0.922601
11.6467,314.903,-0.922673
11.6483,314.919,-0.92275
11.65,314.936,-0.922826
11.6517,314.952,-0.922906
11.6533,314.969,-0.922985
11.655,314.986,-0.923061
11.6567,315.002,-0.923131
11.6583,315.019,-0.923191
11.66,315.035,-0.923249
11.6617,315.052,-0.923312
11.6633,315.069,-0.923368
11.665,315.086,-0.923413
11.6667,315.102,-0.923451
11.6683,315.119,-0.923495
11.67,315.136,-0.923535
11.6717,315.152,-0.923587
11.6733,315.169,-0.923634
11.675,315.186,-0.923688
11.6767,315.202,-0.923751
11.6783,315.219,-0.923811
11.68,315.236,-0.923878
11.6817,315.252,-0.923951
11.6833,315.269,-0.924044
11.685,315.286,-0.924145
11.6867,315.302,-0.924305
11.6883,315.319,-0.924564
11.69,315.335,-0.924773
11.6917,315.352,-0.924953
11.6933,315.368,-0.925084
11.695,315.385,-0.925198
11.6967,315.401,-0.925288
11.6983,315.418,-0.925361
11.7,315.435,-0.925426
11.7017,315.452,-0.925488
11.7033,315.468,-0.925547
11.705,315.485,-0.925598
11.7067,315.502,-0.925648
11.7083,315.518,-0.925703
11.71,315.535,-0.92575
11.7117,315.552,-0.92581
11.7133,315.569,-0.925872
11.715,315.585,-0.925938
11.7167,315.602,-0.926011
11.7183,315.618,-0.926081
11.72,315.635,-0.926159
11.7217,315.651,-0.926231
11.7233,315.668,-0.926306
11.725,315.685,-0.926369
11.7267,315.701,-0.92643
11.7283,315.718,-0.926488
11.73,315.734,-0.926543
11.7317,315.751,-0.926594
11.7333,315.768,-0.926654
11.735,315.785,-0.926705
11.7367,315.801,-0.926758
11.7383,315.818,-0.926809
11.74,315.834,-0.926859
11.7417,315.851,-0.926911
11.7433,315.868,-0.926962
11.745,315.884,-0.927016
11.7467,315.901,-0.927068
11.7483,315.918,-0.927124
11.75,315.934,-0.92718
11.7517,315.951,-0.927241
11.7533,315.968,-0.927303
11.755,315.984,-0.927366
11.7567,316.001,-0.927425
11.7583,316.018,-0.927488
11.76,316.035,-0.927556
11.7617,316.051,-0.927628
11.7633,316.068,-0.927702
11.765,316.085,-0.927786
11.7667,316.102,-0.927868
11.7683,316.118,-0.927951
11.77,316.135,-0.928037
11.7717,316.152,-0.928135
11.7733,316.168,-0.928222
11.775,316.185,-0.928298
11.7767,316.202,-0.928365
11.7783,316.218,-0.928429
11.78,316.235,-0.928489
11.7817,316.251,-0.928558
11.7833,316.268,-0.928636
11.785,316.284,-0.928705
11.7867,316.301,-0.928773
11.7883,316.318,-0.92884
11.79,316.334,-0.928919
11.7917,316.351,-0.929007
11.7933,316.368,-0.929093
11.795,316.384,-0.929182
11.7967,316.401,-0.929272
11.7983,316.418,-0.929356
11.8,316.435,-0.92944
11.8017,316.451,-0.929533
11.8033,316.467,-0.929624
11.805,316.484,-0.929705
11.8067,316.501,-0.929774
11.8083,316.517,-0.929847
11.81,316.534,-0.929915
11.8117,316.551,-0.92998
11.8133,316.567,-0.930044
11.815,316.584,-0.930104
11.8167,316.6,-0.930158
11.8183,316.617,-0.930216
11.82,316.634,-0.930274
11.8217,316.651,-0.930341
11.8233,316.667,-0.930403
11.825,316.684,-0.93046
11.8267,316.7,-0.930525
11.8283,316.717,-0.930599
11.83,316.734,-0.930676
11.8317,316.75,-0.930755
11.8333,316.767,-0.930839
11.835,316.783,-0.930914
11.8367,316.8,-0.930984
11.8383,316.817,-0.931056
11.84,316.834,-0.931135
11.8417,316.85,-0.931206
11.8433,316.867,-0.93128
11.845,316.883,-0.931363
11.8467,316.9,-0.93144
11.8483,316.917,-0.931514
11.85,316.934,-0.931587
11.8517,316.95,-0.931663
11.8533,316.967,-0.931738
11.855,316.984,-0.931814
11.8567,317,-0.931892
11.8583,317.017,-0.931967
11.86,317.033,-0.932044
11.8617,317.05,-0.93212
11.8633,317.067,-0.932197
11.865,317.083,-0.932271
11.8667,317.1,-0.932342
11.8683,317.117,-0.932407
11.87,317.133,-0.932476
11.8717,317.15,-0.932546
11.8733,317.167,-0.932626
11.875,317.183,-0.932706
11.8767,317.2,-0.932784
11.8783,317.217,-0.932871
11.88,317.233,-0.93296
11.8817,317.25,-0.933043
11.8833,317.266,-0.933124
11.885,317.283,-0.933199
11.8867,317.299,-0.933268
11.8883,317.316,-0.933338
11.89,317.333,-0.933404
11.8917,317.35,-0.933462
11.8933,317.366,-0.933517
11.895,317.383,-0.933581
11.8967,317.4,-0.933656
11.8983,317.416,-0.933742
11.9,317.433,-0.933831
11.9017,317.449,-0.933919
11.9033,317.466,-0.934007
11.905,317.483,-0.934096
11.9067,317.499,-0.934186
11.9083,317.516,-0.934273
11.91,317.533,-0.934354
11.9117,317.549,-0.934439
11.9133,317.566,-0.934521
11.915,317.583,-0.934603
11.9167,317.599,-0.934692
11.9183,317.616,-0.93478
11.92,317.632,-0.934862
11.9217,317.649,-0.934954
11.9233,317.665,-0.935043
11.925,317.682,-0.935133
11.9267,317.699,-0.935216
11.9283,317.716,-0.93529
11.93,317.733,-0.935364
11.9317,317.749,-0.93544
11.9333,317.766,-0.935523
11.935,317.782,-0.935608
11.9367,317.799,-0.935685
11.9383,317.816,-0.935757
11.94,317.832,-0.935839
11.9417,317.849,-0.935925
11.9433,317.866,-0.93601
11.945,317.882,-0.936099
11.9467,317.899,-0.936186
11.9483,317.916,-0.936288
11.95,317.933,-0.936402
11.9517,317.949,-0.936522
11.9533,317.966,-0.936648
11.955,317.982,-0.936746
11.9567,317.999,-0.936836
11.9583,318.016,-0.936927
11.96,318.032,-0.937018
11.9617,318.049,-0.937101
11.9633,318.066,-0.937178
11.965,318.082,-0.937251
11.9667,318.099,-0.937328
11.9683,318.116,-0.937417
11.97,318.133,-0.937502
11.9717,318.149,-0.937583
11.9733,318.165,-0.937664
11.975,318.182,-0.937747
11.9767,318.199,-0.937833
11.9783,318.216,-0.937919
11.98,318.232,-0.938016
11.9817,318.249,-0.938113
11.9833,318.265,-0.93821
11.985,318.282,-0.938312
11.9867,318.299,-0.938446
11.9883,318.315,-0.93862
11.99,318.332,-0.938822
11.9917,318.348,-0.938938
11.9933,318.365,-0.93904
11.995,318.382,-0.939141
11.9967,318.398,-0.939235
11.9983,318.415,-0.939328
12,318.432,-0.939419
12.0017,318.449,-0.939515
12.0033,318.465,-0.939612
12.005,318.482,-0.939713
12.0067,318.499,-0.93981
12.0083,318.515,-0.939908
12.01,318.532,-0.940007
12.0117,318.548,-0.940096
12.0133,318.565,-0.940174
12.015,318.582,-0.94025
12.0167,318.599,-0.940324
12.0183,318.615,-0.940401
12.02,318.632,-0.940484
12.0217,318.649,-0.940573
12.0233,318.665,-0.940659
12.025,318.682,-0.94074
12.0267,318.698,-0.940822
12.0283,318.715,-0.940906
12.03,318.732,-0.940994
12.0317,318.749,-0.94108
12.0333,318.766,-0.941169
12.035,318.782,-0.941253
12.0367,318.799,-0.941343
12.0383,318.816,-0.941429
12.04,318.832,-0.941518
12.0417,318.849,-0.941611
12.0433,318.865,-0.941712
12.045,318.882,-0.941812
12.0467,318.898,-0.941917
12.0483,318.915,-0.942021
12.05,318.932,-0.942125
12.0517,318.948,-0.942223
12.0533,318.965,-0.942317
12.055,318.981,-0.942413
12.0567,318.998,-0.942498
12.0583,319.015,-0.942573
12.06,319.032,-0.942646
12.0617,319.048,-0.942722
12.0633,319.065,-0.942812
12.065,319.081,-0.942907
12.0667,319.098,-0.943004
12.0683,319.115,-0.9431
12.07,319.132,-0.943196
12.0717,319.149,-0.943303
12.0733,319.165,-0.943407
12.075,319.182,-0.943505
12.0767,319.198,-0.943596
12.0783,319.215,-0.943693
12.08,319.232,-0.943793
12.0817,319.248,-0.943893
12.0833,319.265,-0.943998
12.085,319.281,-0.944108
12.0867,319.298,-0.944216
12.0883,319.315,-0.944329
12.09,319.331,-0.944492
12.0917,319.348,-0.944606
12.0933,319.364,-0.944721
12.095,319.381,-0.944827
12.0967,319.398,-0.944926
12.0983,319.415,-0.945026
12.1,319.432,-0.945127
12.1017,319.448,-0.945218
12.1033,319.465,-0.945301
12.105,319.482,-0.945381
12.1067,319.499,-0.945459
12.1083,319.515,-0.945537
12.11,319.531,-0.945621
12.1117,319.548,-0.945706
12.1133,319.565,-0.945794
12.115,319.581,-0.945889
12.1167,319.598,-0.945992
12.1183,319.614,-0.946098
12.12,319.631,-0.946207
12.1217,319.648,-0.946312
12.1233,319.664,-0.946417
12.125,319.681,-0.946528
12.1267,319.698,-0.946643
12.1283,319.714,-0.946754
12.13,319.731,-0.946861
12.1317,319.747,-0.94697
12.1333,319.764,-0.947087
12.135,319.781,-0.947236
12.1367,319.797,-0.947425
12.1383,319.814,-0.947639
12.14,319.831,-0.947833
12.1417,319.847,-0.947991
12.1433,319.864,-0.948108
12.145,319.881,-0.94822
12.1467,319.897,-0.948325
12.1483,319.914,-0.94842
12.15,319.931,-0.948514
12.1517,319.948,-0.9486
12.1533,319.964,-0.948681
12.155,319.981,-0.948758
12.1567,319.998,-0.948841
12.1583,320.014,-0.948939
12.16,320.031,-0.949047
12.1617,320.047,-0.949164
12.1633,320.064,-0.949321
12.165,320.08,-0.94953
12.1667,320.097,-0.94977
12.1683,320.114,-0.949964
12.17,320.13,-0.950122
12.1717,320.147,-0.950244
12.1733,320.164,-0.950346
12.175,320.181,-0.950438
12.1767,320.197,-0.950526
12.1783,320.214,-0.95062
12.18,320.231,-0.950714
12.1817,320.247,-0.95082
12.1833,320.264,-0.95092
12.185,320.28,-0.951026
12.1867,320.297,-0.951134
12.1883,320.314,-0.951243
12.19,320.33,-0.951355
12.1917,320.347,-0.951463
12.1933,320.364,-0.951561
12.195,320.38,-0.951652
12.1967,320.397,-0.951743
12.1983,320.414,-0.95184
12.2,320.43,-0.951939
12.2017,320.447,-0.952046
12.2033,320.464,-0.952155
12.205,320.48,-0.952271
12.2067,320.497,-0.952386
12.2083,320.514,-0.952501
12.21,320.53,-0.952664
12.2117,320.547,-0.952784
12.2133,320.564,-0.952905
12.215,320.581,-0.953023
12.2167,320.597,-0.953131
12.2183,320.614,-0.953235
12.22,320.631,-0.953351
12.2217,320.648,-0.953469
12.2233,320.665,-0.953588
12.225,320.681,-0.953707
12.2267,320.698,-0.953825
12.2283,320.714,-0.953944
12.23,320.731,-0.954058
12.2317,320.748,-0.95418
12.2333,320.765,-0.954294
12.235,320.781,-0.95441
12.2367,320.797,-0.954521
12.2383,320.814,-0.954637
12.24,320.831,-0.954762
12.2417,320.847,-0.954887
12.2433,320.864,-0.955006
12.245,320.88,-0.955118
12.2467,320.897,-0.955235
12.2483,320.914,-0.955352
12.25,320.931,-0.955473
12.2517,320.948,-0.955599
12.2533,320.964,-0.955752
12.255,320.981,-0.955891
12.2567,320.998,-0.956033
12.2583,321.014,-0.956224
12.26,321.031,-0.956424
12.2617,321.048,-0.956641
12.2633,321.064,-0.956774
12.265,321.081,-0.956901
12.2667,321.097,-0.957032
12.2683,321.114,-0.957173
12.27,321.131,-0.957388
12.2717,321.147,-0.957557
12.2733,321.164,-0.957704
12.275,321.181,-0.957927
12.2767,321.197,-0.958159
12.2783,321.214,-0.958293
12.28,321.231,-0.958431
12.2817,321.247,-0.958567
12.2833,321.264,-0.9587
12.285,321.28,-0.958826
12.2867,321.297,-0.958953
12.2883,321.314,-0.959077
12.29,321.33,-0.959201
12.2917,321.347,-0.95933
12.2933,321.364,-0.959459
12.295,321.38,-0.95959
12.2967,321.397,-0.959722
12.2983,321.413,-0.959853
12.3,321.43,-0.95999
12.3017,321.447,-0.960132
12.3033,321.463,-0.960272
12.305,321.48,-0.960409
12.3067,321.497,-0.960538
12.3083,321.514,-0.960664
12.31,321.53,-0.960789
12.3117,321.547,-0.960909
12.3133,321.564,-0.961027
12.315,321.58,-0.961142
12.3167,321.597,-0.961264
12.3183,321.613,-0.961381
12.32,321.63,-0.961499
12.3217,321.647,-0.961623
12.3233,321.663,-0.961754
12.325,321.68,-0.961893
12.3267,321.696,-0.962032
12.3283,321.713,-0.962173
12.33,321.73,-0.962339
12.3317,321.746,-0.962533
12.3333,321.763,-0.962694
12.335,321.78,-0.962874
12.3367,321.796,-0.963011
12.3383,321.813,-0.963146
12.34,321.83,-0.963279
12.3417,321.846,-0.963412
12.3433,321.863,-0.963544
12.345,321.88,-0.963672
12.3467,321.896,-0.963803
12.3483,321.913,-0.963927
12.35,321.93,-0.964066
12.3517,321.946,-0.964241
12.3533,321.963,-0.964496
12.355,321.979,-0.964665
12.3567,321.996,-0.964913
12.3583,322.013,-0.965212
12.36,322.03,-0.965585
12.3617,322.046,-0.965824
12.3633,322.063,-0.965968
12.365,322.079,-0.966116
12.3667,322.096,-0.966255
12.3683,322.112,-0.966399
12.37,322.129,-0.966562
12.3717,322.146,-0.966812
12.3733,322.163,-0.967037
12.375,322.179,-0.967188
12.3767,322.196,-0.967336
12.3783,322.213,-0.967484
12.38,322.229,-0.967631
12.3817,322.246,-0.967766
12.3833,322.262,-0.967911
12.385,322.279,-0.968064
12.3867,322.296,-0.968265
12.3883,322.312,-0.968638
12.39,322.329,-0.969051
12.3917,322.346,-0.969463
12.3933,322.363,-0.969899
12.395,322.379,-0.97017
12.3967,322.396,-0.970472
12.3983,322.413,-0.970659
12.4,322.429,-0.970818
12.4017,322.446,-0.970973
12.4033,322.463,-0.971124
12.405,322.479,-0.971336
12.4067,322.496,-0.971483
12.4083,322.513,-0.971673
12.41,322.529,-0.971826
12.4117,322.546,-0.971976
12.4133,322.562,-0.972127
12.415,322.579,-0.972271
12.4167,322.596,-0.972413
12.4183,322.612,-0.972561
12.42,322.629,-0.972716
12.4217,322.645,-0.972888
12.4233,322.662,-0.973138
12.425,322.678,-0.973541
12.4267,322.695,-0.974133
12.4283,322.712,-0.974661
12.43,322.728,-0.975174
12.4317,322.745,-0.975696
12.4333,322.762,-0.976124
12.435,322.778,-0.976589
12.4367,322.795,-0.976901
12.4383,322.812,-0.97713
12.44,322.829,-0.977282
12.4417,322.845,-0.977432
12.4433,322.862,-0.977584
12.445,322.879,-0.97773
12.4467,322.895,-0.977875
12.4483,322.912,-0.978021
12.45,322.929,-0.978175
12.4517,322.945,-0.978401
12.4533,322.962,-0.978814
12.455,322.979,-0.9793
12.4567,322.995,-0.979944
12.4583,323.012,-0.980455
12.46,323.029,-0.980719
12.4617,323.045,-0.980936
12.4633,323.062,-0.981115
12.465,323.078,-0.98126
12.4667,323.095,-0.981402
12.4683,323.112,-0.981544
12.47,323.128,-0.981752
12.4717,323.145,-0.981931
12.4733,323.161,-0.982074
12.475,323.178,-0.982225
12.4767,323.195,-0.98247
12.4783,323.211,-0.982878
12.48,323.228,-0.983259
12.4817,323.244,-0.983671
12.4833,323.261,-0.984027
12.485,323.278,-0.984259
12.4867,323.294,-0.98441
12.4883,323.311,-0.984581
12.49,323.328,-0.984703
12.4917,323.344,-0.984816
12.4933,323.361,-0.984931
12.495,323.378,-0.985051
12.4967,323.394,-0.985175
12.4983,323.411,-0.9853
12.5,323.428,-0.985432
12.5017,323.444,-0.985564
12.5033,323.461,-0.985701
12.505,323.477,-0.985847
12.5067,323.494,-0.986076
12.5083,323.51,-0.986416
12.51,323.527,-0.986835
12.5117,323.544,-0.987418
12.5133,323.56,-0.988135
12.515,323.577,-0.988839
12.5167,323.594,-0.989709
12.5183,323.61,-0.99056
12.52,323.627,-0.991163
12.5217,323.644,-0.991674
12.5233,323.66,-0.99221
12.525,323.677,-0.992606
12.5267,323.694,-0.992992
12.5283,323.71,-0.993447
12.53,323.727,-0.99405
12.5317,323.744,-0.994703
12.5333,323.76,-0.995591
12.535,323.777,-0.996464
12.5367,323.794,-0.997468
12.5383,323.81,-0.998462
12.54,323.827,-0.999462
12.5417,323.844,-1.0004
12.5433,323.86,-1.00118
12.545,323.877,-1.00229
12.5467,323.893,-1.00341
12.5483,323.91,-1.00438
12.55,323.926,-1.00543
12.5517,323.943,-1.00626
12.5533,323.96,-1.00692
12.555,323.977,-1.00751
12.5567,323.993,-1.00802
12.5583,324.009,-1.00838
12.56,324.026,-1.00878
12.5617,324.043,-1.00921
12.5633,324.06,-1.00967
12.565,324.076,-1.01011
12.5667,324.093,-1.0105
12.5683,324.109,-1.011
12.57,324.126,-1.0115
12.5717,324.143,-1.01205
12.5733,324.159,-1.01268
12.575,324.176,-1.01355
12.5767,324.193,-1.01452
12.5783,324.209,-1.0157
12.58,324.226,-1.01676
12.5817,324.243,-1.01776
12.5833,324.259,-1.01878
12.585,324.276,-1.01971
12.5867,324.292,-1.02049
12.5883,324.309,-1.02116
12.59,324.326,-1.02167
12.5917,324.342,-1.02226
12.5933,324.359,-1.02293
12.595,324.376,-1.02339
12.5967,324.392,-1.02376
12.5983,324.409,-1.02415
12.6,324.426,-1.02468
12.6017,324.442,-1.02522
12.6033,324.459,-1.02569
12.605,324.475,-1.02614
12.6067,324.492,-1.02675
12.6083,324.509,-1.02742
12.61,324.525,-1.02818
12.6117,324.542,-1.02906
12.6133,324.558,-1.03007
12.615,324.575,-1.03133
12.6167,324.591,-1.03255
12.6183,324.608,-1.03406
12.62,324.625,-1.03532
12.6217,324.642,-1.03617
12.6233,324.658,-1.0368
12.625,324.675,-1.03737
12.6267,324.691,-1.03793
12.6283,324.708,-1.03852
12.63,324.724,-1.03906
12.6317,324.741,-1.03964
12.6333,324.758,-1.04018
12.635,324.774,-1.04068
12.6367,324.791,-1.04127
12.6383,324.807,-1.04179
12.64,324.824,-1.04234
12.6417,324.841,-1.04301
12.6433,324.857,-1.04367
12.645,324.874,-1.04419
12.6467,324.89,-1.04487
12.6483,324.907,-1.04572
12.65,324.924,-1.0468
12.6517,324.94,-1.04803
12.6533,324.957,-1.04954
12.655,324.973,-1.0509
12.6567,324.99,-1.05243
12.6583,325.007,-1.05411
12.66,325.023,-1.05572
12.6617,325.04,-1.057
12.6633,325.056,-1.058
12.665,325.073,-1.0588
12.6667,325.09,-1.05948
12.6683,325.107,-1.06016
12.67,325.123,-1.06069
12.6717,325.14,-1.06114
12.6733,325.156,-1.06158
12.675,325.173,-1.06212
12.6767,325.189,-1.06277
12.6783,325.206,-1.06354
12.68,325.223,-1.06438
12.6817,325.239,-1.06513
12.6833,325.256,-1.06602
12.685,325.273,-1.06686
12.6867,325.289,-1.06768
12.6883,325.306,-1.06845
12.69,325.322,-1.0691
12.6917,325.339,-1.06969
12.6933,325.356,-1.07034
12.695,325.372,-1.07139
12.6967,325.389,-1.07262
12.6983,325.405,-1.0741
12.7,325.422,-1.07555
12.7017,325.439,-1.07737
12.7033,325.455,-1.07951
12.705,325.472,-1.08114
12.7067,325.488,-1.08247
12.7083,325.505,-1.08388
12.71,325.521,-1.08515
12.7117,325.538,-1.0861
12.7133,325.554,-1.08696
12.715,325.571,-1.08776
12.7167,325.587,-1.08848
12.7183,325.604,-1.08928
12.72,325.621,-1.09009
12.7217,325.637,-1.09099
12.7233,325.653,-1.09182
12.725,325.67,-1.09261
12.7267,325.687,-1.09362
12.7283,325.703,-1.0948
12.73,325.72,-1.09607
12.7317,325.735,-1.09764
12.7333,325.752,-1.09964
12.735,325.769,-1.10157
12.7367,325.785,-1.10407
12.7383,325.802,-1.10642
12.74,325.819,-1.10859
12.7417,325.836,-1.11033
12.7433,325.852,-1.11174
12.745,325.869,-1.11296
12.7467,325.885,-1.11417
12.7483,325.902,-1.11508
12.75,325.919,-1.11585
12.7517,325.935,-1.11681
12.7533,325.952,-1.11802
12.755,325.968,-1.11921
12.7567,325.985,-1.12045
12.7583,326.002,-1.12138
12.76,326.018,-1.12247
12.7617,326.035,-1.12362
12.7633,326.051,-1.12482
12.765,326.068,-1.12638
12.7667,326.085,-1.12767
12.7683,326.102,-1.12933
12.77,326.118,-1.13114
12.7717,326.134,-1.133
12.7733,326.151,-1.13469
12.775,326.167,-1.13628
12.7767,326.184,-1.13761
12.7783,326.2,-1.13884
12.78,326.217,-1.14062
12.7817,326.233,-1.14246
12.7833,326.25,-1.14396
12.785,326.267,-1.14525
12.7867,326.283,-1.1467
12.7883,326.3,-1.14868
12.79,326.316,-1.15092
12.7917,326.333,-1.15359
12.7933,326.35,-1.15647
12.795,326.367,-1.15916
12.7967,326.383,-1.1613
12.7983,326.399,-1.16329
12.8,326.416,-1.1652
12.8017,326.432,-1.16637
12.8033,326.449,-1.16688
12.805,326.465,-1.16756
12.8067,326.482,-1.16829
12.8083,326.498,-1.16914
12.81,326.515,-1.17062
12.8117,326.531,-1.17207
12.8133,326.548,-1.17424
12.815,326.565,-1.17641
12.8167,326.582,-1.17953
12.8183,326.598,-1.18272
12.82,326.615,-1.1862
12.8217,326.631,-1.18873
12.8233,326.648,-1.19139
12.825,326.664,-1.19423
12.8267,326.681,-1.19638
12.8283,326.697,-1.19873
12.83,326.714,-1.20123
12.8317,326.731,-1.20285
12.8333,326.747,-1.20444
12.835,326.763,-1.20571
12.8367,326.78,-1.20611
12.8383,326.796,-1.20713
12.84,326.813,-1.20786
12.8417,326.83,-1.20951
12.8433,326.846,-1.21153
12.845,326.863,-1.21415
12.8467,326.879,-1.21741
12.8483,326.896,-1.22026
12.85,326.913,-1.22221
12.8517,326.929,-1.22423
12.8533,326.946,-1.22707
12.855,326.962,-1.22948
12.8567,326.979,-1.23238
12.8583,326.995,-1.23464
12.86,327.012,-1.23694
12.8617,327.028,-1.23983
12.8633,327.045,-1.24274
12.865,327.061,-1.24582
12.8667,327.078,-1.24887
12.8683,327.094,-1.25049
12.87,327.111,-1.25188
12.8717,327.127,-1.25459
12.8733,327.144,-1.25677
12.875,327.161,-1.25989
12.8767,327.177,-1.26282
12.8783,327.194,-1.26522
12.88,327.211,-1.2676
12.8817,327.227,-1.27036
12.8833,327.243,-1.27201
12.885,327.26,-1.27345
12.8867,327.276,-1.27549
12.8883,327.293,-1.27723
12.89,327.309,-1.28021
12.8917,327.326,-1.28298
12.8933,327.342,-1.28642
12.895,327.359,-1.29109
12.8967,327.375,-1.2945
12.8983,327.392,-1.2986
12.9,327.409,-1.30087
12.9017,327.425,-1.30439
12.9033,327.441,-1.30639
12.905,327.458,-1.3097
12.9067,327.474,-1.31282
12.9083,327.491,-1.3172
12.91,327.508,-1.31995
12.9117,327.524,-1.32365
12.9133,327.54,-1.32674
12.915,327.557,-1.32832
12.9167,327.574,-1.33045
12.9183,327.59,-1.33275
12.92,327.606,-1.33375
12.9217,327.623,-1.33617
12.9233,327.639,-1.33738
12.925,327.656,-1.33902
12.9267,327.672,-1.34165
12.9283,327.688,-1.34484
12.93,327.705,-1.34882
12.9317,327.721,-1.35222
12.9333,327.737,-1.35651
12.935,327.754,-1.36108
12.9367,327.771,-1.36485
12.9383,327.787,-1.36812
12.94,327.804,-1.37148
12.9417,327.82,-1.37456
12.9433,327.837,-1.38008
12.945,327.853,-1.38352
12.9467,327.87,-1.387
12.9483,327.886,-1.39058
12.95,327.903,-1.39354
12.9517,327.919,-1.39612
12.9533,327.935,-1.39968
12.955,327.952,-1.40442
12.9567,327.968,-1.40792
12.9583,327.984,-1.4099
12.96,328.001,-1.41328
12.9617,328.017,-1.41685
12.9633,328.034,-1.41873
12.965,328.05,-1.42174
12.9667,328.067,-1.42564
12.9683,328.084,-1.42899
12.97,328.1,-1.43324
12.9717,328.116,-1.43604
12.9733,328.133,-1.44099
12.975,328.149,-1.44422
12.9767,328.166,-1.44857
12.9783,328.182,-1.45245
12.98,328.199,-1.45534
12.9817,328.215,-1.46
12.9833,328.231,-1.4629
12.985,328.248,-1.46524
12.9867,328.264,-1.46796
12.9883,328.281,-1.47185
12.99,328.297,-1.4758
12.9917,328.313,-1.47975
12.9933,328.33,-1.4832
12.995,328.346,-1.48677
12.9967,328.363,-1.49036
12.9983,328.379,-1.49345
13,328.396,-1.4986
13.0017,328.412,-1.50237
13.0033,328.428,-1.50601
13.005,328.445,-1.51061
13.0067,328.461,-1.51488
13.0083,328.478,-1.51876
13.01,328.494,-1.52323
13.0117,328.511,-1.5274
13.0133,328.527,-1.5324
13.015,328.543,-1.53631
13.0167,328.56,-1.53988
13.0183,328.576,-1.54359
13.02,328.593,-1.54759
13.0217,328.609,-1.5515
13.0233,328.626,-1.55396
13.025,328.642,-1.55799
13.0267,328.658,-1.55963
13.0283,328.675,-1.56368
13.03,328.691,-1.56638
13.0317,328.708,-1.57035
13.0333,328.724,-1.57236
13.035,328.741,-1.57457
13.0367,328.757,-1.57664
13.0383,328.774,-1.58055
13.04,328.79,-1.58482
13.0417,328.807,-1.58926
13.0433,328.822,-1.59298
13.045,328.839,-1.59573
13.0467,328.855,-1.59944
13.0483,328.872,-1.6023
13.05,328.888,-1.60538
13.0517,328.905,-1.60788
13.0533,328.921,-1.61073
13.055,328.938,-1.6138
13.0567,328.954,-1.61672
13.0583,328.97,-1.61948
13.06,328.987,-1.62346
13.0617,329.003,-1.62743
13.0633,329.02,-1.63044
13.065,329.036,-1.63295
13.0667,329.052,-1.63501
13.0683,329.069,-1.638
13.07,329.085,-1.64217
13.0717,329.101,-1.64398
13.0733,329.118,-1.6455
13.075,329.135,-1.64794
13.0767,329.151,-1.6507
13.0783,329.167,-1.65309
13.08,329.184,-1.65435
13.0817,329.2,-1.65528
13.0833,329.217,-1.65715
13.085,329.233,-1.65815
13.0867,329.25,-1.65984
13.0883,329.266,-1.66132
13.09,329.283,-1.6633
13.0917,329.299,-1.66543
13.0933,329.316,-1.66632
13.095,329.332,-1.66685
13.0967,329.348,-1.66878
13.0983,329.365,-1.66916
13.1,329.381,-1.66947
13.1017,329.398,-1.67028
13.1033,329.414,-1.6704
13.105,329.43,-1.67059
13.1067,329.447,-1.67074
13.1083,329.464,-1.67135
13.11,329.48,-1.67222
13.1117,329.496,-1.67299
13.1133,329.513,-1.67368
13.115,329.529,-1.67402
13.1167,329.546,-1.67413
13.1183,329.563,-1.67407
13.12,329.579,-1.67392
13.1217,329.596,-1.67371
13.1233,329.612,-1.67343
13.125,329.629,-1.67311
13.1267,329.646,-1.67289
13.1283,329.662,-1.6726
13.13,329.679,-1.67236
13.1317,329.696,-1.66985
13.1333,329.712,-1.66914
13.135,329.728,-1.66905
13.1367,329.745,-1.6684
13.1383,329.762,-1.6673
13.14,329.778,-1.6659
13.1417,329.795,-1.6648
13.1433,329.812,-1.66381
13.145,329.828,-1.66232
13.1467,329.844,-1.66009
13.1483,329.861,-1.65762
13.15,329.878,-1.65484
13.1517,329.894,-1.6521
13.1533,329.911,-1.6494
13.155,329.927,-1.64693
13.1567,329.944,-1.64468
13.1583,329.961,-1.64269
13.16,329.977,-1.64094
13.1617,329.994,-1.63901
13.1633,330.011,-1.63701
13.165,330.027,-1.63473
13.1667,330.044,-1.63218
13.1683,330.061,-1.62906
13.17,330.077,-1.62559
13.1717,330.094,-1.6212
13.1733,330.111,-1.61549
13.175,330.128,-1.60977
13.1767,330.145,-1.60382
13.1783,330.161,-1.59788
13.18,330.178,-1.59245
13.1817,330.194,-1.58587
13.1833,330.211,-1.57827
13.185,330.228,-1.57321
13.1867,330.245,-1.56874
13.1883,330.262,-1.56376
13.19,330.278,-1.55839
13.1917,330.295,-1.55284
13.1933,330.312,-1.54769
13.195,330.329,-1.54358
13.1967,330.346,-1.53919
13.1983,330.362,-1.53439
13.2,330.379,-1.52917
13.2017,330.396,-1.52442
13.2033,330.413,-1.51926
13.205,330.43,-1.51434
13.2067,330.447,-1.5092
13.2083,330.464,-1.50521
13.21,330.48,-1.50047
13.2117,330.497,-1.49603
13.2133,330.514,-1.49076
13.215,330.53,-1.48468
13.2167,330.547,-1.47887
13.2183,330.564,-1.47155
13.22,330.581,-1.4657
13.2217,330.598,-1.45889
13.2233,330.615,-1.45341
13.225,330.632,-1.44704
13.2267,330.649,-1.44072
13.2283,330.666,-1.4356
13.23,330.683,-1.43033
13.2317,330.7,-1.42384
13.2333,330.717,-1.41803
13.235,330.734,-1.41278
13.2367,330.75,-1.40765
13.2383,330.767,-1.40151
13.24,330.785,-1.39584
13.2417,330.801,-1.39117
13.2433,330.818,-1.38597
13.245,330.835,-1.37922
13.2467,330.852,-1.37297
13.2483,330.869,-1.36684
13.25,330.886,-1.36089
13.2517,330.903,-1.35426
13.2533,330.92,-1.34827
13.255,330.937,-1.3435
13.2567,330.954,-1.33807
13.2583,330.971,-1.33228
13.26,330.988,-1.32542
13.2617,331.005,-1.31991
13.2633,331.022,-1.31435
13.265,331.039,-1.3101
13.2667,331.056,-1.30348
13.2683,331.073,-1.297
13.27,331.091,-1.29175
13.2717,331.108,-1.28662
13.2733,331.125,-1.28177
13.275,331.142,-1.27548
13.2767,331.158,-1.26936
13.2783,331.175,-1.26349
13.28,331.192,-1.25785
13.2817,331.209,-1.25309
13.2833,331.226,-1.24843
13.285,331.244,-1.24347
13.2867,331.261,-1.2393
13.2883,331.278,-1.23467
13.29,331.295,-1.22934
13.2917,331.312,-1.22594
13.2933,331.329,-1.22084
13.295,331.346,-1.21611
13.2967,331.363,-1.21218
13.2983,331.38,-1.20864
13.3,331.397,-1.20422
13.3017,331.414,-1.19899
13.3033,331.431,-1.19394
13.305,331.448,-1.18832
13.3067,331.465,-1.18331
13.3083,331.482,-1.17703
13.31,331.499,-1.17192
13.3117,331.516,-1.16689
13.3133,331.533,-1.16092
13.315,331.55,-1.15761
13.3167,331.567,-1.15278
13.3183,331.584,-1.14841
13.32,331.601,-1.14521
13.3217,331.618,-1.1412
13.3233,331.635,-1.1377
13.325,331.652,-1.13439
13.3267,331.669,-1.13016
13.3283,331.686,-1.12614
13.33,331.703,-1.12185
13.3317,331.72,-1.11925
13.3333,331.737,-1.11554
13.335,331.753,-1.11143
13.3367,331.771,-1.1068
13.3383,331.787,-1.10404
13.34,331.804,-1.10033
13.3417,331.821,-1.09749
13.3433,331.839,-1.09444
13.345,331.856,-1.09212
13.3467,331.873,-1.08867
13.3483,331.89,-1.08521
13.35,331.907,-1.08276
13.3517,331.924,-1.07903
13.3533,331.941,-1.07665
13.355,331.958,-1.07372
13.3567,331.974,-1.07043
13.3583,331.992,-1.066
13.36,332.008,-1.06328
13.3617,332.025,-1.05901
13.3633,332.042,-1.05616
13.365,332.059,-1.05268
13.3667,332.076,-1.04812
13.3683,332.093,-1.04504
13.37,332.11,-1.04195
13.3717,332.127,-1.03934
13.3733,332.144,-1.03798
13.375,332.161,-1.03409
13.3767,332.178,-1.03183
13.3783,332.195,-1.02896
13.38,332.212,-1.02678
13.3817,332.229,-1.0243
13.3833,332.246,-1.02269
13.385,332.263,-1.0212
13.3867,332.28,-1.01973
13.3883,332.296,-1.01714
13.39,332.313,-1.0165
13.3917,332.33,-1.01504
13.3933,332.347,-1.0137
13.395,332.364,-1.01102
13.3967,332.381,-1.00901
13.3983,332.398,-1.00691
13.4,332.415,-1.00608
13.4017,332.431,-1.00363
13.4033,332.449,-1.00055
13.405,332.465,-0.998999
13.4067,332.482,-0.99693
13.4083,332.499,-0.995096
13.41,332.516,-0.990225
13.4117,332.533,-0.987727
13.4133,332.55,-0.986372
13.415,332.566,-0.984416
13.4167,332.583,-0.982514
13.4183,332.6,-0.980805
13.42,332.617,-0.979621
13.4217,332.634,-0.978709
13.4233,332.651,-0.976916
13.425,332.668,-0.975921
13.4267,332.685,-0.9751
13.4283,332.701,-0.973153
13.43,332.718,-0.971545
13.4317,332.735,-0.970026
13.4333,332.752,-0.968545
13.435,332.769,-0.966938
13.4367,332.786,-0.966013
13.4383,332.803,-0.964955
13.44,332.82,-0.964251
13.4417,332.837,-0.963885
13.4433,332.853,-0.962796
13.445,332.87,-0.961434
13.4467,332.887,-0.959916
13.4483,332.904,-0.958817
13.45,332.92,-0.957366
13.4517,332.937,-0.956279
13.4533,332.954,-0.954259
13.455,332.971,-0.952539
13.4567,332.988,-0.950954
13.4583,333.005,-0.949791
13.46,333.022,-0.948499
13.4617,333.038,-0.946794
13.4633,333.055,-0.945294
13.465,333.072,-0.94395
13.4667,333.089,-0.941971
13.4683,333.106,-0.939759
13.47,333.123,-0.937991
13.4717,333.14,-0.936077
13.4733,333.156,-0.934402
13.475,333.173,-0.933159
13.4767,333.189,-0.932313
13.4783,333.206,-0.931784
13.48,333.223,-0.931746
13.4817,333.24,-0.931617
13.4833,333.256,-0.931531
13.485,333.273,-0.931416
13.4867,333.29,-0.931358
13.4883,333.307,-0.931489
13.49,333.324,-0.931583
13.4917,333.341,-0.931263
13.4933,333.358,-0.930508
13.495,333.375,-0.929628
13.4967,333.391,-0.928456
13.4983,333.408,-0.926883
13.5,333.424,-0.925137
13.5017,333.441,-0.923746
13.5033,333.458,-0.922338
13.505,333.474,-0.921265
13.5067,333.491,-0.920588
13.5083,333.508,-0.92019
13.51,333.525,-0.919841
13.5117,333.542,-0.919614
13.5133,333.559,-0.919446
13.515,333.575,-0.919334
13.5167,333.592,-0.919143
13.5183,333.609,-0.918798
13.52,333.626,-0.918359
13.5217,333.642,-0.917947
13.5233,333.659,-0.917558
13.525,333.676,-0.917087
13.5267,333.693,-0.916606
13.5283,333.709,-0.91605
13.53,333.726,-0.915454
13.5317,333.743,-0.914973
13.5333,333.76,-0.914535
13.535,333.777,-0.9139
13.5367,333.793,-0.913135
13.5383,333.81,-0.9125
13.54,333.827,-0.911835
13.5417,333.844,-0.911064
13.5433,333.86,-0.91036
13.545,333.877,-0.909499
13.5467,333.894,-0.908528
13.5483,333.91,-0.907751
13.55,333.927,-0.907018
13.5517,333.944,-0.906434
13.5533,333.96,-0.905909
13.555,333.978,-0.90533
13.5567,333.994,-0.904918
13.5583,334.011,-0.904576
13.56,334.028,-0.904366
13.5617,334.044,-0.904084
13.5633,334.061,-0.903817
13.565,334.078,-0.903502
13.5667,334.094,-0.903308
13.5683,334.111,-0.903049
13.57,334.128,-0.902819
13.5717,334.144,-0.902559
13.5733,334.161,-0.902221
13.575,334.178,-0.90186
13.5767,334.195,-0.901459
13.5783,334.211,-0.901098
13.58,334.228,-0.900634
13.5817,334.245,-0.900211
13.5833,334.262,-0.899664
13.585,334.278,-0.899077
13.5867,334.295,-0.89854
13.5883,334.312,-0.898126
13.59,334.329,-0.897782
13.5917,334.346,-0.897528
13.5933,334.362,-0.897291
13.595,334.379,-0.89706
13.5967,334.396,-0.896852
13.5983,334.413,-0.896642
13.6,334.429,-0.896458
13.6017,334.446,-0.896231
13.6033,334.462,-0.895718
13.605,334.479,-0.89502
13.6067,334.495,-0.894281
13.6083,334.512,-0.89357
13.61,334.529,-0.892749
13.6117,334.546,-0.892074
13.6133,334.562,-0.891458
13.615,334.579,-0.890993
13.6167,334.596,-0.890763
13.6183,334.612,-0.89056
13.62,334.629,-0.890373
13.6217,334.646,-0.890292
13.6233,334.663,-0.890233
13.625,334.68,-0.890173
13.6267,334.696,-0.889826
13.6283,334.713,-0.889789
13.63,334.73,-0.889748
13.6317,334.746,-0.889711
13.6333,334.763,-0.889659
13.635,334.779,-0.889624
13.6367,334.796,-0.889583
13.6383,334.813,-0.889499
13.64,334.829,-0.889381
13.6417,334.846,-0.889271
13.6433,334.863,-0.889179
13.645,334.88,-0.889072
13.6467,334.896,-0.88898
13.6483,334.913,-0.888923
13.65,334.93,-0.888854
13.6517,334.946,-0.888763
13.6533,334.963,-0.888672
13.655,334.979,-0.88852
13.6567,334.997,-0.888365
13.6583,335.013,-0.888266
13.66,335.03,-0.888145
13.6617,335.047,-0.888023
13.6633,335.063,-0.887877
13.665,335.08,-0.887649
13.6667,335.097,-0.887439
13.6683,335.113,-0.887155
13.67,335.13,-0.887008
13.6717,335.146,-0.886881
13.6733,335.163,-0.88676
13.675,335.18,-0.886579
13.6767,335.196,-0.886454
13.6783,335.213,-0.886353
13.68,335.23,-0.886237
13.6817,335.247,-0.886145
13.6833,335.264,-0.886073
13.685,335.28,-0.886
13.6867,335.297,-0.885923
13.6883,335.314,-0.885754
13.69,335.33,-0.885641
13.6917,335.347,-0.885515
13.6933,335.364,-0.885453
13.695,335.38,-0.885381
13.6967,335.397,-0.885289
13.6983,335.413,-0.885182
13.7,335.43,-0.885072
13.7017,335.447,-0.884873
13.7033,335.463,-0.884664
13.705,335.48,-0.884498
13.7067,335.497,-0.88433
13.7083,335.513,-0.884235
13.71,335.53,-0.884158
13.7117,335.547,-0.884084
13.7133,335.564,-0.883977
13.715,335.58,-0.883891
13.7167,335.597,-0.883816
13.7183,335.614,-0.883735
13.72,335.631,-0.883639
13.7217,335.647,-0.883567
13.7233,335.664,-0.883487
13.725,335.68,-0.883389
13.7267,335.697,-0.883297
13.7283,335.714,-0.883214
13.73,335.731,-0.883137
13.7317,335.747,-0.883062
13.7333,335.764,-0.882991
13.735,335.781,-0.882917
13.7367,335.797,-0.882835
13.7383,335.814,-0.882745
13.74,335.83,-0.882656
13.7417,335.848,-0.882536
13.7433,335.864,-0.882432
13.745,335.881,-0.882336
13.7467,335.897,-0.882249
13.7483,335.914,-0.882137
13.75,335.931,-0.882066
13.7517,335.948,-0.882
13.7533,335.964,-0.881944
13.755,335.981,-0.881891
13.7567,335.997,-0.88185
13.7583,336.014,-0.88181
13.76,336.031,-0.88177
13.7617,336.048,-0.881733
13.7633,336.064,-0.881693
13.765,336.081,-0.881647
13.7667,336.097,-0.881593
13.7683,336.114,-0.881531
13.77,336.13,-0.881456
13.7717,336.147,-0.881343
13.7733,336.164,-0.881225
13.775,336.181,-0.881135
13.7767,336.197,-0.881047
13.7783,336.214,-0.880955
13.78,336.23,-0.880868
13.7817,336.247,-0.880783
13.7833,336.264,-0.880701
13.785,336.281,-0.88063
13.7867,336.297,-0.880564
13.7883,336.314,-0.880499
13.79,336.331,-0.880427
13.7917,336.347,-0.88036
13.7933,336.364,-0.880289
13.795,336.381,-0.880214
13.7967,336.397,-0.880137
13.7983,336.414,-0.880059
13.8,336.431,-0.879972
13.8017,336.447,-0.879888
13.8033,336.464,-0.879803
13.805,336.481,-0.879718
13.8067,336.497,-0.879647
13.8083,336.514,-0.879579
13.81,336.531,-0.879511
13.8117,336.548,-0.879446
13.8133,336.564,-0.879385
13.815,336.581,-0.87933
13.8167,336.597,-0.879271
13.8183,336.614,-0.879208
13.82,336.631,-0.879153
13.8217,336.647,-0.879095
13.8233,336.664,-0.879039
13.825,336.68,-0.878981
13.8267,336.697,-0.878912
13.8283,336.714,-0.878844
13.83,336.731,-0.878767
13.8317,336.747,-0.87868
13.8333,336.764,-0.878586
13.835,336.78,-0.878493
13.8367,336.797,-0.878379
13.8383,336.814,-0.878269
13.84,336.83,-0.878172
13.8417,336.847,-0.878093
13.8433,336.864,-0.878022
13.845,336.88,-0.877951
13.8467,336.897,-0.877895
13.8483,336.914,-0.877844
13.85,336.93,-0.877802
13.8517,336.947,-0.877764
13.8533,336.964,-0.877732
13.855,336.98,-0.877702
13.8567,336.997,-0.877667
13.8583,337.014,-0.877624
13.86,337.03,-0.877575
13.8617,337.047,-0.877514
13.8633,337.064,-0.877449
13.865,337.08,-0.87738
13.8667,337.097,-0.877303
13.8683,337.114,-0.87723
13.87,337.13,-0.877151
13.8717,337.147,-0.877079
13.8733,337.163,-0.87701
13.875,337.18,-0.876948
13.8767,337.197,-0.876885
13.8783,337.214,-0.876822
13.88,337.23,-0.876766
13.8817,337.247,-0.876715
13.8833,337.264,-0.876661
13.885,337.28,-0.876603
13.8867,337.297,-0.876546
13.8883,337.314,-0.876487
13.89,337.33,-0.876426
13.8917,337.347,-0.876359
13.8933,337.363,-0.876284
13.895,337.38,-0.876203
13.8967,337.397,-0.876132
13.8983,337.414,-0.876068
13.9,337.43,-0.876018
13.9017,337.447,-0.875973
13.9033,337.464,-0.875932
13.905,337.48,-0.875903
13.9067,337.497,-0.875874
13.9083,337.514,-0.875846
13.91,337.53,-0.875822
13.9117,337.547,-0.875784
13.9133,337.564,-0.875736
13.915,337.58,-0.875677
13.9167,337.597,-0.875606
13.9183,337.614,-0.875536
13.92,337.63,-0.875471
13.9217,337.647,-0.875406
13.9233,337.663,-0.875356
13.925,337.68,-0.875315
13.9267,337.697,-0.875283
13.9283,337.713,-0.875258
13.93,337.73,-0.875245
13.9317,337.747,-0.875241
13.9333,337.763,-0.875234
13.935,337.78,-0.875221
13.9367,337.797,-0.875206
13.9383,337.814,-0.875185
13.94,337.83,-0.875154
13.9417,337.847,-0.87511
13.9433,337.864,-0.875065
13.945,337.88,-0.875027
13.9467,337.897,-0.874989
13.9483,337.913,-0.87496
13.95,337.93,-0.874941
13.9517,337.947,-0.874922
13.9533,337.963,-0.874902
13.955,337.98,-0.874874
13.9567,337.997,-0.874836
13.9583,338.014,-0.874789
13.96,338.03,-0.874743
13.9617,338.047,-0.874693
13.9633,338.063,-0.874642
13.965,338.08,-0.874594
13.9667,338.097,-0.874542
13.9683,338.113,-0.874496
13.97,338.13,-0.874462
13.9717,338.147,-0.874433
13.9733,338.163,-0.874407
13.975,338.18,-0.874385
13.9767,338.197,-0.874366
13.9783,338.213,-0.874342
13.98,338.23,-0.874313
13.9817,338.247,-0.874271
13.9833,338.263,-0.874221
13.985,338.28,-0.87417
13.9867,338.296,-0.874119
13.9883,338.313,-0.874072
13.99,338.33,-0.874037
13.9917,338.346,-0.874005
13.9933,338.363,-0.87398
13.995,338.38,-0.87395
13.9967,338.396,-0.873928
13.9983,338.413,-0.873905
14,338.429,-0.873884
14.0017,338.446,-0.873862
14.0033,338.463,-0.873837
14.005,338.479,-0.873806
14.0067,338.496,-0.873764
14.0083,338.513,-0.873718
14.01,338.53,-0.873675
14.0117,338.546,-0.873638
14.0133,338.563,-0.873607
14.015,338.58,-0.873575
14.0167,338.596,-0.873545
14.0183,338.613,-0.873516
14.02,338.63,-0.873489
14.0217,338.647,-0.873465
14.0233,338.663,-0.873444
14.025,338.68,-0.873416
14.0267,338.696,-0.873387
14.0283,338.713,-0.873366
14.03,338.73,-0.873341
14.0317,338.747,-0.873316
14.0333,338.763,-0.873296
14.035,338.78,-0.873275
14.0367,338.796,-0.873258
14.0383,338.813,-0.873245
14.04,338.83,-0.873226
14.0417,338.846,-0.873207
14.0433,338.863,-0.873185
14.045,338.88,-0.873156
14.0467,338.896,-0.873116
14.0483,338.913,-0.873065
14.05,338.93,-0.872999
14.0517,338.946,-0.87294
14.0533,338.963,-0.872886
14.055,338.979,-0.872835
14.0567,338.996,-0.87279
14.0583,339.012,-0.872761
14.06,339.029,-0.872752
14.0617,339.046,-0.872751
14.0633,339.063,-0.872768
14.065,339.079,-0.872809
14.0667,339.096,-0.872868
14.0683,339.113,-0.872898
14.07,339.129,-0.872917
14.0717,339.146,-0.872948
14.0733,339.163,-0.872958
14.075,339.18,-0.872968
14.0767,339.196,-0.87298
14.0783,339.213,-0.872981
14.08,339.23,-0.872979
14.0817,339.246,-0.872981
14.0833,339.263,-0.872982
14.085,339.279,-0.872988
14.0867,339.296,-0.872992
14.0883,339.312,-0.873
14.09,339.329,-0.873011
14.0917,339.346,-0.87302
14.0933,339.362,-0.873022
14.095,339.379,-0.87303
14.0967,339.396,-0.873038
14.0983,339.413,-0.873043
14.1,339.429,-0.873052
14.1017,339.446,-0.873065
14.1033,339.463,-0.873081
14.105,339.479,-0.8731
14.1067,339.496,-0.873124
14.1083,339.513,-0.873145
14.11,339.529,-0.873167
14.1117,339.546,-0.873183
14.1133,339.563,-0.873193
14.115,339.579,-0.873202
14.1167,339.596,-0.873204
14.1183,339.612,-0.873212
14.12,339.629,-0.87322
14.1217,339.646,-0.87323
14.1233,339.662,-0.873249
14.125,339.679,-0.873265
14.1267,339.695,-0.87328
14.1283,339.712,-0.873288
14.13,339.729,-0.873294
14.1317,339.746,-0.873296
14.1333,339.762,-0.873303
14.135,339.779,-0.873306
14.1367,339.795,-0.873308
14.1383,339.812,-0.873313
14.14,339.828,-0.87332
14.1417,339.845,-0.873339
14.1433,339.862,-0.873364
14.145,339.878,-0.873383
14.1467,339.895,-0.873408
14.1483,339.912,-0.873447
14.15,339.928,-0.873503
14.1517,339.945,-0.873556
14.1533,339.962,-0.873594
14.155,339.979,-0.873619
14.1567,339.996,-0.87364
14.1583,340.012,-0.873649
14.16,340.029,-0.873646
14.1617,340.045,-0.873639
14.1633,340.062,-0.87362
14.165,340.079,-0.8736
14.1667,340.095,-0.873577
14.1683,340.112,-0.873561
14.17,340.129,-0.873549
14.1717,340.145,-0.873539
14.1733,340.162,-0.873531
14.175,340.179,-0.873533
14.1767,340.195,-0.873542
14.1783,340.212,-0.873544
14.18,340.229,-0.873542
14.1817,340.245,-0.873535
14.1833,340.262,-0.873525
14.185,340.279,-0.873517
14.1867,340.295,-0.873511
14.1883,340.312,-0.8735
14.19,340.328,-0.873482
14.1917,340.345,-0.873471
14.1933,340.362,-0.87348
14.195,340.379,-0.873497
14.1967,340.395,-0.873516
14.1983,340.412,-0.873551
14.2,340.429,-0.873586
14.2017,340.445,-0.873622
14.2033,340.462,-0.873658
14.205,340.478,-0.873692
14.2067,340.495,-0.873718
14.2083,340.511,-0.873735
14.21,340.528,-0.873752
14.2117,340.545,-0.873763
14.2133,340.562,-0.873787
14.215,340.578,-0.873809
14.2167,340.595,-0.87383
14.2183,340.611,-0.873854
14.22,340.628,-0.873876
14.2217,340.645,-0.873887
14.2233,340.661,-0.873886
14.225,340.678,-0.873886
14.2267,340.694,-0.873879
14.2283,340.711,-0.873876
14.23,340.728,-0.873871
14.2317,340.745,-0.873873
14.2333,340.761,-0.873879
14.235,340.778,-0.873889
14.2367,340.794,-0.873901
14.2383,340.811,-0.873917
14.24,340.828,-0.873932
14.2417,340.845,-0.873941
14.2433,340.861,-0.873941
14.245,340.878,-0.873934
14.2467,340.895,-0.873936
14.2483,340.912,-0.873924
14.25,340.928,-0.873911
14.2517,340.945,-0.873892
14.2533,340.962,-0.873877
14.255,340.979,-0.873861
14.2567,340.995,-0.873842
14.2583,341.012,-0.873826
14.26,341.028,-0.873817
14.2617,341.045,-0.873809
14.2633,341.062,-0.873804
14.265,341.079,-0.873795
14.2667,341.095,-0.873778
14.2683,341.111,-0.873774
14.27,341.128,-0.873769
14.2717,341.145,-0.87377
14.2733,341.162,-0.873777
14.275,341.178,-0.873793
14.2767,341.195,-0.873808
14.2783,341.211,-0.873835
14.28,341.228,-0.873889
14.2817,341.245,-0.873958
14.2833,341.262,-0.873996
14.285,341.278,-0.874026
14.2867,341.295,-0.874049
14.2883,341.312,-0.874066
14.29,341.329,-0.874083
14.2917,341.345,-0.874099
14.2933,341.362,-0.874117
14.295,341.378,-0.874129
14.2967,341.395,-0.87414
14.2983,341.411,-0.874146
14.3,341.428,-0.874147
14.3017,341.444,-0.874149
14.3033,341.461,-0.874143
14.305,341.478,-0.874133
14.3067,341.494,-0.87413
14.3083,341.511,-0.874129
14.31,341.528,-0.874133
14.3117,341.545,-0.874135
14.3133,341.561,-0.874146
14.315,341.578,-0.874158
14.3167,341.595,-0.874177
14.3183,341.611,-0.874202
14.32,341.628,-0.874239
14.3217,341.645,-0.874275
14.3233,341.661,-0.874313
14.325,341.678,-0.874341
14.3267,341.695,-0.874366
14.3283,341.711,-0.874391
14.33,341.728,-0.874414
14.3317,341.745,-0.874425
14.3333,341.761,-0.874424
14.335,341.778,-0.87442
14.3367,341.794,-0.874422
14.3383,341.811,-0.874434
14.34,341.828,-0.874436
14.3417,341.844,-0.874432
14.3433,341.861,-0.874432
14.345,341.877,-0.874436
14.3467,341.894,-0.874441
14.3483,341.911,-0.874446
14.35,341.927,-0.874442
14.3517,341.944,-0.874442
14.3533,341.961,-0.874454
14.355,341.977,-0.874478
14.3567,341.994,-0.874513
14.3583,342.01,-0.874542
14.36,342.027,-0.87457
14.3617,342.044,-0.874602
14.3633,342.06,-0.874631
14.365,342.077,-0.874654
14.3667,342.094,-0.874669
14.3683,342.11,-0.874681
14.37,342.127,-0.874689
14.3717,342.143,-0.874696
14.3733,342.16,-0.874703
14.375,342.176,-0.874712
14.3767,342.193,-0.874721
14.3783,342.21,-0.874728
14.38,342.227,-0.874745
14.3817,342.243,-0.874762
14.3833,342.26,-0.874782
14.385,342.277,-0.8748
14.3867,342.294,-0.874814
14.3883,342.31,-0.874827
14.39,342.327,-0.874836
14.3917,342.343,-0.874841
14.3933,342.36,-0.874835
14.395,342.377,-0.874833
14.3967,342.393,-0.874839
14.3983,342.41,-0.874839
14.4,342.427,-0.874847
14.4017,342.443,-0.874855
14.4033,342.46,-0.874869
14.405,342.477,-0.874882
14.4067,342.493,-0.874898
14.4083,342.51,-0.874909
14.41,342.527,-0.874917
14.4117,342.543,-0.874917
14.4133,342.56,-0.874916
14.415,342.576,-0.874918
14.4167,342.593,-0.874914
14.4183,342.61,-0.874914
14.42,342.627,-0.874921
14.4217,342.643,-0.874936
14.4233,342.66,-0.874948
14.425,342.676,-0.874972
14.4267,342.693,-0.874997
14.4283,342.71,-0.875021
14.43,342.726,-0.875041
14.4317,342.743,-0.875051
14.4333,342.76,-0.875072
14.435,342.776,-0.875103
14.4367,342.793,-0.875135
14.4383,342.81,-0.875166
14.44,342.827,-0.8752
14.4417,342.843,-0.875226
14.4433,342.86,-0.87525
14.445,342.877,-0.875271
14.4467,342.893,-0.875289
14.4483,342.91,-0.875307
14.45,342.926,-0.875329
14.4517,342.943,-0.875352
14.4533,342.96,-0.875388
14.455,342.977,-0.875425
14.4567,342.993,-0.875463
14.4583,343.01,-0.875499
14.46,343.026,-0.87553
14.4617,343.043,-0.875562
14.4633,343.06,-0.875585
14.465,343.076,-0.875602
14.4667,343.093,-0.875615
14.4683,343.11,-0.875626
14.47,343.126,-0.875634
14.4717,343.143,-0.87565
14.4733,343.16,-0.875668
14.475,343.176,-0.875691
14.4767,343.193,-0.875719
14.4783,343.21,-0.875747
14.48,343.226,-0.875775
14.4817,343.243,-0.875794
14.4833,343.259,-0.875813
14.485,343.276,-0.875834
14.4867,343.293,-0.875853
14.4883,343.31,-0.875862
14.49,343.326,-0.875876
14.4917,343.343,-0.875894
14.4933,343.36,-0.875913
14.495,343.376,-0.875932
14.4967,343.393,-0.875946
14.4983,343.409,-0.875964
14.5,343.426,-0.875988
14.5017,343.443,-0.876009
14.5033,343.459,-0.876024
14.505,343.476,-0.876046
14.5067,343.493,-0.876073
14.5083,343.51,-0.876097
14.51,343.526,-0.876121
14.5117,343.543,-0.876148
14.5133,343.559,-0.876182
14.515,343.576,-0.876213
14.5167,343.593,-0.876242
14.5183,343.609,-0.876266
14.52,343.626,-0.876292
14.5217,343.643,-0.876317
14.5233,343.659,-0.876345
14.525,343.676,-0.876373
14.5267,343.693,-0.876391
14.5283,343.71,-0.8764
14.53,343.726,-0.876401
14.5317,343.743,-0.876407
14.5333,343.759,-0.876417
14.535,343.776,-0.876424
14.5367,343.792,-0.87643
14.5383,343.809,-0.876436
14.54,343.826,-0.876444
14.5417,343.842,-0.876458
14.5433,343.859,-0.876471
14.545,343.876,-0.876496
14.5467,343.892,-0.876517
14.5483,343.909,-0.876542
14.55,343.926,-0.876573
14.5517,343.943,-0.876596
14.5533,343.959,-0.876623
14.555,343.976,-0.876655
14.5567,343.992,-0.876688
14.5583,344.009,-0.87672
14.56,344.025,-0.876748
14.5617,344.042,-0.876773
14.5633,344.059,-0.876803
14.565,344.076,-0.876839
14.5667,344.092,-0.876871
14.5683,344.109,-0.876898
14.57,344.126,-0.876931
14.5717,344.142,-0.876974
14.5733,344.159,-0.877021
14.575,344.176,-0.877071
14.5767,344.193,-0.877113
14.5783,344.209,-0.877149
14.58,344.226,-0.877176
14.5817,344.243,-0.877204
14.5833,344.259,-0.877228
14.585,344.276,-0.877245
14.5867,344.292,-0.877245
14.5883,344.309,-0.877245
14.59,344.326,-0.877256
14.5917,344.343,-0.877272
14.5933,344.359,-0.877291
14.595,344.376,-0.877307
14.5967,344.392,-0.877329
14.5983,344.409,-0.877359
14.6,344.426,-0.877389
14.6017,344.442,-0.877416
14.6033,344.459,-0.87744
14.605,344.475,-0.877458
14.6067,344.492,-0.877483
14.6083,344.509,-0.877503
14.61,344.525,-0.877521
14.6117,344.542,-0.877537
14.6133,344.559,-0.87755
14.615,344.576,-0.877561
14.6167,344.592,-0.877577
14.6183,344.609,-0.8776
14.62,344.626,-0.87762
14.6217,344.642,-0.877651
14.6233,344.659,-0.877682
14.625,344.676,-0.87772
14.6267,344.692,-0.877759
14.6283,344.709,-0.877794
14.63,344.726,-0.877831
14.6317,344.742,-0.877865
14.6333,344.759,-0.877896
14.635,344.776,-0.877937
14.6367,344.792,-0.877981
14.6383,344.809,-0.878017
14.64,344.825,-0.878054
14.6417,344.842,-0.878088
14.6433,344.859,-0.878123
14.645,344.875,-0.878168
14.6467,344.892,-0.878207
14.6483,344.909,-0.878232
14.65,344.926,-0.878257
14.6517,344.942,-0.878282
14.6533,344.959,-0.878309
14.655,344.975,-0.878345
14.6567,344.992,-0.878375
14.6583,345.009,-0.878402
14.66,345.025,-0.878424
14.6617,345.042,-0.878445
14.6633,345.059,-0.878464
14.665,345.076,-0.878472
14.6667,345.092,-0.878475
14.6683,345.109,-0.878483
14.67,345.125,-0.878499
14.6717,345.142,-0.878511
14.6733,345.159,-0.878535
14.675,345.175,-0.878557
14.6767,345.192,-0.878589
14.6783,345.209,-0.878615
14.68,345.225,-0.878636
14.6817,345.242,-0.878668
14.6833,345.259,-0.878698
14.685,345.275,-0.878715
14.6867,345.292,-0.878728
14.6883,345.308,-0.878739
14.69,345.325,-0.87875
14.6917,345.342,-0.87877
14.6933,345.358,-0.878781
14.695,345.375,-0.878801
14.6967,345.392,-0.878827
14.6983,345.408,-0.878855
14.7,345.425,-0.878902
14.7017,345.442,-0.878946
14.7033,345.458,-0.878992
14.705,345.475,-0.87904
14.7067,345.492,-0.879075
14.7083,345.508,-0.87911
14.71,345.525,-0.879137
14.7117,345.542,-0.879156
14.7133,345.558,-0.879171
14.715,345.575,-0.879183
14.7167,345.591,-0.879194
14.7183,345.608,-0.879208
14.72,345.625,-0.879216
14.7217,345.641,-0.879231
14.7233,345.658,-0.879252
14.725,345.675,-0.879278
14.7267,345.692,-0.879313
14.7283,345.708,-0.879343
14.73,345.725,-0.879376
14.7317,345.742,-0.879411
14.7333,345.758,-0.879454
14.735,345.775,-0.879501
14.7367,345.792,-0.879548
14.7383,345.808,-0.87959
14.74,345.825,-0.879624
14.7417,345.842,-0.879657
14.7433,345.859,-0.879692
14.745,345.875,-0.879722
14.7467,345.892,-0.879742
14.7483,345.908,-0.879764
14.75,345.925,-0.879785
14.7517,345.942,-0.879799
14.7533,345.958,-0.879815
14.755,345.975,-0.879835
14.7567,345.992,-0.879851
14.7583,346.008,-0.879872
14.76,346.024,-0.8799
14.7617,346.041,-0.879941
14.7633,346.058,-0.879984
14.765,346.075,-0.880037
14.7667,346.092,-0.880093
14.7683,346.108,-0.880147
14.77,346.125,-0.880193
14.7717,346.141,-0.880239
14.7733,346.158,-0.880275
14.775,346.175,-0.880297
14.7767,346.191,-0.880314
14.7783,346.208,-0.880331
14.78,346.225,-0.880343
14.7817,346.241,-0.880343
14.7833,346.258,-0.880344
14.785,346.275,-0.88035
14.7867,346.292,-0.88036
14.7883,346.308,-0.880374
14.79,346.325,-0.880391
14.7917,346.341,-0.880408
14.7933,346.358,-0.880423
14.795,346.374,-0.880445
14.7967,346.391,-0.880484
14.7983,346.408,-0.880539
14.8,346.425,-0.88063
14.8017,346.441,-0.880712
14.8033,346.458,-0.880778
14.805,346.474,-0.880825
14.8067,346.491,-0.880864
14.8083,346.508,-0.880895
14.81,346.525,-0.880914
14.8117,346.541,-0.880926
14.8133,346.558,-0.88094
14.815,346.575,-0.880946
14.8167,346.591,-0.880957
14.8183,346.608,-0.880976
14.82,346.625,-0.880997
14.8217,346.641,-0.881021
14.8233,346.658,-0.881044
14.825,346.674,-0.881071
14.8267,346.691,-0.881099
14.8283,346.708,-0.881136
14.83,346.725,-0.881176
14.8317,346.741,-0.881214
14.8333,346.758,-0.881249
14.835,346.775,-0.881294
14.8367,346.791,-0.881336
14.8383,346.808,-0.881378
14.84,346.824,-0.881419
14.8417,346.841,-0.881456
14.8433,346.858,-0.881481
14.845,346.874,-0.881508
14.8467,346.891,-0.881539
14.8483,346.908,-0.881569
14.85,346.924,-0.881583
14.8517,346.941,-0.8816
14.8533,346.958,-0.881624
14.855,346.975,-0.881657
14.8567,346.991,-0.881691
14.8583,347.007,-0.881729
14.86,347.024,-0.881773
14.8617,347.041,-0.881811
14.8633,347.057,-0.881851
14.865,347.074,-0.881888
14.8667,347.09,-0.881923
14.8683,347.107,-0.881945
14.87,347.124,-0.881958
14.8717,347.14,-0.881972
14.8733,347.157,-0.881984
14.875,347.174,-0.881997
14.8767,347.191,-0.882007
14.8783,347.207,-0.882018
14.88,347.224,-0.882024
14.8817,347.241,-0.882032
14.8833,347.257,-0.882038
14.885,347.274,-0.882046
14.8867,347.291,-0.882047
14.8883,347.307,-0.882047
14.89,347.324,-0.882059
14.8917,347.341,-0.882077
14.8933,347.358,-0.8821
14.895,347.374,-0.882135
14.8967,347.391,-0.882177
14.8983,347.407,-0.882224
14.9,347.424,-0.882275
14.9017,347.441,-0.882342
14.9033,347.457,-0.882397
14.905,347.474,-0.882448
14.9067,347.49,-0.882488
14.9083,347.507,-0.882523
14.91,347.524,-0.882553
14.9117,347.541,-0.882571
14.9133,347.557,-0.882584
14.915,347.574,-0.882591
14.9167,347.59,-0.882591
14.9183,347.607,-0.88259
14.92,347.624,-0.882594
14.9217,347.64,-0.882599
14.9233,347.657,-0.882608
14.925,347.674,-0.88263
14.9267,347.69,-0.882666
14.9283,347.706,-0.882703
14.93,347.723,-0.882754
14.9317,347.74,-0.8828
14.9333,347.757,-0.882853
14.935,347.774,-0.882911
14.9367,347.79,-0.882964
14.9383,347.807,-0.883009
14.94,347.823,-0.883055
14.9417,347.84,-0.883094
14.9433,347.857,-0.883122
14.945,347.874,-0.88314
14.9467,347.89,-0.883148
14.9483,347.907,-0.88316
14.95,347.924,-0.883166
14.9517,347.94,-0.883172
14.9533,347.957,-0.883179
14.955,347.974,-0.883198
14.9567,347.99,-0.883231
14.9583,348.007,-0.883274
14.96,348.024,-0.883323
14.9617,348.04,-0.883384
14.9633,348.057,-0.883433
14.965,348.074,-0.883479
14.9667,348.09,-0.883519
14.9683,348.107,-0.883553
14.97,348.124,-0.883581
14.9717,348.14,-0.883595
14.9733,348.157,-0.883597
14.975,348.173,-0.883604
14.9767,348.19,-0.88361
14.9783,348.206,-0.883618
14.98,348.223,-0.883626
14.9817,348.24,-0.883641
14.9833,348.256,-0.88366
14.985,348.273,-0.883681
14.9867,348.29,-0.883702
14.9883,348.306,-0.883736
14.99,348.323,-0.883777
14.9917,348.34,-0.88381
14.9933,348.357,-0.883857
14.995,348.373,-0.883909
14.9967,348.39,-0.88396
14.9983,348.406,-0.88401
15,348.423,-0.884058
15.0017,348.44,-0.884103
15.0033,348.457,-0.884144
15.005,348.473,-0.884178
15.0067,348.49,-0.884212
15.0083,348.506,-0.884244
15.01,348.523,-0.884269
15.0117,348.539,-0.884296
15.0133,348.556,-0.884322
15.015,348.573,-0.884341
15.0167,348.59,-0.884365
15.0183,348.606,-0.884392
15.02,348.623,-0.884419
15.0217,348.639,-0.884445
15.0233,348.656,-0.884475
15.025,348.673,-0.884507
15.0267,348.69,-0.884533
15.0283,348.706,-0.884558
15.03,348.723,-0.884589
15.0317,348.74,-0.884625
15.0333,348.756,-0.884663
15.035,348.773,-0.884698
15.0367,348.789,-0.884742
15.0383,348.806,-0.884783
15.04,348.823,-0.884828
15.0417,348.839,-0.884871
15.0433,348.856,-0.884908
15.045,348.873,-0.884935
15.0467,348.889,-0.884957
15.0483,348.906,-0.884972
15.05,348.923,-0.884982
15.0517,348.939,-0.884993
15.0533,348.956,-0.885001
15.055,348.973,-0.885004
15.0567,348.989,-0.88501
15.0583,349.006,-0.885018
15.06,349.023,-0.885032
15.0617,349.039,-0.885051
15.0633,349.056,-0.885071
15.065,349.073,-0.885103
15.0667,349.09,-0.885138
15.0683,349.106,-0.885172
15.07,349.123,-0.885215
15.0717,349.139,-0.88526
15.0733,349.156,-0.885308
15.075,349.172,-0.885362
15.0767,349.189,-0.885414
15.0783,349.206,-0.885466
15.08,349.223,-0.885519
15.0817,349.239,-0.885567
15.0833,349.256,-0.885604
15.085,349.273,-0.88565
15.0867,349.289,-0.885688
15.0883,349.306,-0.885719
15.09,349.322,-0.885752
15.0917,349.339,-0.88579
15.0933,349.356,-0.88582
15.095,349.372,-0.885845
15.0967,349.389,-0.885881
15.0983,349.406,-0.885909
15.1,349.423,-0.885929
15.1017,349.439,-0.885948
15.1033,349.456,-0.88597
15.105,349.473,-0.885993
15.1067,349.489,-0.886011
15.1083,349.505,-0.886026
15.11,349.522,-0.886048
15.1117,349.538,-0.886075
15.1133,349.555,-0.886105
15.115,349.572,-0.88614
15.1167,349.588,-0.886165
15.1183,349.605,-0.886186
15.12,349.622,-0.886215
15.1217,349.639,-0.886238
15.1233,349.655,-0.886259
15.125,349.672,-0.886274
15.1267,349.688,-0.886283
15.1283,349.705,-0.886296
15.13,349.722,-0.886315
15.1317,349.738,-0.88633
15.1333,349.755,-0.886348
15.135,349.771,-0.886364
15.1367,349.788,-0.886377
15.1383,349.805,-0.886395
15.14,349.822,-0.886421
15.1417,349.838,-0.88644
15.1433,349.855,-0.886461
15.145,349.872,-0.886484
15.1467,349.888,-0.886511
15.1483,349.905,-0.886544
15.15,349.922,-0.886575
15.1517,349.938,-0.886612
15.1533,349.955,-0.886655
15.155,349.971,-0.8867
15.1567,349.988,-0.886749
15.1583,350.005,-0.886802
15.16,350.022,-0.886856
15.1617,350.038,-0.88691
15.1633,350.055,-0.886963
15.165,350.072,-0.887008
15.1667,350.088,-0.887049
15.1683,350.105,-0.887082
15.17,350.121,-0.887106
15.1717,350.138,-0.887132
15.1733,350.154,-0.887156
15.175,350.171,-0.887181
15.1767,350.188,-0.887203
15.1783,350.205,-0.887234
15.18,350.222,-0.887268
15.1817,350.238,-0.887294
15.1833,350.255,-0.887307
15.185,350.271,-0.887321
15.1867,350.288,-0.887336
15.1883,350.305,-0.887348
15.19,350.321,-0.887361
15.1917,350.338,-0.887373
15.1933,350.354,-0.88739
15.195,350.371,-0.887405
15.1967,350.388,-0.887429
15.1983,350.404,-0.887453
15.2,350.421,-0.887472
15.2017,350.438,-0.887478
15.2033,350.454,-0.887486
15.205,350.471,-0.8875
15.2067,350.488,-0.887515
15.2083,350.504,-0.887518
15.21,350.521,-0.887531
15.2117,350.538,-0.887557
15.2133,350.554,-0.887596
15.215,350.571,-0.887646
15.2167,350.587,-0.887723
15.2183,350.604,-0.887827
15.22,350.62,-0.887929
15.2217,350.637,-0.887997
15.2233,350.654,-0.888055
15.225,350.671,-0.888103
15.2267,350.688,-0.888133
15.2283,350.704,-0.888163
15.23,350.721,-0.888193
15.2317,350.738,-0.888217
15.2333,350.754,-0.888237
15.235,350.771,-0.88827
15.2367,350.788,-0.888298
15.2383,350.804,-0.888328
15.24,350.821,-0.888363
15.2417,350.837,-0.888402
15.2433,350.854,-0.888445
15.245,350.871,-0.888484
15.2467,350.888,-0.888514
15.2483,350.904,-0.888552
15.25,350.921,-0.888589
15.2517,350.937,-0.888627
15.2533,350.954,-0.888667
15.255,350.971,-0.888699
15.2567,350.988,-0.88873
15.2583,351.004,-0.888751
15.26,351.021,-0.88877
15.2617,351.038,-0.888799
15.2633,351.054,-0.888833
15.265,351.071,-0.888862
15.2667,351.088,-0.888893
15.2683,351.104,-0.888922
15.27,351.121,-0.888951
15.2717,351.137,-0.888976
15.2733,351.154,-0.889006
15.275,351.17,-0.889039
15.2767,351.187,-0.889071
15.2783,351.204,-0.889109
15.28,351.22,-0.889156
15.2817,351.237,-0.889209
15.2833,351.253,-0.88926
15.285,351.27,-0.889319
15.2867,351.287,-0.889373
15.2883,351.304,-0.889417
15.29,351.32,-0.889455
15.2917,351.337,-0.889481
15.2933,351.353,-0.889502
15.295,351.37,-0.889524
15.2967,351.387,-0.889545
15.2983,351.404,-0.889574
15.3,351.42,-0.889606
15.3017,351.437,-0.889641
15.3033,351.453,-0.889675
15.305,351.47,-0.889716
15.3067,351.486,-0.889759
15.3083,351.503,-0.88979
15.31,351.52,-0.889818
15.3117,351.536,-0.889839
15.3133,351.553,-0.889863
15.315,351.57,-0.889883
15.3167,351.587,-0.889911
15.3183,351.603,-0.889935
15.32,351.62,-0.889957
15.3217,351.636,-0.889986
15.3233,351.653,-0.890015
15.325,351.67,-0.890045
15.3267,351.687,-0.890063
15.3283,351.704,-0.890083
15.33,351.72,-0.890099
15.3317,351.736,-0.890123
15.3333,351.753,-0.890148
15.335,351.77,-0.89018
15.3367,351.786,-0.890212
15.3383,351.803,-0.890247
15.34,351.82,-0.89028
15.3417,351.836,-0.890314
15.3433,351.853,-0.890347
15.345,351.87,-0.890373
15.3467,351.886,-0.89039
15.3483,351.902,-0.890398
15.35,351.919,-0.890419
15.3517,351.936,-0.890451
15.3533,351.953,-0.890489
15.355,351.969,-0.890519
15.3567,351.986,-0.890554
15.3583,352.003,-0.89059
15.36,352.02,-0.89062
15.3617,352.036,-0.890645
15.3633,352.053,-0.890663
15.365,352.069,-0.890679
15.3667,352.086,-0.890695
15.3683,352.103,-0.890712
15.37,352.119,-0.890727
15.3717,352.136,-0.890751
15.3733,352.153,-0.890773
15.375,352.169,-0.890795
15.3767,352.186,-0.890819
15.3783,352.202,-0.890853
15.38,352.219,-0.89089
15.3817,352.236,-0.890927
15.3833,352.252,-0.89096
15.385,352.269,-0.890985
15.3867,352.286,-0.891015
15.3883,352.302,-0.891041
15.39,352.319,-0.891063
15.3917,352.335,-0.891083
15.3933,352.352,-0.891095
15.395,352.369,-0.891108
15.3967,352.385,-0.891135
15.3983,352.402,-0.891168
15.4,352.419,-0.891209
15.4017,352.436,-0.891251
15.4033,352.452,-0.891287
15.405,352.469,-0.891324
15.4067,352.485,-0.891367
15.4083,352.502,-0.891416
15.41,352.519,-0.891461
15.4117,352.535,-0.891507
15.4133,352.551,-0.891553
15.415,352.569,-0.891601
15.4167,352.585,-0.891649
15.4183,352.601,-0.891694
15.42,352.618,-0.891731
15.4217,352.635,-0.891764
15.4233,352.652,-0.891795
15.425,352.668,-0.891825
15.4267,352.685,-0.891864
15.4283,352.702,-0.891893
15.43,352.718,-0.891922
15.4317,352.735,-0.891953
15.4333,352.752,-0.891982
15.435,352.768,-0.892007
15.4367,352.785,-0.892024
15.4383,352.801,-0.892044
15.44,352.818,-0.89206
15.4417,352.835,-0.892083
15.4433,352.851,-0.892106
15.445,352.868,-0.892131
15.4467,352.885,-0.892157
15.4483,352.901,-0.89219
15.45,352.918,-0.892222
15.4517,352.935,-0.892268
15.4533,352.951,-0.892315
15.455,352.968,-0.892362
15.4567,352.984,-0.89241
15.4583,353.001,-0.892451
15.46,353.018,-0.892485
15.4617,353.034,-0.892515
15.4633,353.051,-0.892544
15.465,353.068,-0.892574
15.4667,353.085,-0.892608
15.4683,353.101,-0.892654
15.47,353.118,-0.892695
15.4717,353.135,-0.892733
15.4733,353.151,-0.892775
15.475,353.168,-0.892814
15.4767,353.185,-0.892849
15.4783,353.201,-0.89288
15.48,353.218,-0.892902
15.4817,353.234,-0.892923
15.4833,353.251,-0.892943
15.485,353.268,-0.892967
15.4867,353.284,-0.893
15.4883,353.301,-0.89303
15.49,353.318,-0.893067
15.4917,353.334,-0.893106
15.4933,353.351,-0.893141
15.495,353.368,-0.893176
15.4967,353.384,-0.893214
15.4983,353.401,-0.893252
15.5,353.418,-0.893288
15.5017,353.435,-0.893331
15.5033,353.451,-0.893372
15.505,353.468,-0.893411
15.5067,353.484,-0.893449
15.5083,353.501,-0.89349
15.51,353.517,-0.893527
15.5117,353.534,-0.893558
15.5133,353.55,-0.893587
15.515,353.567,-0.893611
15.5167,353.584,-0.893632
15.5183,353.601,-0.893656
15.52,353.617,-0.893676
15.5217,353.634,-0.893698
15.5233,353.651,-0.893726
15.525,353.667,-0.893756
15.5267,353.684,-0.893787
15.5283,353.7,-0.893824
15.53,353.717,-0.893861
15.5317,353.734,-0.8939
15.5333,353.751,-0.893938
15.535,353.767,-0.893985
15.5367,353.784,-0.894032
15.5383,353.801,-0.894081
15.54,353.817,-0.894128
15.5417,353.834,-0.894178
15.5433,353.851,-0.894225
15.545,353.867,-0.89427
15.5467,353.884,-0.894313
15.5483,353.901,-0.894347
15.55,353.917,-0.89437
15.5517,353.934,-0.894396
15.5533,353.95,-0.894424
15.555,353.967,-0.894444
15.5567,353.984,-0.894462
15.5583,354,-0.894488
15.56,354.017,-0.894513
15.5617,354.034,-0.894533
15.5633,354.05,-0.894548
15.565,354.067,-0.894563
15.5667,354.083,-0.894577
15.5683,354.101,-0.894586
15.57,354.117,-0.894587
15.5717,354.134,-0.894597
15.5733,354.15,-0.894603
15.575,354.167,-0.894619
15.5767,354.183,-0.894645
15.5783,354.2,-0.894673
15.58,354.217,-0.894712
15.5817,354.233,-0.894757
15.5833,354.25,-0.894802
15.585,354.267,-0.89485
15.5867,354.283,-0.894887
15.5883,354.3,-0.894916
15.59,354.317,-0.894942
15.5917,354.333,-0.89497
15.5933,354.35,-0.895004
15.595,354.367,-0.895039
15.5967,354.383,-0.895073
15.5983,354.4,-0.89511
15.6,354.417,-0.895154
15.6017,354.434,-0.895199
15.6033,354.45,-0.895238
15.605,354.467,-0.895263
15.6067,354.484,-0.895284
15.6083,354.5,-0.895303
15.61,354.517,-0.895316
15.6117,354.533,-0.895328
15.6133,354.55,-0.895346
15.615,354.567,-0.895366
15.6167,354.583,-0.895392
15.6183,354.6,-0.895423
15.62,354.617,-0.895456
15.6217,354.634,-0.895487
15.6233,354.65,-0.895522
15.625,354.667,-0.895553
15.6267,354.683,-0.89559
15.6283,354.7,-0.89562
15.63,354.717,-0.895651
15.6317,354.733,-0.895682
15.6333,354.75,-0.895712
15.635,354.766,-0.895749
15.6367,354.783,-0.895788
15.6383,354.8,-0.895826
15.64,354.817,-0.89586
15.6417,354.833,-0.895893
15.6433,354.85,-0.895928
15.645,354.866,-0.895963
15.6467,354.883,-0.895991
15.6483,354.9,-0.896024
15.65,354.917,-0.896059
15.6517,354.933,-0.896085
15.6533,354.95,-0.896106
15.655,354.966,-0.896129
15.6567,354.983,-0.896156
15.6583,355,-0.896171
15.66,355.016,-0.896185
15.6617,355.033,-0.8962
15.6633,355.05,-0.896219
15.665,355.067,-0.896241
15.6667,355.083,-0.896266
15.6683,355.1,-0.896296
15.67,355.116,-0.896315
15.6717,355.133,-0.896334
15.6733,355.149,-0.896362
15.675,355.166,-0.896385
15.6767,355.183,-0.896413
15.6783,355.2,-0.896441
15.68,355.216,-0.896477
15.6817,355.233,-0.896518
15.6833,355.25,-0.896557
15.685,355.266,-0.896604
15.6867,355.283,-0.896652
15.6883,355.299,-0.896702
15.69,355.316,-0.896746
15.6917,355.332,-0.896786
15.6933,355.349,-0.89682
15.695,355.366,-0.896844
15.6967,355.383,-0.896866
15.6983,355.399,-0.896878
15.7,355.416,-0.896889
15.7017,355.433,-0.896901
15.7033,355.449,-0.896913
15.705,355.466,-0.896927
15.7067,355.483,-0.896948
15.7083,355.499,-0.89698
15.71,355.516,-0.897015
15.7117,355.532,-0.897048
15.7133,355.549,-0.897066
15.715,355.566,-0.897086
15.7167,355.583,-0.897107
15.7183,355.599,-0.897128
15.72,355.616,-0.897146
15.7217,355.632,-0.897177
15.7233,355.649,-0.897217
15.725,355.666,-0.897268
15.7267,355.682,-0.89733
15.7283,355.699,-0.897385
15.73,355.716,-0.897439
15.7317,355.733,-0.897475
15.7333,355.749,-0.89751
15.735,355.766,-0.897538
15.7367,355.782,-0.897553
15.7383,355.799,-0.897571
15.74,355.816,-0.897583
15.7417,355.832,-0.897595
15.7433,355.849,-0.89761
15.745,355.866,-0.897638
15.7467,355.882,-0.897669
15.7483,355.899,-0.897699
15.75,355.916,-0.897719
15.7517,355.933,-0.897738
15.7533,355.949,-0.897756
15.755,355.966,-0.897775
15.7567,355.982,-0.897792
15.7583,355.999,-0.897805
15.76,356.015,-0.897813
15.7617,356.032,-0.897826
15.7633,356.049,-0.897852
15.765,356.066,-0.897874
15.7667,356.082,-0.897898
15.7683,356.099,-0.897921
15.77,356.116,-0.897939
15.7717,356.133,-0.897964
15.7733,356.149,-0.897997
15.775,356.166,-0.898035
15.7767,356.183,-0.898074
15.7783,356.199,-0.898113
15.78,356.216,-0.898155
15.7817,356.233,-0.898202
15.7833,356.249,-0.898251
15.785,356.266,-0.898296
15.7867,356.282,-0.898341
15.7883,356.299,-0.898383
15.79,356.316,-0.898425
15.7917,356.332,-0.898458
15.7933,356.349,-0.898499
15.795,356.366,-0.898535
15.7967,356.382,-0.89856
15.7983,356.399,-0.898591
15.8,356.415,-0.898619
15.8017,356.432,-0.898652
15.8033,356.449,-0.898684
15.805,356.465,-0.898719
15.8067,356.482,-0.898746
15.8083,356.499,-0.898771
15.81,356.515,-0.898797
15.8117,356.532,-0.898815
15.8133,356.549,-0.898836
15.815,356.565,-0.898869
15.8167,356.582,-0.898897
15.8183,356.599,-0.898928
15.82,356.615,-0.898971
15.8217,356.632,-0.899017
15.8233,356.649,-0.899066
15.825,356.665,-0.899118
15.8267,356.682,-0.899163
15.8283,356.699,-0.899205
15.83,356.715,-0.899248
15.8317,356.732,-0.899285
15.8333,356.748,-0.899318
15.835,356.765,-0.899343
15.8367,356.782,-0.899369
15.8383,356.798,-0.899397
15.84,356.815,-0.89942
15.8417,356.832,-0.899442
15.8433,356.848,-0.899461
15.845,356.865,-0.899473
15.8467,356.882,-0.899494
15.8483,356.898,-0.899516
15.85,356.915,-0.899531
15.8517,356.932,-0.899546
15.8533,356.948,-0.89956
15.855,356.965,-0.899583
15.8567,356.982,-0.899599
15.8583,356.998,-0.899624
15.86,357.014,-0.89965
15.8617,357.031,-0.899674
15.8633,357.048,-0.899702
15.865,357.065,-0.899733
15.8667,357.081,-0.899769
15.8683,357.098,-0.89981
15.87,357.115,-0.899844
15.8717,357.131,-0.899872
15.8733,357.148,-0.899889
15.875,357.165,-0.89991
15.8767,357.181,-0.899935
15.8783,357.198,-0.899966
15.88,357.214,-0.899998
15.8817,357.231,-0.900027
15.8833,357.247,-0.900051
15.885,357.264,-0.900078
15.8867,357.281,-0.900106
15.8883,357.298,-0.900133
15.89,357.315,-0.900159
15.8917,357.331,-0.900186
15.8933,357.348,-0.900216
15.895,357.365,-0.900265
15.8967,357.381,-0.900311
15.8983,357.398,-0.900351
15.9,357.414,-0.90038
15.9017,357.431,-0.900408
15.9033,357.447,-0.900427
15.905,357.464,-0.900441
15.9067,357.481,-0.900447
15.9083,357.497,-0.900448
15.91,357.514,-0.90045
15.9117,357.531,-0.900466
15.9133,357.548,-0.900488
15.915,357.564,-0.900503
15.9167,357.581,-0.90052
15.9183,357.598,-0.900543
15.92,357.615,-0.900567
15.9217,357.631,-0.900597
15.9233,357.648,-0.900635
15.925,357.664,-0.900677
15.9267,357.681,-0.900719
15.9283,357.698,-0.900763
15.93,357.714,-0.900813
15.9317,357.731,-0.900855
15.9333,357.747,-0.900895
15.935,357.764,-0.90093
15.9367,357.781,-0.900968
15.9383,357.797,-0.901003
15.94,357.814,-0.901029
15.9417,357.83,-0.901042
15.9433,357.847,-0.901051
15.945,357.864,-0.901055
15.9467,357.88,-0.90105
15.9483,357.897,-0.901048
15.95,357.914,-0.901046
15.9517,357.93,-0.901053
15.9533,357.947,-0.901056
15.955,357.964,-0.901073
15.9567,357.981,-0.901099
15.9583,357.997,-0.901122
15.96,358.014,-0.901139
15.9617,358.03,-0.901165
15.9633,358.047,-0.901193
15.965,358.064,-0.901214
15.9667,358.08,-0.901243
15.9683,358.097,-0.901276
15.97,358.114,-0.901301
15.9717,358.13,-0.901321
15.9733,358.147,-0.901346
15.975,358.163,-0.901376
15.9767,358.18,-0.901403
15.9783,358.197,-0.901433
15.98,358.214,-0.901466
15.9817,358.23,-0.901496
15.9833,358.247,-0.901524
15.985,358.263,-0.901544
15.9867,358.28,-0.901553
15.9883,358.296,-0.901553
15.99,358.313,-0.901555
15.9917,358.33,-0.90156
15.9933,358.347,-0.901564
15.995,358.363,-0.901577
15.9967,358.38,-0.901598
15.9983,358.397,-0.901623
16,358.413,-0.901655
16.0017,358.43,-0.901698
16.0033,358.446,-0.901746
16.005,358.463,-0.901792
16.0067,358.479,-0.901838
16.0083,358.496,-0.901888
16.01,358.513,-0.901928
16.0117,358.529,-0.901958
16.0133,358.546,-0.901979
16.015,358.563,-0.901986
16.0167,358.58,-0.901992
16.0183,358.596,-0.901992
16.02,358.613,-0.902
16.0217,358.63,-0.90201
16.0233,358.646,-0.902014
16.025,358.662,-0.902017
16.0267,358.679,-0.902022
16.0283,358.696,-0.902036
16.03,358.712,-0.902047
16.0317,358.729,-0.902059
16.0333,358.746,-0.902068
16.035,358.763,-0.902076
16.0367,358.779,-0.902093
16.0383,358.796,-0.902117
16.04,358.813,-0.902139
16.0417,358.829,-0.902158
16.0433,358.846,-0.902178
16.045,358.863,-0.902201
16.0467,358.879,-0.902224
16.0483,358.896,-0.902243
16.05,358.913,-0.902255
16.0517,358.929,-0.902265
16.0533,358.946,-0.902268
16.055,358.963,-0.90228
16.0567,358.98,-0.902297
16.0583,358.996,-0.902316
16.06,359.013,-0.902338
16.0617,359.029,-0.902362
16.0633,359.046,-0.902382
16.065,359.063,-0.902398
16.0667,359.079,-0.902416
16.0683,359.096,-0.902435
16.07,359.113,-0.902455
16.0717,359.129,-0.902478
16.0733,359.146,-0.902495
16.075,359.163,-0.90251
16.0767,359.179,-0.902542
16.0783,359.196,-0.902578
16.08,359.212,-0.902616
16.0817,359.229,-0.902653
16.0833,359.246,-0.902703
16.085,359.263,-0.90275
16.0867,359.279,-0.902805
16.0883,359.296,-0.902867
16.09,359.312,-0.90292
16.0917,359.329,-0.902971
16.0933,359.346,-0.903015
16.095,359.362,-0.903046
16.0967,359.379,-0.90307
16.0983,359.395,-0.903081
16.1,359.412,-0.903078
16.1017,359.429,-0.903066
16.1033,359.445,-0.903039
16.105,359.462,-0.90303
16.1067,359.479,-0.903023
16.1083,359.496,-0.903028
16.11,359.512,-0.903036
16.1117,359.529,-0.903053
16.1133,359.545,-0.903081
16.115,359.562,-0.903118
16.1167,359.579,-0.90315
16.1183,359.596,-0.90318
16.12,359.612,-0.903201
16.1217,359.629,-0.903225
16.1233,359.645,-0.90324
16.125,359.662,-0.903256
16.1267,359.678,-0.903277
16.1283,359.695,-0.903308
16.13,359.712,-0.903335
16.1317,359.728,-0.90337
16.1333,359.745,-0.903409
16.135,359.762,-0.903445
16.1367,359.778,-0.903475
16.1383,359.795,-0.90351
16.14,359.811,-0.903537
16.1417,359.828,-0.903551
16.1433,359.845,-0.903575
16.145,359.862,-0.9036
16.1467,359.878,-0.903628
16.1483,359.895,-0.903652
16.15,359.912,-0.903683
16.1517,359.929,-0.903716
16.1533,359.945,-0.903751
16.155,359.962,-0.903788
16.1567,359.979,-0.903825
16.1583,359.995,-0.903859
16.16,360.012,-0.903884
16.1617,360.029,-0.903907
16.1633,360.045,-0.903926
16.165,360.062,-0.903942
16.1667,360.079,-0.903943
16.1683,360.095,-0.903941
16.17,360.111,-0.90393
16.1717,360.128,-0.903924
16.1733,360.145,-0.903932
16.175,360.161,-0.903949
16.1767,360.178,-0.903971
16.1783,360.195,-0.904007
16.18,360.211,-0.904047
16.1817,360.228,-0.904093
16.1833,360.245,-0.904143
16.185,360.261,-0.904187
16.1867,360.278,-0.904223
16.1883,360.294,-0.904256
16.19,360.311,-0.904276
16.1917,360.328,-0.90429
16.1933,360.345,-0.904306
16.195,360.361,-0.904326
16.1967,360.378,-0.904342
16.1983,360.394,-0.90436
16.2,360.411,-0.904379
16.2017,360.428,-0.904404
16.2033,360.444,-0.904435
16.205,360.461,-0.904466
16.2067,360.478,-0.9045
16.2083,360.494,-0.904537
16.21,360.511,-0.904573
16.2117,360.528,-0.904602
16.2133,360.545,-0.904631
16.215,360.561,-0.904654
16.2167,360.578,-0.904668
16.2183,360.594,-0.904678
16.22,360.611,-0.904672
16.2217,360.628,-0.904661
16.2233,360.644,-0.904657
16.225,360.661,-0.90466
16.2267,360.678,-0.904655
16.2283,360.694,-0.904654
16.23,360.711,-0.904658
16.2317,360.728,-0.904665
16.2333,360.744,-0.90468
16.235,360.761,-0.904698
16.2367,360.778,-0.904721
16.2383,360.794,-0.904752
16.24,360.811,-0.904786
16.2417,360.828,-0.904826
16.2433,360.844,-0.90487
16.245,360.861,-0.904919
16.2467,360.877,-0.904962
16.2483,360.894,-0.905002
16.25,360.911,-0.905041
16.2517,360.927,-0.905069
16.2533,360.944,-0.905095
16.255,360.96,-0.905119
16.2567,360.977,-0.905137
16.2583,360.994,-0.90515
16.26,361.011,-0.905157
16.2617,361.028,-0.90516
16.2633,361.044,-0.905158
16.265,361.061,-0.905156
16.2667,361.078,-0.905149
16.2683,361.094,-0.90514
16.27,361.111,-0.905137
16.2717,361.128,-0.905144
16.2733,361.144,-0.905166
16.275,361.161,-0.905193
16.2767,361.177,-0.90522
16.2783,361.194,-0.905251
16.28,361.21,-0.905284
16.2817,361.227,-0.905325
16.2833,361.244,-0.905359
16.285,361.26,-0.905383
16.2867,361.277,-0.905403
16.2883,361.294,-0.905423
16.29,361.31,-0.905439
16.2917,361.327,-0.905459
16.2933,361.344,-0.905481
16.295,361.361,-0.905496
16.2967,361.377,-0.905515
16.2983,361.394,-0.905543
16.3,361.41,-0.905574
16.3017,361.427,-0.905607
16.3033,361.444,-0.905642
16.305,361.46,-0.905673
16.3067,361.477,-0.905698
16.3083,361.493,-0.905717
16.31,361.51,-0.905729
16.3117,361.526,-0.905736
16.3133,361.543,-0.905742
16.315,361.56,-0.905736
16.3167,361.576,-0.905734
16.3183,361.593,-0.905735
16.32,361.609,-0.905733
16.3217,361.626,-0.905743
16.3233,361.643,-0.905771
16.325,361.66,-0.905799
16.3267,361.676,-0.905825
16.3283,361.693,-0.905856
16.33,361.71,-0.905887
16.3317,361.727,-0.90592
16.3333,361.743,-0.905967
16.335,361.76,-0.906016
16.3367,361.777,-0.906067
16.3383,361.793,-0.906116
16.34,361.81,-0.90616
16.3417,361.827,-0.906199
16.3433,361.843,-0.906227
16.345,361.859,-0.906252
16.3467,361.876,-0.906265
16.3483,361.893,-0.906274
16.35,361.91,-0.906282
16.3517,361.926,-0.906294
16.3533,361.943,-0.906307
16.355,361.96,-0.906326
16.3567,361.976,-0.906347
16.3583,361.993,-0.906373
16.36,362.01,-0.906391
16.3617,362.026,-0.906407
16.3633,362.043,-0.906419
16.365,362.06,-0.906431
16.3667,362.077,-0.906439
16.3683,362.093,-0.906445
16.37,362.11,-0.906464
16.3717,362.126,-0.906484
16.3733,362.143,-0.906505
16.375,362.159,-0.906532
16.3767,362.176,-0.906573
16.3783,362.192,-0.906613
16.38,362.209,-0.906654
16.3817,362.226,-0.906703
16.3833,362.243,-0.906749
16.385,362.259,-0.906795
16.3867,362.276,-0.906834
16.3883,362.292,-0.906863
16.39,362.309,-0.90688
16.3917,362.326,-0.906895
16.3933,362.343,-0.906902
16.395,362.359,-0.906906
16.3967,362.376,-0.906909
16.3983,362.392,-0.906914
16.4,362.409,-0.906919
16.4017,362.426,-0.906934
16.4033,362.443,-0.906953
16.405,362.459,-0.906974
16.4067,362.476,-0.906994
16.4083,362.493,-0.907015
16.41,362.509,-0.907032
16.4117,362.526,-0.907042
16.4133,362.542,-0.907052
16.415,362.559,-0.90706
16.4167,362.576,-0.907068
16.4183,362.592,-0.907072
16.42,362.609,-0.907089
16.4217,362.626,-0.907105
16.4233,362.643,-0.907124
16.425,362.659,-0.907143
16.4267,362.676,-0.907171
16.4283,362.693,-0.9072
16.43,362.709,-0.907226
16.4317,362.726,-0.907254
16.4333,362.742,-0.907278
16.435,362.759,-0.907303
16.4367,362.775,-0.907328
16.4383,362.792,-0.907355
16.44,362.809,-0.907379
16.4417,362.826,-0.90739
16.4433,362.842,-0.907397
16.445,362.859,-0.907409
16.4467,362.875,-0.90742
16.4483,362.892,-0.907428
16.45,362.909,-0.907436
16.4517,362.925,-0.907436
16.4533,362.942,-0.907428
16.455,362.958,-0.907435
16.4567,362.976,-0.90744
16.4583,362.992,-0.90746
16.46,363.008,-0.907481
16.4617,363.025,-0.907499
16.4633,363.042,-0.907521
16.465,363.058,-0.907545
16.4667,363.075,-0.907578
16.4683,363.092,-0.907605
16.47,363.109,-0.907624
16.4717,363.126,-0.907642
16.4733,363.142,-0.907671
16.475,363.159,-0.907685
16.4767,363.176,-0.907693
16.4783,363.192,-0.907699
16.48,363.209,-0.907705
16.4817,363.225,-0.907703
16.4833,363.242,-0.907709
16.485,363.258,-0.907721
16.4867,363.275,-0.907733
16.4883,363.292,-0.907745
16.49,363.309,-0.907755
16.4917,363.325,-0.907775
16.4933,363.342,-0.907788
16.495,363.359,-0.907795
16.4967,363.376,-0.907803
16.4983,363.392,-0.907819
16.5,363.409,-0.907828
16.5017,363.426,-0.907843
16.5033,363.442,-0.907863
16.505,363.459,-0.907897
16.5067,363.476,-0.907933
16.5083,363.492,-0.907971
16.51,363.509,-0.908008
16.5117,363.526,-0.908047
16.5133,363.542,-0.908081
16.515,363.559,-0.908109
16.5167,363.576,-0.908136
16.5183,363.592,-0.908158
16.52,363.609,-0.908173
16.5217,363.626,-0.90819
16.5233,363.642,-0.90821
16.525,363.659,-0.908224
16.5267,363.675,-0.908244
16.5283,363.692,-0.908262
16.53,363.708,-0.90829
16.5317,363.725,-0.908328
16.5333,363.742,-0.908364
16.535,363.759,-0.908395
16.5367,363.775,-0.908425
16.5383,363.792,-0.908453
16.54,363.809,-0.908482
16.5417,363.826,-0.90851
16.5433,363.842,-0.908545
16.545,363.859,-0.908569
16.5467,363.876,-0.908596
16.5483,363.892,-0.908613
16.55,363.909,-0.908619
16.5517,363.925,-0.908625
16.5533,363.942,-0.908628
16.555,363.959,-0.908625
16.5567,363.975,-0.908614
16.5583,363.992,-0.908612
16.56,364.009,-0.908615
16.5617,364.025,-0.908627
16.5633,364.042,-0.908639
16.565,364.059,-0.908654
16.5667,364.075,-0.90867
16.5683,364.092,-0.908696
16.57,364.108,-0.908734
16.5717,364.125,-0.908767
16.5733,364.142,-0.908791
16.575,364.159,-0.908812
16.5767,364.175,-0.908844
16.5783,364.192,-0.908875
16.58,364.209,-0.908913
16.5817,364.225,-0.908942
16.5833,364.242,-0.908969
16.585,364.259,-0.908998
16.5867,364.275,-0.909024
16.5883,364.292,-0.909049
16.59,364.308,-0.909071
16.5917,364.325,-0.909088
16.5933,364.342,-0.909098
16.595,364.358,-0.909103
16.5967,364.375,-0.909109
16.5983,364.392,-0.909112
16.6,364.408,-0.909113
16.6017,364.425,-0.909122
16.6033,364.441,-0.909133
16.605,364.458,-0.909141
16.6067,364.475,-0.909146
16.6083,364.492,-0.909153
16.61,364.508,-0.909164
16.6117,364.525,-0.909178
16.6133,364.542,-0.909189
16.615,364.558,-0.909199
16.6167,364.575,-0.909203
16.6183,364.591,-0.909219
16.62,364.608,-0.909246
16.6217,364.625,-0.909277
16.6233,364.641,-0.909308
16.625,364.658,-0.909337
16.6267,364.675,-0.909368
16.6283,364.692,-0.909396
16.63,364.709,-0.909422
16.6317,364.725,-0.909435
16.6333,364.742,-0.90944
16.635,364.759,-0.909438
16.6367,364.775,-0.909426
16.6383,364.792,-0.909413
16.64,364.808,-0.909412
16.6417,364.825,-0.909414
16.6433,364.842,-0.909414
16.645,364.858,-0.909422
16.6467,364.875,-0.909449
16.6483,364.892,-0.909482
16.65,364.908,-0.909522
16.6517,364.924,-0.909564
16.6533,364.941,-0.909606
16.655,364.958,-0.909644
16.6567,364.975,-0.909676
16.6583,364.991,-0.909714
16.66,365.008,-0.909737
16.6617,365.025,-0.909753
16.6633,365.041,-0.909765
16.665,365.058,-0.909777
16.6667,365.075,-0.90978
16.6683,365.091,-0.909771
16.67,365.108,-0.909754
16.6717,365.124,-0.909736
16.6733,365.141,-0.909718
16.675,365.158,-0.909708
16.6767,365.175,-0.909706
16.6783,365.191,-0.909703
16.68,365.207,-0.909698
16.6817,365.224,-0.909711
16.6833,365.241,-0.909734
16.685,365.258,-0.909751
16.6867,365.274,-0.909765
16.6883,365.291,-0.909776
16.69,365.308,-0.909784
16.6917,365.324,-0.90978
16.6933,365.341,-0.909778
16.695,365.358,-0.909773
16.6967,365.374,-0.909767
16.6983,365.391,-0.909758
16.7,365.408,-0.909744
16.7017,365.424,-0.909739
16.7033,365.441,-0.909752
16.705,365.457,-0.90977
16.7067,365.474,-0.909793
16.7083,365.491,-0.909824
16.71,365.507,-0.909864
16.7117,365.524,-0.909895
16.7133,365.54,-0.909926
16.715,365.557,-0.909963
16.7167,365.574,-0.909992
16.7183,365.591,-0.910006
16.72,365.607,-0.910012
16.7217,365.624,-0.910016
16.7233,365.641,-0.910022
16.725,365.657,-0.910025
16.7267,365.673,-0.910033
16.7283,365.69,-0.910045
16.73,365.707,-0.910067
16.7317,365.723,-0.910094
16.7333,365.74,-0.910116
16.735,365.757,-0.910135
16.7367,365.773,-0.910144
16.7383,365.79,-0.910149
16.74,365.807,-0.910148
16.7417,365.823,-0.910146
16.7433,365.84,-0.910142
16.745,365.856,-0.910134
16.7467,365.873,-0.910136
16.7483,365.89,-0.910152
16.75,365.907,-0.91017
16.7517,365.923,-0.910182
16.7533,365.94,-0.91019
16.755,365.957,-0.9102
16.7567,365.973,-0.910208
16.7583,365.99,-0.910214
16.76,366.007,-0.910224
16.7617,366.023,-0.910243
16.7633,366.04,-0.910274
16.765,366.057,-0.910312
16.7667,366.074,-0.910347
16.7683,366.09,-0.910384
16.77,366.107,-0.910412
16.7717,366.123,-0.910439
16.7733,366.14,-0.91046
16.775,366.156,-0.910474
16.7767,366.172,-0.910484
16.7783,366.189,-0.910506
16.78,366.205,-0.910531
16.7817,366.222,-0.910555
16.7833,366.238,-0.910566
16.785,366.255,-0.910575
16.7867,366.272,-0.910589
16.7883,366.288,-0.910597
16.79,366.305,-0.910604
16.7917,366.322,-0.910606
16.7933,366.338,-0.910607
16.795,366.355,-0.910602
16.7967,366.372,-0.910599
16.7983,366.388,-0.910599
16.8,366.405,-0.910603
16.8017,366.422,-0.910597
16.8033,366.438,-0.910605
16.805,366.455,-0.910625
16.8067,366.472,-0.910646
16.8083,366.488,-0.910667
16.81,366.505,-0.910686
16.8117,366.522,-0.910709
16.8133,366.538,-0.910737
16.815,366.555,-0.910756
16.8167,366.572,-0.910778
16.8183,366.588,-0.9108
16.82,366.605,-0.910819
16.8217,366.622,-0.910842
16.8233,366.638,-0.910869
16.825,366.655,-0.910898
16.8267,366.672,-0.910922
16.8283,366.688,-0.910935
16.83,366.705,-0.910936
16.8317,366.722,-0.910934
16.8333,366.738,-0.910922
16.835,366.755,-0.910893
16.8367,366.772,-0.910863
16.8383,366.788,-0.910819
16.84,366.805,-0.910795
16.8417,366.822,-0.910783
16.8433,366.838,-0.910778
16.845,366.855,-0.910782
16.8467,366.872,-0.910794
16.8483,366.888,-0.910804
16.85,366.905,-0.910818
16.8517,366.922,-0.910828
16.8533,366.938,-0.910841
16.855,366.955,-0.910854
16.8567,366.972,-0.910868
16.8583,366.988,-0.910882
16.86,367.005,-0.910899
16.8617,367.022,-0.910914
16.8633,367.039,-0.910934
16.865,367.055,-0.910962
16.8667,367.072,-0.910991
16.8683,367.088,-0.911023
16.87,367.105,-0.911063
16.8717,367.122,-0.911093
16.8733,367.139,-0.911117
16.875,367.155,-0.911143
16.8767,367.172,-0.911164
16.8783,367.189,-0.911181
16.88,367.205,-0.911193
16.8817,367.222,-0.911206
16.8833,367.238,-0.911216
16.885,367.255,-0.911233
16.8867,367.271,-0.911242
16.8883,367.288,-0.911253
16.89,367.305,-0.911263
16.8917,367.321,-0.911266
16.8933,367.338,-0.911264
16.895,367.355,-0.91126
16.8967,367.371,-0.911255
16.8983,367.388,-0.911246
16.9,367.405,-0.911233
16.9017,367.421,-0.911229
16.9033,367.438,-0.91123
16.905,367.454,-0.911239
16.9067,367.471,-0.911252
16.9083,367.488,-0.911281
16.91,367.505,-0.911318
16.9117,367.521,-0.911359
16.9133,367.538,-0.9114
16.915,367.555,-0.911441
16.9167,367.571,-0.911481
16.9183,367.588,-0.911506
16.92,367.605,-0.911518
16.9217,367.621,-0.911537
16.9233,367.638,-0.911556
16.925,367.654,-0.911567
16.9267,367.671,-0.911578
16.9283,367.688,-0.911592
16.93,367.704,-0.911603
16.9317,367.721,-0.91161
16.9333,367.738,-0.911617
16.935,367.754,-0.911628
16.9367,367.771,-0.911641
16.9383,367.787,-0.911655
16.94,367.804,-0.911679
16.9417,367.821,-0.911708
16.9433,367.838,-0.911731
16.945,367.854,-0.911752
16.9467,367.871,-0.911773
16.9483,367.887,-0.911784
16.95,367.904,-0.911793
16.9517,367.921,-0.911791
16.9533,367.937,-0.911798
16.955,367.954,-0.911804
16.9567,367.971,-0.911812
16.9583,367.987,-0.91182
16.96,368.004,-0.911843
16.9617,368.02,-0.91187
16.9633,368.037,-0.911906
16.965,368.054,-0.911946
16.9667,368.07,-0.911983
16.9683,368.087,-0.912025
16.97,368.104,-0.912064
16.9717,368.12,-0.912102
16.9733,368.137,-0.912132
16.975,368.153,-0.912149
16.9767,368.17,-0.912157
16.9783,368.187,-0.912168
16.98,368.203,-0.912171
16.9817,368.22,-0.912175
16.9833,368.237,-0.912181
16.985,368.253,-0.912188
16.9867,368.27,-0.912205
16.9883,368.286,-0.912222
16.99,368.304,-0.912246
16.9917,368.32,-0.912281
16.9933,368.337,-0.912308
16.995,368.353,-0.912332
16.9967,368.37,-0.912356
16.9983,368.387,-0.912372
17,368.403,-0.912371
17.0017,368.42,-0.91237
17.0033,368.437,-0.912364
17.005,368.453,-0.912361
17.0067,368.47,-0.912359
17.0083,368.487,-0.912354
17.01,368.503,-0.912343
17.0117,368.52,-0.912339
17.0133,368.537,-0.912347
17.015,368.553,-0.912357
17.0167,368.57,-0.91237
17.0183,368.587,-0.912386
17.02,368.603,-0.912395
17.0217,368.62,-0.912405
17.0233,368.636,-0.912414
17.025,368.653,-0.912411
17.0267,368.67,-0.912413
17.0283,368.687,-0.912415
17.03,368.703,-0.912414
17.0317,368.72,-0.912421
17.0333,368.736,-0.912435
17.035,368.753,-0.912445
17.0367,368.77,-0.912458
17.0383,368.786,-0.912477
17.04,368.803,-0.912491
17.0417,368.82,-0.912498
17.0433,368.837,-0.912496
17.045,368.853,-0.912502
17.0467,368.87,-0.912512
17.0483,368.886,-0.912525
17.05,368.903,-0.912545
17.0517,368.92,-0.912561
17.0533,368.936,-0.912579
17.055,368.953,-0.912597
17.0567,368.969,-0.912618
17.0583,368.986,-0.912643
17.06,369.003,-0.912667
17.0617,369.02,-0.912684
17.0633,369.036,-0.912701
17.065,369.053,-0.912715
17.0667,369.069,-0.912716
17.0683,369.086,-0.912715
17.07,369.103,-0.912714
17.0717,369.119,-0.912714
17.0733,369.136,-0.912725
17.075,369.153,-0.91274
17.0767,369.169,-0.912752
17.0783,369.186,-0.912774
17.08,369.203,-0.912796
17.0817,369.219,-0.912817
17.0833,369.236,-0.912838
17.085,369.253,-0.912859
17.0867,369.269,-0.912879
17.0883,369.286,-0.912891
17.09,369.303,-0.912905
17.0917,369.32,-0.912926
17.0933,369.336,-0.912952
17.095,369.353,-0.912974
17.0967,369.37,-0.912987
17.0983,369.386,-0.912998
17.1,369.403,-0.913012
17.1017,369.42,-0.913025
17.1033,369.436,-0.913034
17.105,369.453,-0.913039
17.1067,369.469,-0.913048
17.1083,369.486,-0.913051
17.11,369.503,-0.913051
17.1117,369.519,-0.91305
17.1133,369.536,-0.913049
17.115,369.553,-0.913034
17.1167,369.569,-0.913021
17.1183,369.586,-0.91301
17.12,369.603,-0.912995
17.1217,369.619,-0.91299
17.1233,369.636,-0.912997
17.125,369.653,-0.913012
17.1267,369.669,-0.913029
17.1283,369.685,-0.91306
17.13,369.702,-0.913101
17.1317,369.719,-0.913137
17.1333,369.736,-0.913175
17.135,369.753,-0.913203
17.1367,369.769,-0.913223
17.1383,369.786,-0.913238
17.14,369.802,-0.913245
17.1417,369.819,-0.913251
17.1433,369.835,-0.913249
17.145,369.852,-0.913249
17.1467,369.868,-0.913252
17.1483,369.885,-0.913262
17.15,369.902,-0.913279
17.1517,369.919,-0.913285
17.1533,369.935,-0.913287
17.155,369.952,-0.913284
17.1567,369.968,-0.913279
17.1583,369.985,-0.913277
17.16,370.002,-0.913273
17.1617,370.019,-0.913273
17.1633,370.036,-0.913284
17.165,370.052,-0.913302
17.1667,370.069,-0.91333
17.1683,370.085,-0.913359
17.17,370.102,-0.91339
17.1717,370.119,-0.913428
17.1733,370.135,-0.913456
17.175,370.152,-0.913477
17.1767,370.168,-0.913492
17.1783,370.185,-0.913497
17.18,370.202,-0.913501
17.1817,370.218,-0.913498
17.1833,370.235,-0.913491
17.185,370.251,-0.913476
17.1867,370.268,-0.913454
17.1883,370.285,-0.913433
17.19,370.302,-0.913409
17.1917,370.319,-0.913392
17.1933,370.335,-0.913387
17.195,370.352,-0.913392
17.1967,370.368,-0.9134
17.1983,370.385,-0.913403
17.2,370.402,-0.913421
17.2017,370.418,-0.913452
17.2033,370.435,-0.91349
17.205,370.451,-0.913528
17.2067,370.468,-0.913568
17.2083,370.485,-0.913607
17.21,370.501,-0.913652
17.2117,370.518,-0.913693
17.2133,370.535,-0.913726
17.215,370.551,-0.913742
17.2167,370.568,-0.913753
17.2183,370.585,-0.913762
17.22,370.601,-0.913766
17.2217,370.618,-0.91377
17.2233,370.635,-0.913769
17.225,370.651,-0.913766
17.2267,370.668,-0.913766
17.2283,370.685,-0.913768
17.23,370.702,-0.913771
17.2317,370.718,-0.913771
17.2333,370.735,-0.913768
17.235,370.752,-0.913776
17.2367,370.768,-0.913785
17.2383,370.785,-0.913792
17.24,370.802,-0.913791
17.2417,370.818,-0.913793
17.2433,370.835,-0.913805
17.245,370.851,-0.913825
17.2467,370.868,-0.913843
17.2483,370.885,-0.913865
17.25,370.901,-0.913884
17.2517,370.918,-0.913895
17.2533,370.935,-0.913908
17.255,370.952,-0.913919
17.2567,370.968,-0.913934
17.2583,370.985,-0.913948
17.26,371.002,-0.913953
17.2617,371.018,-0.913962
17.2633,371.035,-0.913971
17.265,371.051,-0.913994
17.2667,371.068,-0.91402
17.2683,371.085,-0.914049
17.27,371.102,-0.914073
17.2717,371.118,-0.914096
17.2733,371.135,-0.914113
17.275,371.151,-0.914125
17.2767,371.168,-0.914136
17.2783,371.185,-0.91415
17.28,371.202,-0.914153
17.2817,371.218,-0.914158
17.2833,371.235,-0.914159
17.285,371.252,-0.91416
17.2867,371.268,-0.914159
17.2883,371.285,-0.914165
17.29,371.301,-0.914177
17.2917,371.318,-0.914181
17.2933,371.335,-0.914191
17.295,371.351,-0.914196
17.2967,371.368,-0.914196
17.2983,371.385,-0.914201
17.3,371.401,-0.914218
17.3017,371.418,-0.914234
17.3033,371.435,-0.914247
17.305,371.452,-0.914258
17.3067,371.468,-0.914267
17.3083,371.485,-0.914272
17.31,371.501,-0.914279
17.3117,371.518,-0.91429
17.3133,371.535,-0.914294
17.315,371.551,-0.914302
17.3167,371.568,-0.914321
17.3183,371.584,-0.914339
17.32,371.601,-0.914363
17.3217,371.618,-0.914382
17.3233,371.634,-0.914411
17.325,371.651,-0.914445
17.3267,371.667,-0.914483
17.3283,371.684,-0.914524
17.33,371.701,-0.914563
17.3317,371.718,-0.914604
17.3333,371.734,-0.914637
17.335,371.751,-0.914669
17.3367,371.767,-0.914685
17.3383,371.784,-0.914693
17.34,371.801,-0.914688
17.3417,371.818,-0.914679
17.3433,371.835,-0.914667
17.345,371.851,-0.914651
17.3467,371.868,-0.914633
17.3483,371.885,-0.914615
17.35,371.902,-0.914607
17.3517,371.918,-0.914615
17.3533,371.935,-0.914634
17.355,371.951,-0.914659
17.3567,371.968,-0.914688
17.3583,371.984,-0.914727
17.36,372.001,-0.914754
17.3617,372.017,-0.914777
17.3633,372.034,-0.914794
17.365,372.051,-0.914801
17.3667,372.067,-0.914794
17.3683,372.084,-0.914788
17.37,372.101,-0.914781
17.3717,372.117,-0.91477
17.3733,372.134,-0.914761
17.375,372.151,-0.914754
17.3767,372.167,-0.914754
17.3783,372.184,-0.914762
17.38,372.201,-0.91478
17.3817,372.217,-0.914796
17.3833,372.234,-0.914816
17.385,372.251,-0.91484
17.3867,372.267,-0.914863
17.3883,372.284,-0.914879
17.39,372.301,-0.914888
17.3917,372.317,-0.914888
17.3933,372.334,-0.914883
17.395,372.351,-0.914873
17.3967,372.367,-0.914857
17.3983,372.383,-0.914844
17.4,372.4,-0.914845
17.4017,372.417,-0.914849
17.4033,372.434,-0.91486
17.405,372.45,-0.914873
17.4067,372.467,-0.91489
17.4083,372.483,-0.914911
17.41,372.5,-0.914941
17.4117,372.517,-0.914965
17.4133,372.533,-0.914992
17.415,372.55,-0.915009
17.4167,372.566,-0.915018
17.4183,372.583,-0.915036
17.42,372.6,-0.915053
17.4217,372.617,-0.915069
17.4233,372.634,-0.915079
17.425,372.65,-0.915081
17.4267,372.667,-0.915074
17.4283,372.684,-0.915067
17.43,372.7,-0.915072
17.4317,372.717,-0.915076
17.4333,372.733,-0.915085
17.435,372.75,-0.915094
17.4367,372.767,-0.915095
17.4383,372.784,-0.915094
17.44,372.8,-0.915099
17.4417,372.817,-0.915111
17.4433,372.833,-0.915121
17.445,372.85,-0.915128
17.4467,372.867,-0.915134
17.4483,372.883,-0.915144
17.45,372.9,-0.915163
17.4517,372.916,-0.915185
17.4533,372.933,-0.915212
17.455,372.95,-0.915237
17.4567,372.967,-0.915265
17.4583,372.983,-0.915288
17.46,373,-0.915317
17.4617,373.017,-0.915345
17.4633,373.033,-0.915371
17.465,373.05,-0.915399
17.4667,373.067,-0.91543
17.4683,373.084,-0.915459
17.47,373.1,-0.915485
17.4717,373.117,-0.915504
17.4733,373.133,-0.915512
17.475,373.15,-0.91552
17.4767,373.167,-0.915531
17.4783,373.183,-0.915541
17.48,373.2,-0.915551
17.4817,373.217,-0.91556
17.4833,373.233,-0.915567
17.485,373.25,-0.915581
17.4867,373.266,-0.915591
17.4883,373.283,-0.915605
17.49,373.299,-0.915618
17.4917,373.316,-0.915632
17.4933,373.333,-0.915647
17.495,373.349,-0.915668
17.4967,373.366,-0.915687
17.4983,373.383,-0.915716
17.5,373.4,-0.915745
17.5017,373.416,-0.915769
17.5033,373.433,-0.915796
17.505,373.449,-0.91582
