Ramp 10.00 °C/min to 375.00 °C,,
Time,Temperature,Heat Flow (Normalized)
min,°C,W/g
40.3767,249.914,-0.080493
40.3783,249.914,-0.080494
40.38,249.914,-0.0804938
40.3817,249.915,-0.0804922
40.3833,249.915,-0.0804887
40.385,249.915,-0.0804883
40.3867,249.916,-0.0804866
40.3883,249.916,-0.0804832
40.39,249.915,-0.0804769
40.3917,249.915,-0.080468
40.3933,249.916,-0.0804558
40.395,249.916,-0.0804515
40.3967,249.916,-0.0804502
40.3983,249.916,-0.0804529
40.4,249.917,-0.0804703
40.4017,249.917,-0.0804837
40.4033,249.918,-0.0805025
40.405,249.918,-0.0805231
40.4067,249.919,-0.0805454
40.4083,249.92,-0.0805455
40.41,249.921,-0.0805337
40.4117,249.922,-0.080506
40.4133,249.924,-0.0804443
40.415,249.925,-0.0802333
40.4167,249.926,-0.079862
40.4183,249.928,-0.0790683
40.42,249.929,-0.0773767
40.4217,249.931,-0.0744104
40.4233,249.932,-0.0695036
40.425,249.935,-0.0622868
40.4267,249.937,-0.0515782
40.4283,249.939,-0.0382915
40.43,249.941,-0.0250686
40.4317,249.944,-0.0119844
40.4333,249.947,-0.00176883
40.435,249.95,0.00857143
40.4367,249.953,0.0202066
40.4383,249.956,0.0323741
40.44,249.96,0.0450848
40.4417,249.964,0.0573877
40.4433,249.968,0.0700695
40.445,249.972,0.0828195
40.4467,249.976,0.0950518
40.4483,249.981,0.106065
40.45,249.985,0.117782
40.4517,249.991,0.129073
40.4533,249.996,0.1411
40.455,250.001,0.15141
40.4567,250.007,0.163853
40.4583,250.013,0.176219
40.46,250.019,0.186648
40.4617,250.025,0.198467
40.4633,250.031,0.207827
40.465,250.038,0.216948
40.4667,250.045,0.224353
40.4683,250.052,0.232099
40.47,250.059,0.23984
40.4717,250.066,0.246205
40.4733,250.074,0.251789
40.475,250.082,0.256351
40.4767,250.09,0.261271
40.4783,250.098,0.264891
40.48,250.106,0.268622
40.4817,250.114,0.271519
40.4833,250.123,0.272909
40.485,250.132,0.274245
40.4867,250.141,0.273724
40.4883,250.15,0.272285
40.49,250.159,0.27151
40.4917,250.169,0.269547
40.4933,250.178,0.265999
40.495,250.188,0.261413
40.4967,250.198,0.257175
40.4983,250.208,0.252978
40.5,250.218,0.248027
40.5017,250.229,0.242756
40.5033,250.239,0.237227
40.505,250.249,0.231744
40.5067,250.26,0.226559
40.5083,250.271,0.220571
40.51,250.282,0.212416
40.5117,250.293,0.207289
40.5133,250.304,0.201927
40.515,250.315,0.193829
40.5167,250.327,0.184197
40.5183,250.338,0.174451
40.52,250.35,0.163849
40.5217,250.362,0.154317
40.5233,250.373,0.145122
40.525,250.385,0.136378
40.5267,250.397,0.127853
40.5283,250.409,0.118772
40.53,250.421,0.108143
40.5317,250.433,0.0994034
40.5333,250.446,0.0913857
40.535,250.458,0.0820384
40.5367,250.471,0.0735805
40.5383,250.483,0.0646616
40.54,250.495,0.0566518
40.5417,250.508,0.0469604
40.5433,250.521,0.0386071
40.545,250.534,0.0308555
40.5467,250.546,0.0231019
40.5483,250.559,0.0154017
40.55,250.572,0.00732176
40.5517,250.586,-9.74689E-05
40.5533,250.599,-0.00805437
40.555,250.612,-0.0155302
40.5567,250.625,-0.023303
40.5583,250.638,-0.0303038
40.56,250.652,-0.0362283
40.5617,250.665,-0.0435337
40.5633,250.679,-0.0504102
40.565,250.692,-0.0562459
40.5667,250.706,-0.0617585
40.5683,250.719,-0.0690252
40.57,250.733,-0.075657
40.5717,250.747,-0.0822162
40.5733,250.761,-0.0895328
40.575,250.775,-0.0953032
40.5767,250.789,-0.101875
40.5783,250.803,-0.107746
40.58,250.817,-0.113082
40.5817,250.831,-0.120144
40.5833,250.845,-0.124807
40.585,250.859,-0.129101
40.5867,250.873,-0.134761
40.5883,250.888,-0.141212
40.59,250.902,-0.14667
40.5917,250.916,-0.152034
40.5933,250.931,-0.157629
40.595,250.945,-0.161029
40.5967,250.96,-0.16508
40.5983,250.974,-0.171022
40.6,250.989,-0.175256
40.6017,251.004,-0.179266
40.6033,251.018,-0.182689
40.605,251.033,-0.186901
40.6067,251.048,-0.190925
40.6083,251.062,-0.195897
40.61,251.077,-0.20088
40.6117,251.092,-0.204837
40.6133,251.107,-0.209618
40.615,251.122,-0.213915
40.6167,251.136,-0.217552
40.6183,251.151,-0.221842
40.62,251.166,-0.22634
40.6217,251.182,-0.229655
40.6233,251.197,-0.232999
40.625,251.212,-0.236096
40.6267,251.226,-0.239595
40.6283,251.242,-0.243577
40.63,251.257,-0.248274
40.6317,251.272,-0.25238
40.6333,251.287,-0.254796
40.635,251.302,-0.258872
40.6367,251.317,-0.261927
40.6383,251.333,-0.264823
40.64,251.348,-0.268407
40.6417,251.364,-0.272699
40.6433,251.379,-0.276026
40.645,251.394,-0.279609
40.6467,251.41,-0.284046
40.6483,251.425,-0.287712
40.65,251.44,-0.290827
40.6517,251.456,-0.293889
40.6533,251.471,-0.297372
40.655,251.486,-0.299596
40.6567,251.502,-0.301704
40.6583,251.518,-0.303802
40.66,251.533,-0.306178
40.6617,251.549,-0.307893
40.6633,251.564,-0.310072
40.665,251.58,-0.31391
40.6667,251.595,-0.317033
40.6683,251.611,-0.319086
40.67,251.626,-0.322252
40.6717,251.642,-0.324236
40.6733,251.657,-0.325436
40.675,251.673,-0.326738
40.6767,251.689,-0.327567
40.6783,251.704,-0.328915
40.68,251.72,-0.331252
40.6817,251.736,-0.332554
40.6833,251.752,-0.334447
40.685,251.768,-0.336355
40.6867,251.784,-0.338545
40.6883,251.8,-0.340401
40.69,251.815,-0.342306
40.6917,251.831,-0.344507
40.6933,251.847,-0.347053
40.695,251.863,-0.348813
40.6967,251.879,-0.350124
40.6983,251.894,-0.352116
40.7,251.911,-0.354697
40.7017,251.926,-0.357043
40.7033,251.942,-0.358754
40.705,251.958,-0.360951
40.7067,251.974,-0.361959
40.7083,251.99,-0.363428
40.71,252.006,-0.363968
40.7117,252.022,-0.36519
40.7133,252.038,-0.36566
40.715,252.054,-0.365638
40.7167,252.07,-0.366001
40.7183,252.085,-0.367484
40.72,252.101,-0.368329
40.7217,252.117,-0.369199
40.7233,252.133,-0.371617
40.725,252.149,-0.373998
40.7267,252.165,-0.376355
40.7283,252.181,-0.378156
40.73,252.198,-0.38029
40.7317,252.214,-0.381605
40.7333,252.229,-0.382915
40.735,252.245,-0.383787
40.7367,252.261,-0.384732
40.7383,252.277,-0.385481
40.74,252.293,-0.386326
40.7417,252.31,-0.386974
40.7433,252.325,-0.387502
40.745,252.341,-0.388248
40.7467,252.358,-0.38936
40.7483,252.374,-0.390448
40.75,252.39,-0.391648
40.7517,252.406,-0.39281
40.7533,252.422,-0.393675
40.755,252.438,-0.394382
40.7567,252.454,-0.395255
40.7583,252.47,-0.396141
40.76,252.487,-0.397157
40.7617,252.503,-0.398012
40.7633,252.519,-0.399054
40.765,252.535,-0.399833
40.7667,252.551,-0.400711
40.7683,252.568,-0.401212
40.77,252.584,-0.401455
40.7717,252.6,-0.401668
40.7733,252.616,-0.401746
40.775,252.632,-0.40205
40.7767,252.648,-0.402422
40.7783,252.665,-0.402747
40.78,252.681,-0.40309
40.7817,252.697,-0.403487
40.7833,252.713,-0.403943
40.785,252.73,-0.404509
40.7867,252.746,-0.404956
40.7883,252.762,-0.405345
40.79,252.778,-0.405685
40.7917,252.795,-0.405965
40.7933,252.811,-0.406291
40.795,252.827,-0.406783
40.7967,252.843,-0.407391
40.7983,252.859,-0.408083
40.8,252.875,-0.408588
40.8017,252.892,-0.409192
40.8033,252.908,-0.409857
40.805,252.924,-0.41049
40.8067,252.941,-0.41093
40.8083,252.957,-0.411361
40.81,252.973,-0.411732
40.8117,252.99,-0.412106
40.8133,253.006,-0.412506
40.815,253.022,-0.41299
40.8167,253.038,-0.413354
40.8183,253.055,-0.413942
40.82,253.071,-0.414632
40.8217,253.087,-0.415287
40.8233,253.103,-0.415837
40.825,253.12,-0.416456
40.8267,253.136,-0.417041
40.8283,253.153,-0.417683
40.83,253.169,-0.418344
40.8317,253.185,-0.41879
40.8333,253.202,-0.419238
40.835,253.218,-0.419603
40.8367,253.234,-0.419998
40.8383,253.25,-0.42025
40.84,253.267,-0.420525
40.8417,253.283,-0.420839
40.8433,253.299,-0.421036
40.845,253.316,-0.421192
40.8467,253.332,-0.421345
40.8483,253.348,-0.421526
40.85,253.365,-0.421665
40.8517,253.381,-0.421826
40.8533,253.398,-0.421958
40.855,253.414,-0.422081
40.8567,253.43,-0.422199
40.8583,253.446,-0.422277
40.86,253.463,-0.422433
40.8617,253.48,-0.422699
40.8633,253.496,-0.423034
40.865,253.512,-0.423478
40.8667,253.529,-0.424049
40.8683,253.545,-0.424796
40.87,253.561,-0.425596
40.8717,253.577,-0.426321
40.8733,253.594,-0.427127
40.875,253.61,-0.427633
40.8767,253.627,-0.427942
40.8783,253.643,-0.428226
40.88,253.66,-0.428426
40.8817,253.676,-0.428587
40.8833,253.693,-0.428724
40.885,253.709,-0.428799
40.8867,253.725,-0.428894
40.8883,253.742,-0.428971
40.89,253.758,-0.429068
40.8917,253.774,-0.42923
40.8933,253.79,-0.429388
40.895,253.806,-0.429512
40.8967,253.823,-0.429619
40.8983,253.839,-0.429703
40.9,253.855,-0.429805
40.9017,253.872,-0.429971
40.9033,253.889,-0.430112
40.905,253.905,-0.430229
40.9067,253.922,-0.43039
40.9083,253.938,-0.430635
40.91,253.954,-0.430921
40.9117,253.97,-0.431259
40.9133,253.987,-0.43153
40.915,254.003,-0.431785
40.9167,254.02,-0.431958
40.9183,254.036,-0.432112
40.92,254.053,-0.43226
40.9217,254.069,-0.432345
40.9233,254.085,-0.432446
40.925,254.102,-0.432542
40.9267,254.118,-0.432607
40.9283,254.134,-0.432667
40.93,254.151,-0.432731
40.9317,254.167,-0.432794
40.9333,254.184,-0.43286
40.935,254.2,-0.432925
40.9367,254.216,-0.433009
40.9383,254.233,-0.433101
40.94,254.249,-0.43319
40.9417,254.266,-0.433266
40.9433,254.282,-0.433352
40.945,254.299,-0.433429
40.9467,254.315,-0.433501
40.9483,254.332,-0.433711
40.95,254.348,-0.433882
40.9517,254.364,-0.43404
40.9533,254.381,-0.434143
40.955,254.398,-0.43423
40.9567,254.414,-0.434355
40.9583,254.431,-0.434415
40.96,254.447,-0.434485
40.9617,254.463,-0.434561
40.9633,254.48,-0.434635
40.965,254.496,-0.434708
40.9667,254.513,-0.434783
40.9683,254.529,-0.434861
40.97,254.546,-0.434941
40.9717,254.562,-0.435022
40.9733,254.579,-0.435128
40.975,254.595,-0.435288
40.9767,254.612,-0.4354
40.9783,254.628,-0.435576
40.98,254.644,-0.435665
40.9817,254.661,-0.435796
40.9833,254.677,-0.4359
40.985,254.694,-0.436
40.9867,254.71,-0.436097
40.9883,254.726,-0.436189
40.99,254.743,-0.436278
40.9917,254.76,-0.43637
40.9933,254.776,-0.436465
40.995,254.792,-0.436558
40.9967,254.809,-0.436648
40.9983,254.825,-0.436731
41,254.842,-0.436825
41.0017,254.858,-0.436917
41.0033,254.874,-0.437003
41.005,254.891,-0.43709
41.0067,254.907,-0.437176
41.0083,254.924,-0.437271
41.01,254.941,-0.437371
41.0117,254.957,-0.437505
41.0133,254.973,-0.437605
41.015,254.99,-0.437703
41.0167,255.006,-0.4378
41.0183,255.023,-0.437937
41.02,255.04,-0.438075
41.0217,255.056,-0.438182
41.0233,255.072,-0.438289
41.025,255.089,-0.438392
41.0267,255.105,-0.438487
41.0283,255.122,-0.438585
41.03,255.138,-0.438684
41.0317,255.154,-0.438785
41.0333,255.171,-0.438889
41.035,255.187,-0.438989
41.0367,255.204,-0.439091
41.0383,255.22,-0.439196
41.04,255.237,-0.439306
41.0417,255.254,-0.439416
41.0433,255.27,-0.439529
41.045,255.287,-0.439626
41.0467,255.303,-0.439716
41.0483,255.32,-0.439802
41.05,255.336,-0.439887
41.0517,255.353,-0.439974
41.0533,255.369,-0.440062
41.055,255.386,-0.440149
41.0567,255.402,-0.44024
41.0583,255.418,-0.440327
41.06,255.435,-0.440401
41.0617,255.451,-0.44047
41.0633,255.468,-0.440537
41.065,255.484,-0.440599
41.0667,255.501,-0.440665
41.0683,255.517,-0.440734
41.07,255.534,-0.440811
41.0717,255.55,-0.440891
41.0733,255.567,-0.440981
41.075,255.583,-0.441079
41.0767,255.6,-0.441177
41.0783,255.616,-0.44127
41.08,255.632,-0.441355
41.0817,255.649,-0.441445
41.0833,255.665,-0.441536
41.085,255.682,-0.441625
41.0867,255.698,-0.441715
41.0883,255.715,-0.441811
41.09,255.732,-0.441907
41.0917,255.748,-0.442009
41.0933,255.765,-0.44211
41.095,255.782,-0.442212
41.0967,255.798,-0.442318
41.0983,255.814,-0.442424
41.1,255.831,-0.442533
41.1017,255.848,-0.442653
41.1033,255.864,-0.442763
41.105,255.88,-0.442875
41.1067,255.896,-0.442982
41.1083,255.913,-0.443083
41.11,255.93,-0.443176
41.1117,255.946,-0.44327
41.1133,255.963,-0.443351
41.115,255.979,-0.443426
41.1167,255.996,-0.443499
41.1183,256.013,-0.443572
41.12,256.029,-0.443655
41.1217,256.046,-0.44374
41.1233,256.062,-0.44383
41.125,256.079,-0.443919
41.1267,256.095,-0.444005
41.1283,256.112,-0.444088
41.13,256.128,-0.444182
41.1317,256.145,-0.444275
41.1333,256.161,-0.444364
41.135,256.178,-0.444453
41.1367,256.194,-0.444534
41.1383,256.211,-0.444612
41.14,256.228,-0.444689
41.1417,256.244,-0.444765
41.1433,256.261,-0.44485
41.145,256.277,-0.444938
41.1467,256.293,-0.445025
41.1483,256.31,-0.445121
41.15,256.326,-0.445215
41.1517,256.342,-0.445319
41.1533,256.359,-0.445424
41.155,256.376,-0.445535
41.1567,256.392,-0.445662
41.1583,256.409,-0.445771
41.16,256.426,-0.445875
41.1617,256.442,-0.445978
41.1633,256.459,-0.446085
41.165,256.475,-0.446185
41.1667,256.492,-0.446286
41.1683,256.508,-0.446385
41.17,256.524,-0.446482
41.1717,256.541,-0.446569
41.1733,256.557,-0.446645
41.175,256.574,-0.446724
41.1767,256.59,-0.446804
41.1783,256.607,-0.446876
41.18,256.624,-0.446941
41.1817,256.64,-0.447
41.1833,256.657,-0.447065
41.185,256.673,-0.447132
41.1867,256.69,-0.447206
41.1883,256.706,-0.447279
41.19,256.723,-0.447356
41.1917,256.74,-0.447433
41.1933,256.756,-0.447522
41.195,256.773,-0.447612
41.1967,256.789,-0.447706
41.1983,256.806,-0.44785
41.2,256.822,-0.447999
41.2017,256.839,-0.448174
41.2033,256.855,-0.448391
41.205,256.872,-0.448641
41.2067,256.888,-0.448886
41.2083,256.905,-0.44905
41.21,256.922,-0.449178
41.2117,256.938,-0.449277
41.2133,256.955,-0.449362
41.215,256.971,-0.449438
41.2167,256.987,-0.44951
41.2183,257.004,-0.449575
41.22,257.02,-0.449638
41.2217,257.037,-0.449698
41.2233,257.053,-0.449755
41.225,257.07,-0.449826
41.2267,257.087,-0.449897
41.2283,257.103,-0.449967
41.23,257.12,-0.450038
41.2317,257.137,-0.45011
41.2333,257.152,-0.450192
41.235,257.169,-0.450271
41.2367,257.186,-0.450341
41.2383,257.202,-0.450414
41.24,257.219,-0.450486
41.2417,257.236,-0.450562
41.2433,257.252,-0.450646
41.245,257.269,-0.450724
41.2467,257.285,-0.450796
41.2483,257.302,-0.450866
41.25,257.318,-0.450936
41.2517,257.335,-0.451006
41.2533,257.352,-0.451076
41.255,257.368,-0.451148
41.2567,257.385,-0.451223
41.2583,257.401,-0.451306
41.26,257.418,-0.451388
41.2617,257.434,-0.451476
41.2633,257.451,-0.451563
41.265,257.467,-0.451651
41.2667,257.484,-0.451735
41.2683,257.5,-0.451817
41.27,257.517,-0.451894
41.2717,257.534,-0.451968
41.2733,257.55,-0.452039
41.275,257.567,-0.452116
41.2767,257.583,-0.452201
41.2783,257.6,-0.452296
41.28,257.616,-0.452392
41.2817,257.633,-0.452487
41.2833,257.649,-0.452577
41.285,257.666,-0.452665
41.2867,257.683,-0.452751
41.2883,257.699,-0.452827
41.29,257.716,-0.452901
41.2917,257.733,-0.452973
41.2933,257.749,-0.453041
41.295,257.766,-0.453102
41.2967,257.782,-0.453159
41.2983,257.799,-0.45321
41.3,257.815,-0.453255
41.3017,257.832,-0.453285
41.3033,257.848,-0.453321
41.305,257.865,-0.453371
41.3067,257.882,-0.453423
41.3083,257.898,-0.453472
41.31,257.915,-0.453517
41.3117,257.931,-0.453575
41.3133,257.948,-0.45364
41.315,257.964,-0.453708
41.3167,257.981,-0.453779
41.3183,257.998,-0.45385
41.32,258.014,-0.453917
41.3217,258.031,-0.453988
41.3233,258.047,-0.45407
41.325,258.064,-0.454154
41.3267,258.08,-0.454228
41.3283,258.096,-0.454287
41.33,258.113,-0.45434
41.3317,258.13,-0.454378
41.3333,258.147,-0.454411
41.335,258.163,-0.454446
41.3367,258.18,-0.454488
41.3383,258.196,-0.454541
41.34,258.213,-0.454604
41.3417,258.23,-0.454676
41.3433,258.246,-0.454761
41.345,258.263,-0.454866
41.3467,258.279,-0.454954
41.3483,258.296,-0.455042
41.35,258.312,-0.455122
41.3517,258.329,-0.455193
41.3533,258.345,-0.455255
41.355,258.362,-0.455316
41.3567,258.378,-0.455376
41.3583,258.395,-0.455436
41.36,258.411,-0.455497
41.3617,258.428,-0.45556
41.3633,258.445,-0.455623
41.365,258.461,-0.455694
41.3667,258.477,-0.45576
41.3683,258.494,-0.455828
41.37,258.511,-0.455908
41.3717,258.527,-0.455986
41.3733,258.544,-0.456061
41.375,258.56,-0.456138
41.3767,258.577,-0.456214
41.3783,258.594,-0.456289
41.38,258.611,-0.45636
41.3817,258.627,-0.456428
41.3833,258.644,-0.456493
41.385,258.661,-0.456548
41.3867,258.677,-0.456601
41.3883,258.694,-0.456645
41.39,258.71,-0.456684
41.3917,258.727,-0.456724
41.3933,258.743,-0.45676
41.395,258.76,-0.4568
41.3967,258.776,-0.456836
41.3983,258.793,-0.456869
41.4,258.81,-0.456902
41.4017,258.826,-0.456937
41.4033,258.843,-0.456979
41.405,258.859,-0.457025
41.4067,258.876,-0.457073
41.4083,258.892,-0.457133
41.41,258.909,-0.457199
41.4117,258.926,-0.457272
41.4133,258.943,-0.457346
41.415,258.959,-0.457425
41.4167,258.976,-0.457508
41.4183,258.992,-0.457589
41.42,259.009,-0.457658
41.4217,259.026,-0.457732
41.4233,259.042,-0.457809
41.425,259.059,-0.457881
41.4267,259.076,-0.457945
41.4283,259.092,-0.457997
41.43,259.109,-0.458041
41.4317,259.126,-0.458077
41.4333,259.142,-0.458109
41.435,259.159,-0.458134
41.4367,259.175,-0.45816
41.4383,259.192,-0.458179
41.44,259.208,-0.458206
41.4417,259.225,-0.458239
41.4433,259.241,-0.458287
41.445,259.258,-0.458339
41.4467,259.274,-0.458399
41.4483,259.291,-0.458465
41.45,259.308,-0.45853
41.4517,259.324,-0.458598
41.4533,259.341,-0.458662
41.455,259.357,-0.458738
41.4567,259.374,-0.458812
41.4583,259.391,-0.458876
41.46,259.407,-0.458945
41.4617,259.423,-0.459014
41.4633,259.44,-0.459084
41.465,259.457,-0.459149
41.4667,259.473,-0.45921
41.4683,259.49,-0.459266
41.47,259.506,-0.459317
41.4717,259.523,-0.459374
41.4733,259.54,-0.459436
41.475,259.556,-0.459483
41.4767,259.573,-0.45952
41.4783,259.59,-0.459561
41.48,259.606,-0.459602
41.4817,259.623,-0.459641
41.4833,259.64,-0.459676
41.485,259.656,-0.459712
41.4867,259.673,-0.45975
41.4883,259.69,-0.459792
41.49,259.706,-0.459846
41.4917,259.723,-0.459902
41.4933,259.739,-0.459959
41.495,259.756,-0.460008
41.4967,259.772,-0.460058
41.4983,259.789,-0.460105
41.5,259.805,-0.460152
41.5017,259.822,-0.460191
41.5033,259.839,-0.460226
41.505,259.855,-0.460247
41.5067,259.872,-0.46027
41.5083,259.888,-0.460296
41.51,259.905,-0.460318
41.5117,259.922,-0.46034
41.5133,259.938,-0.460369
41.515,259.955,-0.460404
41.5167,259.971,-0.460439
41.5183,259.988,-0.46047
41.52,260.004,-0.460491
41.5217,260.021,-0.460515
41.5233,260.038,-0.460541
41.525,260.054,-0.460573
41.5267,260.071,-0.46061
41.5283,260.088,-0.460652
41.53,260.104,-0.460697
41.5317,260.121,-0.460752
41.5333,260.138,-0.460814
41.535,260.155,-0.460874
41.5367,260.172,-0.46093
41.5383,260.188,-0.460981
41.54,260.204,-0.461024
41.5417,260.221,-0.461061
41.5433,260.237,-0.46109
41.545,260.254,-0.461112
41.5467,260.27,-0.461135
41.5483,260.287,-0.461155
41.55,260.303,-0.461174
41.5517,260.32,-0.461191
41.5533,260.337,-0.461218
41.555,260.354,-0.461252
41.5567,260.371,-0.46128
41.5583,260.387,-0.461307
41.56,260.404,-0.461327
41.5617,260.42,-0.46135
41.5633,260.437,-0.461377
41.565,260.453,-0.461401
41.5667,260.47,-0.461434
41.5683,260.487,-0.461475
41.57,260.503,-0.461527
41.5717,260.52,-0.461586
41.5733,260.537,-0.461649
41.575,260.553,-0.461713
41.5767,260.57,-0.461777
41.5783,260.586,-0.461842
41.58,260.603,-0.461903
41.5817,260.62,-0.461957
41.5833,260.637,-0.462002
41.585,260.653,-0.462045
41.5867,260.67,-0.462084
41.5883,260.687,-0.46212
41.59,260.703,-0.462152
41.5917,260.72,-0.462188
41.5933,260.736,-0.462224
41.595,260.753,-0.462258
41.5967,260.77,-0.462286
41.5983,260.786,-0.46232
41.6,260.803,-0.462363
41.6017,260.819,-0.462403
41.6033,260.835,-0.462442
41.605,260.852,-0.462485
41.6067,260.869,-0.462536
41.6083,260.885,-0.462585
41.61,260.902,-0.462635
41.6117,260.919,-0.462684
41.6133,260.935,-0.462729
41.615,260.952,-0.462767
41.6167,260.969,-0.462805
41.6183,260.986,-0.462838
41.62,261.002,-0.462859
41.6217,261.019,-0.462875
41.6233,261.035,-0.462888
41.625,261.052,-0.462904
41.6267,261.068,-0.462913
41.6283,261.085,-0.462926
41.63,261.101,-0.462944
41.6317,261.117,-0.462972
41.6333,261.135,-0.463007
41.635,261.151,-0.463044
41.6367,261.168,-0.463084
41.6383,261.185,-0.463122
41.64,261.201,-0.463165
41.6417,261.217,-0.463208
41.6433,261.234,-0.463256
41.645,261.251,-0.463299
41.6467,261.267,-0.463344
41.6483,261.284,-0.463386
41.65,261.301,-0.463431
41.6517,261.317,-0.463466
41.6533,261.334,-0.46349
41.655,261.351,-0.463507
41.6567,261.367,-0.463519
41.6583,261.384,-0.463516
41.66,261.401,-0.463516
41.6617,261.417,-0.463521
41.6633,261.433,-0.463522
41.665,261.45,-0.463514
41.6667,261.467,-0.463506
41.6683,261.483,-0.463495
41.67,261.5,-0.463487
41.6717,261.517,-0.463483
41.6733,261.534,-0.463485
41.675,261.55,-0.46349
41.6767,261.567,-0.463506
41.6783,261.583,-0.463525
41.68,261.6,-0.463554
41.6817,261.617,-0.46359
41.6833,261.634,-0.463629
41.685,261.65,-0.463677
41.6867,261.667,-0.463713
41.6883,261.683,-0.463739
41.69,261.7,-0.463761
41.6917,261.717,-0.463779
41.6933,261.733,-0.463791
41.695,261.75,-0.4638
41.6967,261.767,-0.463801
41.6983,261.784,-0.463796
41.7,261.8,-0.463803
41.7017,261.817,-0.463816
41.7033,261.834,-0.463838
41.705,261.85,-0.463865
41.7067,261.867,-0.463894
41.7083,261.883,-0.463929
41.71,261.9,-0.463962
41.7117,261.917,-0.463993
41.7133,261.933,-0.464029
41.715,261.95,-0.464064
41.7167,261.966,-0.464093
41.7183,261.983,-0.464109
41.72,261.999,-0.464121
41.7217,262.016,-0.464131
41.7233,262.033,-0.464142
41.725,262.049,-0.464158
41.7267,262.066,-0.464176
41.7283,262.083,-0.464197
41.73,262.099,-0.464216
41.7317,262.116,-0.464242
41.7333,262.133,-0.464268
41.735,262.149,-0.464301
41.7367,262.166,-0.464326
41.7383,262.183,-0.464356
41.74,262.199,-0.464384
41.7417,262.216,-0.464411
41.7433,262.233,-0.464438
41.745,262.249,-0.46447
41.7467,262.266,-0.464499
41.7483,262.283,-0.464522
41.75,262.299,-0.464547
41.7517,262.316,-0.464575
41.7533,262.332,-0.464596
41.755,262.349,-0.464621
41.7567,262.365,-0.464651
41.7583,262.382,-0.464675
41.76,262.399,-0.464693
41.7617,262.415,-0.464708
41.7633,262.432,-0.464722
41.765,262.449,-0.464735
41.7667,262.465,-0.46475
41.7683,262.482,-0.464767
41.77,262.499,-0.464782
41.7717,262.515,-0.464805
41.7733,262.532,-0.464838
41.775,262.549,-0.464867
41.7767,262.565,-0.464905
41.7783,262.582,-0.464947
41.78,262.599,-0.464984
41.7817,262.616,-0.46502
41.7833,262.632,-0.465053
41.785,262.648,-0.465082
41.7867,262.665,-0.465114
41.7883,262.682,-0.465143
41.79,262.698,-0.465168
41.7917,262.715,-0.465194
41.7933,262.732,-0.465216
41.795,262.748,-0.465233
41.7967,262.765,-0.465251
41.7983,262.781,-0.46527
41.8,262.798,-0.465282
41.8017,262.814,-0.465294
41.8033,262.831,-0.465307
41.805,262.847,-0.465323
41.8067,262.864,-0.465337
41.8083,262.881,-0.465354
41.81,262.897,-0.465379
41.8117,262.914,-0.465406
41.8133,262.931,-0.465435
41.815,262.948,-0.46547
41.8167,262.964,-0.465504
41.8183,262.981,-0.465537
41.82,262.997,-0.465555
41.8217,263.014,-0.465573
41.8233,263.03,-0.465584
41.825,263.047,-0.465592
41.8267,263.064,-0.465596
41.8283,263.081,-0.465601
41.83,263.097,-0.465611
41.8317,263.114,-0.465627
41.8333,263.131,-0.465644
41.835,263.148,-0.465669
41.8367,263.164,-0.465702
41.8383,263.18,-0.465748
41.84,263.197,-0.465793
41.8417,263.213,-0.465831
41.8433,263.23,-0.465863
41.845,263.246,-0.465884
41.8467,263.263,-0.465889
41.8483,263.279,-0.465886
41.85,263.296,-0.465882
41.8517,263.313,-0.465869
41.8533,263.33,-0.465861
41.855,263.347,-0.465862
41.8567,263.363,-0.465867
41.8583,263.38,-0.465873
41.86,263.397,-0.465874
41.8617,263.413,-0.465884
41.8633,263.43,-0.465899
41.865,263.447,-0.465918
41.8667,263.463,-0.465937
41.8683,263.48,-0.465957
41.87,263.496,-0.465982
41.8717,263.513,-0.466013
41.8733,263.53,-0.466047
41.875,263.546,-0.466079
41.8767,263.562,-0.466115
41.8783,263.579,-0.46615
41.88,263.596,-0.466175
41.8817,263.613,-0.466199
41.8833,263.63,-0.466221
41.885,263.646,-0.466241
41.8867,263.663,-0.466252
41.8883,263.68,-0.466261
41.89,263.696,-0.466267
41.8917,263.713,-0.46627
41.8933,263.729,-0.466266
41.895,263.746,-0.466263
41.8967,263.763,-0.466259
41.8983,263.779,-0.466254
41.9,263.796,-0.466258
41.9017,263.812,-0.466266
41.9033,263.829,-0.466281
41.905,263.845,-0.466298
41.9067,263.862,-0.466321
41.9083,263.879,-0.466337
41.91,263.895,-0.466354
41.9117,263.912,-0.466367
41.9133,263.928,-0.466374
41.915,263.945,-0.466371
41.9167,263.962,-0.466368
41.9183,263.978,-0.46637
41.92,263.995,-0.466375
41.9217,264.011,-0.466391
41.9233,264.028,-0.466415
41.925,264.045,-0.466445
41.9267,264.061,-0.46648
41.9283,264.078,-0.466515
41.93,264.094,-0.466547
41.9317,264.111,-0.466574
41.9333,264.128,-0.466591
41.935,264.143,-0.466608
41.9367,264.16,-0.46661
41.9383,264.177,-0.46661
41.94,264.194,-0.46661
41.9417,264.21,-0.466621
41.9433,264.227,-0.46663
41.945,264.244,-0.466642
41.9467,264.26,-0.466645
41.9483,264.277,-0.466651
41.95,264.294,-0.466652
41.9517,264.31,-0.46666
41.9533,264.327,-0.466673
41.955,264.344,-0.466685
41.9567,264.36,-0.466692
41.9583,264.377,-0.466693
41.96,264.394,-0.466691
41.9617,264.41,-0.46669
41.9633,264.427,-0.466684
41.965,264.444,-0.466676
41.9667,264.46,-0.466665
41.9683,264.477,-0.466646
41.97,264.493,-0.466621
41.9717,264.51,-0.466597
41.9733,264.527,-0.466584
41.975,264.544,-0.466571
41.9767,264.561,-0.466546
41.9783,264.577,-0.466527
41.98,264.594,-0.466514
41.9817,264.611,-0.466497
41.9833,264.627,-0.466482
41.985,264.644,-0.466469
41.9867,264.66,-0.466469
41.9883,264.677,-0.466469
41.99,264.694,-0.46647
41.9917,264.71,-0.466481
41.9933,264.727,-0.466498
41.995,264.743,-0.466517
41.9967,264.76,-0.466532
41.9983,264.777,-0.466555
42,264.794,-0.466576
42.0017,264.81,-0.466591
42.0033,264.827,-0.466601
42.005,264.844,-0.466614
42.0067,264.86,-0.466623
42.0083,264.876,-0.46663
42.01,264.893,-0.466639
42.0117,264.91,-0.466648
42.0133,264.926,-0.466658
42.015,264.943,-0.466666
42.0167,264.96,-0.466672
42.0183,264.977,-0.466681
42.02,264.993,-0.466693
42.0217,265.01,-0.466718
42.0233,265.027,-0.46674
42.025,265.043,-0.466765
42.0267,265.06,-0.466786
42.0283,265.077,-0.466814
42.03,265.093,-0.466845
42.0317,265.11,-0.466869
42.0333,265.127,-0.466889
42.035,265.143,-0.466909
42.0367,265.16,-0.46692
42.0383,265.177,-0.466929
42.04,265.193,-0.466936
42.0417,265.21,-0.466937
42.0433,265.226,-0.466938
42.045,265.243,-0.466933
42.0467,265.26,-0.466937
42.0483,265.276,-0.466949
42.05,265.293,-0.466965
42.0517,265.309,-0.466977
42.0533,265.326,-0.466997
42.055,265.342,-0.467018
42.0567,265.359,-0.467045
42.0583,265.376,-0.46707
42.06,265.392,-0.467096
42.0617,265.409,-0.467116
42.0633,265.426,-0.467132
42.065,265.443,-0.467149
42.0667,265.459,-0.467161
42.0683,265.476,-0.467163
42.07,265.493,-0.467159
42.0717,265.51,-0.46716
42.0733,265.526,-0.467159
42.075,265.543,-0.467161
42.0767,265.559,-0.467165
42.0783,265.576,-0.46717
42.08,265.593,-0.467191
42.0817,265.609,-0.467215
42.0833,265.626,-0.467238
42.085,265.642,-0.467242
42.0867,265.659,-0.467231
42.0883,265.676,-0.467214
42.09,265.693,-0.467192
42.0917,265.709,-0.467175
42.0933,265.726,-0.467151
42.095,265.743,-0.467128
42.0967,265.759,-0.46711
42.0983,265.776,-0.467097
42.1,265.792,-0.467084
42.1017,265.809,-0.467074
42.1033,265.825,-0.467059
42.105,265.842,-0.467049
42.1067,265.859,-0.46705
42.1083,265.876,-0.467054
42.11,265.892,-0.467067
42.1117,265.909,-0.467089
42.1133,265.926,-0.467111
42.115,265.942,-0.467135
42.1167,265.959,-0.467157
42.1183,265.976,-0.467177
42.12,265.992,-0.467188
42.1217,266.009,-0.467189
42.1233,266.025,-0.467192
42.125,266.042,-0.467186
42.1267,266.059,-0.467172
42.1283,266.076,-0.467162
42.13,266.092,-0.467146
42.1317,266.109,-0.467138
42.1333,266.126,-0.467132
42.135,266.143,-0.467134
42.1367,266.159,-0.467144
42.1383,266.176,-0.467153
42.14,266.192,-0.467156
42.1417,266.209,-0.467158
42.1433,266.225,-0.467165
42.145,266.242,-0.467173
42.1467,266.259,-0.467181
42.1483,266.275,-0.467189
42.15,266.292,-0.467202
42.1517,266.308,-0.467218
42.1533,266.325,-0.46723
42.155,266.342,-0.467249
42.1567,266.358,-0.467265
42.1583,266.375,-0.467271
42.16,266.392,-0.46727
42.1617,266.408,-0.467265
42.1633,266.425,-0.467254
42.165,266.442,-0.467248
42.1667,266.458,-0.467245
42.1683,266.475,-0.467248
42.17,266.492,-0.467256
42.1717,266.509,-0.467271
42.1733,266.526,-0.467297
42.175,266.542,-0.467323
42.1767,266.559,-0.467347
42.1783,266.576,-0.467371
42.18,266.592,-0.46738
42.1817,266.608,-0.467383
42.1833,266.625,-0.467379
42.185,266.642,-0.467365
42.1867,266.658,-0.46735
42.1883,266.675,-0.467321
42.19,266.691,-0.467292
42.1917,266.708,-0.467269
42.1933,266.725,-0.467247
42.195,266.741,-0.467227
42.1967,266.758,-0.467206
42.1983,266.775,-0.467192
42.2,266.792,-0.467179
42.2017,266.808,-0.467173
42.2033,266.825,-0.467166
42.205,266.842,-0.467169
42.2067,266.858,-0.46718
42.2083,266.875,-0.467194
42.21,266.892,-0.467214
42.2117,266.908,-0.467235
42.2133,266.925,-0.467261
42.215,266.941,-0.467285
42.2167,266.958,-0.467299
42.2183,266.975,-0.467301
42.22,266.991,-0.467292
42.2217,267.008,-0.467279
42.2233,267.024,-0.467263
42.225,267.041,-0.467249
42.2267,267.058,-0.467236
42.2283,267.075,-0.467219
42.23,267.091,-0.467211
42.2317,267.108,-0.467209
42.2333,267.125,-0.467208
42.235,267.141,-0.467211
42.2367,267.158,-0.467221
42.2383,267.175,-0.467237
42.24,267.191,-0.467253
42.2417,267.208,-0.467268
42.2433,267.224,-0.467286
42.245,267.241,-0.467301
42.2467,267.258,-0.467318
42.2483,267.274,-0.467334
42.25,267.291,-0.467351
42.2517,267.308,-0.467361
42.2533,267.325,-0.467361
42.255,267.341,-0.467359
42.2567,267.358,-0.467361
42.2583,267.374,-0.467359
42.26,267.391,-0.467358
42.2617,267.408,-0.467357
42.2633,267.424,-0.467356
42.265,267.441,-0.467348
42.2667,267.458,-0.467344
42.2683,267.474,-0.467333
42.27,267.491,-0.467318
42.2717,267.507,-0.4673
42.2733,267.524,-0.467288
42.275,267.541,-0.46728
42.2767,267.558,-0.467274
42.2783,267.574,-0.467265
42.28,267.591,-0.467261
42.2817,267.608,-0.467263
42.2833,267.625,-0.467279
42.285,267.641,-0.467301
42.2867,267.658,-0.467327
42.2883,267.675,-0.467348
42.29,267.691,-0.467366
42.2917,267.708,-0.467377
42.2933,267.724,-0.467388
42.295,267.741,-0.467396
42.2967,267.757,-0.4674
42.2983,267.774,-0.467402
42.3,267.79,-0.467396
42.3017,267.807,-0.467392
42.3033,267.823,-0.467386
42.305,267.841,-0.467379
42.3067,267.857,-0.467376
42.3083,267.874,-0.467376
42.31,267.891,-0.467375
42.3117,267.907,-0.46738
42.3133,267.924,-0.46738
42.315,267.941,-0.467379
42.3167,267.957,-0.467377
42.3183,267.974,-0.467363
42.32,267.99,-0.467347
42.3217,268.007,-0.467333
42.3233,268.023,-0.46732
42.325,268.04,-0.467305
42.3267,268.057,-0.467295
42.3283,268.074,-0.467293
42.33,268.09,-0.467296
42.3317,268.107,-0.467304
42.3333,268.124,-0.467319
42.335,268.141,-0.467343
42.3367,268.157,-0.467361
42.3383,268.174,-0.467374
42.34,268.191,-0.467387
42.3417,268.207,-0.467393
42.3433,268.224,-0.467402
42.345,268.24,-0.467398
42.3467,268.257,-0.467401
42.3483,268.274,-0.467394
42.35,268.29,-0.467385
42.3517,268.307,-0.467378
42.3533,268.324,-0.467374
42.355,268.341,-0.467372
42.3567,268.357,-0.46737
42.3583,268.374,-0.46736
42.36,268.39,-0.467355
42.3617,268.407,-0.467348
42.3633,268.423,-0.467352
42.365,268.44,-0.467366
42.3667,268.457,-0.467361
42.3683,268.474,-0.467358
42.37,268.49,-0.467362
42.3717,268.507,-0.467363
42.3733,268.524,-0.467362
42.375,268.54,-0.46736
42.3767,268.557,-0.467358
42.3783,268.574,-0.467357
42.38,268.59,-0.467357
42.3817,268.607,-0.46736
42.3833,268.624,-0.467371
42.385,268.64,-0.467385
42.3867,268.657,-0.467393
42.3883,268.673,-0.467408
42.39,268.69,-0.467423
42.3917,268.707,-0.467438
42.3933,268.723,-0.467448
42.395,268.74,-0.467461
42.3967,268.756,-0.467475
42.3983,268.773,-0.467492
42.4,268.79,-0.467499
42.4017,268.806,-0.467508
42.4033,268.823,-0.467507
42.405,268.839,-0.467496
42.4067,268.856,-0.467477
42.4083,268.873,-0.467451
42.41,268.89,-0.46743
42.4117,268.906,-0.467418
42.4133,268.923,-0.467412
42.415,268.94,-0.467417
42.4167,268.956,-0.467428
42.4183,268.973,-0.467446
42.42,268.99,-0.46747
42.4217,269.006,-0.467493
42.4233,269.023,-0.467516
42.425,269.04,-0.467531
42.4267,269.057,-0.467538
42.4283,269.073,-0.467535
42.43,269.089,-0.467533
42.4317,269.106,-0.46752
42.4333,269.123,-0.4675
42.435,269.14,-0.467478
42.4367,269.156,-0.467456
42.4383,269.173,-0.467443
42.44,269.189,-0.467429
42.4417,269.206,-0.467416
42.4433,269.223,-0.467411
42.445,269.239,-0.46742
42.4467,269.256,-0.467424
42.4483,269.272,-0.467426
42.45,269.289,-0.467432
42.4517,269.306,-0.467441
42.4533,269.323,-0.467442
42.455,269.34,-0.467437
42.4567,269.356,-0.467432
42.4583,269.373,-0.467429
42.46,269.39,-0.467423
42.4617,269.406,-0.467422
42.4633,269.423,-0.467431
42.465,269.44,-0.467447
42.4667,269.456,-0.467458
42.4683,269.473,-0.467475
42.47,269.49,-0.467497
42.4717,269.506,-0.46751
42.4733,269.523,-0.467528
42.475,269.54,-0.467544
42.4767,269.556,-0.467555
42.4783,269.574,-0.467553
42.48,269.59,-0.467551
42.4817,269.606,-0.467555
42.4833,269.623,-0.467556
42.485,269.639,-0.467556
42.4867,269.656,-0.467548
42.4883,269.673,-0.467529
42.49,269.689,-0.467511
42.4917,269.706,-0.46749
42.4933,269.723,-0.467472
42.495,269.74,-0.46745
42.4967,269.756,-0.467428
42.4983,269.773,-0.46741
42.5,269.79,-0.4674
42.5017,269.806,-0.467404
42.5033,269.823,-0.467418
42.505,269.839,-0.467434
42.5067,269.856,-0.467461
42.5083,269.873,-0.467492
42.51,269.889,-0.467526
42.5117,269.906,-0.467558
42.5133,269.922,-0.467594
42.515,269.939,-0.467639
42.5167,269.956,-0.467677
42.5183,269.972,-0.46771
42.52,269.989,-0.467744
42.5217,270.006,-0.467764
42.5233,270.022,-0.467774
42.525,270.039,-0.467775
42.5267,270.056,-0.467771
42.5283,270.072,-0.467763
42.53,270.089,-0.467753
42.5317,270.105,-0.46774
42.5333,270.122,-0.467724
42.535,270.139,-0.467708
42.5367,270.156,-0.467695
42.5383,270.172,-0.467686
42.54,270.189,-0.467676
42.5417,270.205,-0.467664
42.5433,270.222,-0.467649
42.545,270.239,-0.467638
42.5467,270.256,-0.467632
42.5483,270.272,-0.467635
42.55,270.289,-0.467647
42.5517,270.306,-0.467666
42.5533,270.322,-0.467686
42.555,270.338,-0.467713
42.5567,270.355,-0.46774
42.5583,270.372,-0.46776
42.56,270.388,-0.467775
42.5617,270.405,-0.467785
42.5633,270.421,-0.467797
42.565,270.438,-0.467804
42.5667,270.455,-0.467798
42.5683,270.471,-0.467788
42.57,270.488,-0.467775
42.5717,270.505,-0.467766
42.5733,270.521,-0.467747
42.575,270.538,-0.46773
42.5767,270.555,-0.467721
42.5783,270.571,-0.467715
42.58,270.588,-0.467713
42.5817,270.605,-0.46772
42.5833,270.621,-0.467731
42.585,270.638,-0.467741
42.5867,270.654,-0.467743
42.5883,270.671,-0.467748
42.59,270.688,-0.46775
42.5917,270.704,-0.467743
42.5933,270.721,-0.467734
42.595,270.738,-0.467724
42.5967,270.755,-0.46771
42.5983,270.771,-0.467684
42.6,270.788,-0.467644
42.6017,270.805,-0.467609
42.6033,270.821,-0.467575
42.605,270.838,-0.467552
42.6067,270.855,-0.467537
42.6083,270.871,-0.467524
42.61,270.888,-0.46751
42.6117,270.904,-0.467503
42.6133,270.921,-0.467508
42.615,270.938,-0.467513
42.6167,270.954,-0.467517
42.6183,270.971,-0.46752
42.62,270.988,-0.467523
42.6217,271.005,-0.467526
42.6233,271.021,-0.467529
42.625,271.037,-0.467527
42.6267,271.054,-0.467524
42.6283,271.071,-0.467523
42.63,271.087,-0.467525
42.6317,271.104,-0.467528
42.6333,271.121,-0.467536
42.635,271.138,-0.467536
42.6367,271.154,-0.467537
42.6383,271.171,-0.467536
42.64,271.188,-0.467545
42.6417,271.205,-0.467552
42.6433,271.222,-0.467552
42.645,271.238,-0.467548
42.6467,271.255,-0.467537
42.6483,271.271,-0.467525
42.65,271.288,-0.467518
42.6517,271.304,-0.467516
42.6533,271.321,-0.467519
42.655,271.338,-0.467526
42.6567,271.354,-0.467524
42.6583,271.371,-0.467525
42.66,271.388,-0.467536
42.6617,271.404,-0.467546
42.6633,271.421,-0.467551
42.665,271.437,-0.467553
42.6667,271.454,-0.467555
42.6683,271.471,-0.467556
42.67,271.488,-0.467545
42.6717,271.504,-0.467528
42.6733,271.521,-0.467508
42.675,271.538,-0.467488
42.6767,271.554,-0.467466
42.6783,271.571,-0.467454
42.68,271.588,-0.467453
42.6817,271.604,-0.46745
42.6833,271.621,-0.467465
42.685,271.638,-0.467493
42.6867,271.654,-0.467524
42.6883,271.671,-0.467559
42.69,271.687,-0.467584
42.6917,271.704,-0.467604
42.6933,271.721,-0.467614
42.695,271.737,-0.467621
42.6967,271.754,-0.46762
42.6983,271.771,-0.467614
42.7,271.787,-0.467603
42.7017,271.804,-0.467594
42.7033,271.821,-0.467583
42.705,271.837,-0.467568
42.7067,271.854,-0.467561
42.7083,271.87,-0.467561
42.71,271.887,-0.467569
42.7117,271.904,-0.467582
42.7133,271.921,-0.467599
42.715,271.938,-0.467608
42.7167,271.954,-0.467616
42.7183,271.971,-0.467624
42.72,271.988,-0.467635
42.7217,272.004,-0.467645
42.7233,272.021,-0.46765
42.725,272.037,-0.467651
42.7267,272.054,-0.467634
42.7283,272.071,-0.467611
42.73,272.087,-0.467579
42.7317,272.104,-0.467552
42.7333,272.121,-0.467526
42.735,272.138,-0.467507
42.7367,272.154,-0.46749
42.7383,272.171,-0.467475
42.74,272.187,-0.467473
42.7417,272.204,-0.467471
42.7433,272.22,-0.467467
42.745,272.237,-0.467456
42.7467,272.254,-0.467444
42.7483,272.271,-0.467442
42.75,272.287,-0.467443
42.7517,272.304,-0.467452
42.7533,272.321,-0.467468
42.755,272.337,-0.467493
42.7567,272.354,-0.467521
42.7583,272.37,-0.467564
42.76,272.387,-0.467627
42.7617,272.404,-0.46769
42.7633,272.42,-0.467726
42.765,272.437,-0.467762
42.7667,272.454,-0.467799
42.7683,272.47,-0.467828
42.77,272.487,-0.467847
42.7717,272.503,-0.467851
42.7733,272.52,-0.467852
42.775,272.537,-0.467844
42.7767,272.553,-0.467839
42.7783,272.571,-0.467837
42.78,272.587,-0.46784
42.7817,272.604,-0.467847
42.7833,272.62,-0.467858
42.785,272.637,-0.467872
42.7867,272.653,-0.467886
42.7883,272.67,-0.467904
42.79,272.687,-0.467914
42.7917,272.703,-0.467919
42.7933,272.72,-0.467907
42.795,272.737,-0.467896
42.7967,272.753,-0.467883
42.7983,272.77,-0.467872
42.8,272.787,-0.467856
42.8017,272.804,-0.467833
42.8033,272.821,-0.467806
42.805,272.837,-0.467775
42.8067,272.854,-0.467746
42.8083,272.87,-0.467724
42.81,272.887,-0.467711
42.8117,272.904,-0.467698
42.8133,272.92,-0.467694
42.815,272.937,-0.467696
42.8167,272.953,-0.467702
42.8183,272.97,-0.467705
42.82,272.987,-0.467709
42.8217,273.003,-0.467705
42.8233,273.02,-0.467694
42.825,273.036,-0.467682
42.8267,273.053,-0.467681
42.8283,273.07,-0.467684
42.83,273.086,-0.467686
42.8317,273.103,-0.467691
42.8333,273.12,-0.467686
42.835,273.137,-0.46768
42.8367,273.153,-0.467671
42.8383,273.17,-0.467666
42.84,273.187,-0.46766
42.8417,273.204,-0.467656
42.8433,273.22,-0.467651
42.845,273.236,-0.46764
42.8467,273.253,-0.467628
42.8483,273.27,-0.467614
42.85,273.287,-0.46761
42.8517,273.303,-0.467607
42.8533,273.32,-0.467604
42.855,273.337,-0.467604
42.8567,273.353,-0.467599
42.8583,273.37,-0.467594
42.86,273.387,-0.467596
42.8617,273.403,-0.467612
42.8633,273.42,-0.467623
42.865,273.437,-0.46763
42.8667,273.453,-0.467637
42.8683,273.47,-0.467641
42.87,273.487,-0.467641
42.8717,273.503,-0.467638
42.8733,273.519,-0.46764
42.875,273.536,-0.467629
42.8767,273.553,-0.467614
42.8783,273.569,-0.467609
42.88,273.586,-0.467611
42.8817,273.603,-0.467616
42.8833,273.619,-0.467622
42.885,273.636,-0.467634
42.8867,273.653,-0.467643
42.8883,273.669,-0.46764
42.89,273.686,-0.467635
42.8917,273.703,-0.467629
42.8933,273.719,-0.467618
42.895,273.736,-0.467597
42.8967,273.753,-0.467575
42.8983,273.77,-0.467551
42.9,273.786,-0.467528
42.9017,273.803,-0.467514
42.9033,273.82,-0.467511
42.905,273.836,-0.467517
42.9067,273.853,-0.46752
42.9083,273.87,-0.467533
42.91,273.887,-0.467553
42.9117,273.903,-0.467569
42.9133,273.92,-0.467579
42.915,273.937,-0.46759
42.9167,273.953,-0.467599
42.9183,273.97,-0.467608
42.92,273.987,-0.467614
42.9217,274.003,-0.467624
42.9233,274.019,-0.467628
42.925,274.036,-0.467628
42.9267,274.053,-0.467627
42.9283,274.069,-0.467625
42.93,274.086,-0.467613
42.9317,274.103,-0.467595
42.9333,274.119,-0.467577
42.935,274.136,-0.467548
42.9367,274.153,-0.467527
42.9383,274.17,-0.467505
42.94,274.186,-0.467485
42.9417,274.203,-0.467465
42.9433,274.22,-0.46745
42.945,274.236,-0.467449
42.9467,274.253,-0.467466
42.9483,274.269,-0.467496
42.95,274.286,-0.467557
42.9517,274.303,-0.46765
42.9533,274.319,-0.467754
42.955,274.336,-0.46782
42.9567,274.353,-0.467856
42.9583,274.369,-0.467888
42.96,274.386,-0.467915
42.9617,274.403,-0.46793
42.9633,274.419,-0.467936
42.965,274.436,-0.467943
42.9667,274.453,-0.467946
42.9683,274.469,-0.467932
42.97,274.486,-0.467909
42.9717,274.502,-0.467883
42.9733,274.518,-0.467856
42.975,274.535,-0.467828
42.9767,274.551,-0.467801
42.9783,274.568,-0.467777
42.98,274.585,-0.467766
42.9817,274.602,-0.467761
42.9833,274.619,-0.467769
42.985,274.635,-0.467784
42.9867,274.652,-0.467799
42.9883,274.669,-0.467813
42.99,274.685,-0.467831
42.9917,274.702,-0.467843
42.9933,274.719,-0.467859
42.995,274.735,-0.467874
42.9967,274.752,-0.467892
42.9983,274.768,-0.467913
43,274.785,-0.467925
43.0017,274.801,-0.46793
43.0033,274.818,-0.46793
43.005,274.835,-0.467919
43.0067,274.852,-0.467897
43.0083,274.868,-0.467852
43.01,274.886,-0.46775
43.0117,274.902,-0.467638
43.0133,274.919,-0.467573
43.015,274.936,-0.467531
43.0167,274.952,-0.467508
43.0183,274.969,-0.467489
43.02,274.985,-0.467479
43.0217,275.002,-0.46748
43.0233,275.018,-0.467483
43.025,275.035,-0.467492
43.0267,275.051,-0.467503
43.0283,275.068,-0.467506
43.03,275.085,-0.467512
43.0317,275.102,-0.467516
43.0333,275.119,-0.467508
43.035,275.135,-0.467499
43.0367,275.152,-0.467484
43.0383,275.168,-0.467467
43.04,275.185,-0.46744
43.0417,275.202,-0.467422
43.0433,275.218,-0.467406
43.045,275.235,-0.467394
43.0467,275.252,-0.467389
43.0483,275.268,-0.46739
43.05,275.285,-0.467397
43.0517,275.302,-0.467412
43.0533,275.318,-0.467436
43.055,275.335,-0.467455
43.0567,275.352,-0.467467
43.0583,275.368,-0.467478
43.06,275.385,-0.467487
43.0617,275.402,-0.467491
43.0633,275.419,-0.467488
43.065,275.435,-0.467477
43.0667,275.452,-0.467463
43.0683,275.469,-0.467448
43.07,275.485,-0.467435
43.0717,275.502,-0.467434
43.0733,275.518,-0.467436
43.075,275.535,-0.467441
43.0767,275.552,-0.467446
43.0783,275.569,-0.467453
43.08,275.585,-0.467458
43.0817,275.602,-0.467465
43.0833,275.619,-0.467473
43.085,275.635,-0.467479
43.0867,275.652,-0.467468
43.0883,275.669,-0.467453
43.09,275.685,-0.467437
43.0917,275.702,-0.46742
43.0933,275.719,-0.467406
43.095,275.736,-0.4674
43.0967,275.752,-0.467398
43.0983,275.769,-0.467405
43.1,275.785,-0.467414
43.1017,275.802,-0.467433
43.1033,275.819,-0.467463
43.105,275.836,-0.467495
43.1067,275.852,-0.467522
43.1083,275.869,-0.467538
43.11,275.885,-0.467548
43.1117,275.902,-0.467558
43.1133,275.919,-0.467566
43.115,275.935,-0.46757
43.1167,275.952,-0.467572
43.1183,275.969,-0.467577
43.12,275.985,-0.467579
43.1217,276.002,-0.467584
43.1233,276.018,-0.467595
43.125,276.035,-0.467601
43.1267,276.052,-0.467602
43.1283,276.069,-0.4676
43.13,276.086,-0.467598
43.1317,276.103,-0.467587
43.1333,276.119,-0.467579
43.135,276.136,-0.467567
43.1367,276.152,-0.467565
43.1383,276.168,-0.467566
43.14,276.185,-0.467575
43.1417,276.202,-0.467588
43.1433,276.218,-0.467604
43.145,276.235,-0.467624
43.1467,276.252,-0.467645
43.1483,276.268,-0.467679
43.15,276.285,-0.467716
43.1517,276.302,-0.467739
43.1533,276.319,-0.467751
43.155,276.336,-0.467752
43.1567,276.352,-0.467752
43.1583,276.369,-0.467745
43.16,276.385,-0.467736
43.1617,276.402,-0.467732
43.1633,276.419,-0.467732
43.165,276.436,-0.467738
43.1667,276.452,-0.467746
43.1683,276.469,-0.46776
43.17,276.486,-0.467784
43.1717,276.502,-0.467813
43.1733,276.519,-0.467836
43.175,276.535,-0.467861
43.1767,276.552,-0.467876
43.1783,276.569,-0.467882
43.18,276.585,-0.467891
43.1817,276.602,-0.467897
43.1833,276.619,-0.467896
43.185,276.635,-0.467889
43.1867,276.652,-0.467874
43.1883,276.669,-0.467858
43.19,276.685,-0.467838
43.1917,276.702,-0.467819
43.1933,276.719,-0.467799
43.195,276.735,-0.467787
43.1967,276.752,-0.467779
43.1983,276.768,-0.46778
43.2,276.785,-0.467789
43.2017,276.801,-0.467801
43.2033,276.818,-0.467826
43.205,276.835,-0.467852
43.2067,276.851,-0.467876
43.2083,276.868,-0.467899
43.21,276.885,-0.467915
43.2117,276.901,-0.467931
43.2133,276.918,-0.467942
43.215,276.935,-0.467936
43.2167,276.951,-0.467927
43.2183,276.968,-0.467916
43.22,276.985,-0.467898
43.2217,277.001,-0.46788
43.2233,277.018,-0.467859
43.225,277.035,-0.467836
43.2267,277.051,-0.467819
43.2283,277.068,-0.467803
43.23,277.084,-0.46779
43.2317,277.101,-0.467784
43.2333,277.118,-0.467794
43.235,277.134,-0.467812
43.2367,277.151,-0.46783
43.2383,277.168,-0.467852
43.24,277.184,-0.467883
43.2417,277.201,-0.467924
43.2433,277.218,-0.467958
43.245,277.234,-0.467991
43.2467,277.251,-0.468015
43.2483,277.267,-0.468031
43.25,277.284,-0.468039
43.2517,277.3,-0.468046
43.2533,277.317,-0.468038
43.255,277.334,-0.46803
43.2567,277.35,-0.468013
43.2583,277.367,-0.467992
43.26,277.384,-0.467973
43.2617,277.401,-0.467956
43.2633,277.417,-0.467934
43.265,277.434,-0.467912
43.2667,277.451,-0.467897
43.2683,277.467,-0.467893
43.27,277.484,-0.467892
43.2717,277.501,-0.467893
43.2733,277.517,-0.467889
43.275,277.534,-0.467885
43.2767,277.551,-0.467875
43.2783,277.567,-0.467871
43.28,277.584,-0.46786
43.2817,277.601,-0.467845
43.2833,277.617,-0.467826
43.285,277.634,-0.467812
43.2867,277.65,-0.467802
43.2883,277.667,-0.46779
43.29,277.684,-0.46778
43.2917,277.7,-0.467776
43.2933,277.717,-0.46777
43.295,277.734,-0.467762
43.2967,277.75,-0.467756
43.2983,277.767,-0.467754
43.3,277.784,-0.467762
43.3017,277.801,-0.467772
43.3033,277.817,-0.467785
43.305,277.834,-0.467796
43.3067,277.85,-0.467803
43.3083,277.867,-0.467818
43.31,277.883,-0.467837
43.3117,277.9,-0.467855
43.3133,277.917,-0.467873
43.315,277.933,-0.467893
43.3167,277.95,-0.46791
43.3183,277.967,-0.467922
43.32,277.983,-0.467932
43.3217,278,-0.467931
43.3233,278.017,-0.467919
43.325,278.034,-0.467898
43.3267,278.05,-0.467874
43.3283,278.067,-0.467853
43.33,278.083,-0.467831
43.3317,278.1,-0.467822
43.3333,278.116,-0.467812
43.335,278.133,-0.467814
43.3367,278.15,-0.467819
43.3383,278.167,-0.467826
43.34,278.183,-0.467821
43.3417,278.2,-0.467821
43.3433,278.216,-0.467813
43.345,278.233,-0.467802
43.3467,278.25,-0.467792
43.3483,278.267,-0.467783
43.35,278.283,-0.467772
43.3517,278.3,-0.46776
43.3533,278.316,-0.467749
43.355,278.333,-0.467752
43.3567,278.35,-0.467757
43.3583,278.366,-0.467774
43.36,278.383,-0.467795
43.3617,278.399,-0.467823
43.3633,278.416,-0.467845
43.365,278.432,-0.467865
43.3667,278.449,-0.467875
43.3683,278.466,-0.467873
43.37,278.482,-0.467865
43.3717,278.499,-0.467855
43.3733,278.515,-0.467844
43.375,278.532,-0.467834
43.3767,278.549,-0.467822
43.3783,278.565,-0.467817
43.38,278.582,-0.467819
43.3817,278.599,-0.467829
43.3833,278.615,-0.467846
43.385,278.632,-0.467863
43.3867,278.649,-0.467876
43.3883,278.666,-0.46788
43.39,278.682,-0.467883
43.3917,278.698,-0.46789
43.3933,278.715,-0.467889
43.395,278.732,-0.46788
43.3967,278.749,-0.467881
43.3983,278.765,-0.467886
43.4,278.782,-0.467897
43.4017,278.798,-0.467907
43.4033,278.815,-0.467919
43.405,278.832,-0.467938
43.4067,278.849,-0.467954
43.4083,278.865,-0.467971
43.41,278.882,-0.467994
43.4117,278.899,-0.46802
43.4133,278.916,-0.468043
43.415,278.932,-0.468059
43.4167,278.949,-0.468071
43.4183,278.965,-0.468078
43.42,278.982,-0.468082
43.4217,278.998,-0.468078
43.4233,279.015,-0.468077
43.425,279.031,-0.468075
43.4267,279.048,-0.468078
43.4283,279.065,-0.468077
43.43,279.082,-0.468074
43.4317,279.098,-0.468081
43.4333,279.115,-0.468083
43.435,279.131,-0.468078
43.4367,279.148,-0.46807
43.4383,279.165,-0.468063
43.44,279.181,-0.468049
43.4417,279.198,-0.468041
43.4433,279.214,-0.468032
43.445,279.231,-0.468029
43.4467,279.248,-0.468028
43.4483,279.264,-0.468023
43.45,279.281,-0.46802
43.4517,279.298,-0.468016
43.4533,279.314,-0.468007
43.455,279.331,-0.468002
43.4567,279.348,-0.46801
43.4583,279.364,-0.468018
43.46,279.381,-0.468023
43.4617,279.398,-0.468027
43.4633,279.414,-0.468038
43.465,279.431,-0.468052
43.4667,279.448,-0.468062
43.4683,279.464,-0.468072
43.47,279.481,-0.46808
43.4717,279.498,-0.46809
43.4733,279.515,-0.468094
43.475,279.531,-0.468095
43.4767,279.548,-0.468088
43.4783,279.565,-0.46808
43.48,279.581,-0.468069
43.4817,279.598,-0.468055
43.4833,279.615,-0.468034
43.485,279.632,-0.468021
43.4867,279.648,-0.468011
43.4883,279.664,-0.468
43.49,279.681,-0.467988
43.4917,279.698,-0.467972
43.4933,279.714,-0.467952
43.495,279.731,-0.467935
43.4967,279.747,-0.467917
43.4983,279.764,-0.467908
43.5,279.781,-0.467909
43.5017,279.797,-0.46791
43.5033,279.814,-0.467923
43.505,279.83,-0.467944
43.5067,279.847,-0.467961
43.5083,279.864,-0.467977
43.51,279.881,-0.467991
43.5117,279.898,-0.468004
43.5133,279.914,-0.468023
43.515,279.93,-0.46804
43.5167,279.947,-0.468049
43.5183,279.964,-0.46806
43.52,279.98,-0.468066
43.5217,279.997,-0.468071
43.5233,280.014,-0.468076
43.525,280.031,-0.468078
43.5267,280.047,-0.46807
43.5283,280.064,-0.468061
43.53,280.081,-0.468053
43.5317,280.097,-0.468053
43.5333,280.114,-0.468055
43.535,280.13,-0.468062
43.5367,280.147,-0.468069
43.5383,280.164,-0.468077
43.54,280.18,-0.468076
43.5417,280.197,-0.468068
43.5433,280.214,-0.46806
43.545,280.23,-0.46805
43.5467,280.247,-0.468039
43.5483,280.264,-0.468033
43.55,280.28,-0.468023
43.5517,280.297,-0.468023
43.5533,280.313,-0.468023
43.555,280.33,-0.468023
43.5567,280.347,-0.468032
43.5583,280.363,-0.468048
43.56,280.38,-0.468065
43.5617,280.397,-0.468071
43.5633,280.413,-0.468073
43.565,280.43,-0.468071
43.5667,280.447,-0.468058
43.5683,280.463,-0.468047
43.57,280.479,-0.468038
43.5717,280.496,-0.468033
43.5733,280.513,-0.468026
43.575,280.53,-0.468031
43.5767,280.547,-0.468046
43.5783,280.563,-0.468068
43.58,280.58,-0.46809
43.5817,280.596,-0.468104
43.5833,280.613,-0.468108
43.585,280.63,-0.468116
43.5867,280.646,-0.468119
43.5883,280.663,-0.468121
43.59,280.679,-0.468122
43.5917,280.696,-0.468118
43.5933,280.713,-0.468113
43.595,280.73,-0.468108
43.5967,280.747,-0.468104
43.5983,280.763,-0.468102
43.6,280.78,-0.468091
43.6017,280.796,-0.468076
43.6033,280.813,-0.468064
43.605,280.83,-0.468059
43.6067,280.847,-0.468052
43.6083,280.863,-0.468048
43.61,280.879,-0.468049
43.6117,280.896,-0.468046
43.6133,280.913,-0.468047
43.615,280.929,-0.468048
43.6167,280.946,-0.468043
43.6183,280.963,-0.46804
43.62,280.98,-0.468036
43.6217,280.996,-0.468036
43.6233,281.013,-0.468039
43.625,281.03,-0.468039
43.6267,281.047,-0.468034
43.6283,281.063,-0.468034
43.63,281.08,-0.468046
43.6317,281.097,-0.468059
43.6333,281.113,-0.468074
43.635,281.13,-0.468079
43.6367,281.147,-0.468077
43.6383,281.163,-0.468075
43.64,281.18,-0.46807
43.6417,281.196,-0.468077
43.6433,281.213,-0.468089
43.645,281.23,-0.468094
43.6467,281.247,-0.468104
43.6483,281.263,-0.468119
43.65,281.28,-0.468129
43.6517,281.297,-0.468136
43.6533,281.313,-0.468139
43.655,281.33,-0.468138
43.6567,281.347,-0.46813
43.6583,281.363,-0.468122
43.66,281.38,-0.468113
43.6617,281.396,-0.468117
43.6633,281.413,-0.468122
43.665,281.43,-0.468127
43.6667,281.446,-0.468142
43.6683,281.463,-0.468149
43.67,281.479,-0.46816
43.6717,281.496,-0.46817
43.6733,281.513,-0.46818
43.675,281.529,-0.468194
43.6767,281.546,-0.468207
43.6783,281.563,-0.468218
43.68,281.579,-0.468232
43.6817,281.596,-0.468263
43.6833,281.613,-0.468295
43.685,281.629,-0.468324
43.6867,281.646,-0.468348
43.6883,281.663,-0.468374
43.69,281.679,-0.468393
43.6917,281.696,-0.468411
43.6933,281.713,-0.468429
43.695,281.729,-0.468437
43.6967,281.746,-0.468432
43.6983,281.763,-0.468431
43.7,281.78,-0.468435
43.7017,281.796,-0.468435
43.7033,281.813,-0.468436
43.705,281.829,-0.468436
43.7067,281.846,-0.468437
43.7083,281.863,-0.468441
43.71,281.879,-0.468449
43.7117,281.896,-0.46845
43.7133,281.912,-0.468458
43.715,281.929,-0.46846
43.7167,281.946,-0.468467
43.7183,281.962,-0.468474
43.72,281.979,-0.468477
43.7217,281.996,-0.468475
43.7233,282.012,-0.468469
43.725,282.029,-0.468461
43.7267,282.046,-0.468452
43.7283,282.062,-0.468449
43.73,282.079,-0.468444
43.7317,282.096,-0.46844
43.7333,282.112,-0.468433
43.735,282.129,-0.468434
43.7367,282.146,-0.468438
43.7383,282.163,-0.468438
43.74,282.179,-0.468439
43.7417,282.196,-0.468439
43.7433,282.213,-0.46844
43.745,282.229,-0.468439
43.7467,282.246,-0.46843
43.7483,282.262,-0.468418
43.75,282.279,-0.468421
43.7517,282.296,-0.468425
43.7533,282.312,-0.468431
43.755,282.329,-0.468435
43.7567,282.345,-0.468433
43.7583,282.362,-0.468422
43.76,282.379,-0.468415
43.7617,282.395,-0.468405
43.7633,282.412,-0.468398
43.765,282.429,-0.468383
43.7667,282.446,-0.468373
43.7683,282.462,-0.468374
43.77,282.479,-0.468383
43.7717,282.496,-0.468398
43.7733,282.512,-0.46841
43.775,282.529,-0.468409
43.7767,282.546,-0.468408
43.7783,282.562,-0.468405
43.78,282.579,-0.468398
43.7817,282.595,-0.468399
43.7833,282.612,-0.468405
43.785,282.629,-0.468431
43.7867,282.646,-0.468462
43.7883,282.662,-0.468496
43.79,282.679,-0.468544
43.7917,282.696,-0.468576
43.7933,282.712,-0.468607
43.795,282.729,-0.468635
43.7967,282.745,-0.468652
43.7983,282.762,-0.468668
43.8,282.778,-0.468675
43.8017,282.795,-0.468686
43.8033,282.812,-0.468699
43.805,282.828,-0.468707
43.8067,282.845,-0.468714
43.8083,282.862,-0.468715
43.81,282.879,-0.468715
43.8117,282.895,-0.468701
43.8133,282.912,-0.468679
43.815,282.929,-0.46866
43.8167,282.945,-0.468647
43.8183,282.962,-0.468635
43.82,282.979,-0.468637
43.8217,282.995,-0.46865
43.8233,283.012,-0.46867
43.825,283.029,-0.468705
43.8267,283.045,-0.468733
43.8283,283.062,-0.468767
43.83,283.078,-0.468795
43.8317,283.095,-0.468813
43.8333,283.112,-0.468831
43.835,283.128,-0.468849
43.8367,283.145,-0.468868
43.8383,283.162,-0.468878
43.84,283.178,-0.468885
43.8417,283.195,-0.468884
43.8433,283.212,-0.468876
43.845,283.228,-0.468869
43.8467,283.245,-0.468865
43.8483,283.262,-0.468861
43.85,283.278,-0.468853
43.8517,283.295,-0.468852
43.8533,283.311,-0.468856
43.855,283.328,-0.468864
43.8567,283.345,-0.468879
43.8583,283.361,-0.468897
43.86,283.378,-0.468921
43.8617,283.395,-0.468944
43.8633,283.412,-0.468968
43.865,283.428,-0.468985
43.8667,283.445,-0.468992
43.8683,283.462,-0.469002
43.87,283.479,-0.469009
43.8717,283.495,-0.469009
43.8733,283.512,-0.469009
43.875,283.529,-0.469013
43.8767,283.545,-0.46902
43.8783,283.562,-0.469034
43.88,283.579,-0.469041
43.8817,283.595,-0.469051
43.8833,283.612,-0.469059
43.885,283.628,-0.46906
43.8867,283.645,-0.469059
43.8883,283.661,-0.469054
43.89,283.678,-0.469048
43.8917,283.695,-0.469055
43.8933,283.711,-0.469062
43.895,283.728,-0.469062
43.8967,283.745,-0.469061
43.8983,283.762,-0.46906
43.9,283.778,-0.469063
43.9017,283.795,-0.469064
43.9033,283.811,-0.469069
43.905,283.828,-0.469085
43.9067,283.844,-0.469106
43.9083,283.861,-0.469129
43.91,283.878,-0.469151
43.9117,283.895,-0.469172
43.9133,283.911,-0.469193
43.915,283.928,-0.469213
43.9167,283.945,-0.469239
43.9183,283.961,-0.46926
43.92,283.978,-0.469276
43.9217,283.995,-0.469287
43.9233,284.011,-0.469292
43.925,284.028,-0.4693
43.9267,284.045,-0.469304
43.9283,284.061,-0.469315
43.93,284.078,-0.469323
43.9317,284.095,-0.469329
43.9333,284.112,-0.46932
43.935,284.129,-0.469314
43.9367,284.145,-0.469302
43.9383,284.161,-0.46929
43.94,284.178,-0.469275
43.9417,284.195,-0.469264
43.9433,284.211,-0.469251
43.945,284.228,-0.469243
43.9467,284.245,-0.469248
43.9483,284.261,-0.469258
43.95,284.278,-0.469274
43.9517,284.294,-0.469294
43.9533,284.311,-0.469322
43.955,284.328,-0.469342
43.9567,284.345,-0.46936
43.9583,284.361,-0.46938
43.96,284.378,-0.469402
43.9617,284.395,-0.469416
43.9633,284.411,-0.469422
43.965,284.428,-0.46943
43.9667,284.444,-0.469433
43.9683,284.461,-0.469432
43.97,284.478,-0.469427
43.9717,284.494,-0.469424
43.9733,284.511,-0.469422
43.975,284.527,-0.469419
43.9767,284.544,-0.46942
43.9783,284.561,-0.469417
43.98,284.578,-0.469415
43.9817,284.594,-0.469412
43.9833,284.611,-0.469409
43.985,284.628,-0.469405
43.9867,284.644,-0.469408
43.9883,284.661,-0.469411
43.99,284.678,-0.469422
43.9917,284.694,-0.469426
43.9933,284.711,-0.469433
43.995,284.728,-0.469445
43.9967,284.744,-0.469464
43.9983,284.761,-0.469488
44,284.778,-0.469514
44.0017,284.794,-0.469544
44.0033,284.811,-0.469581
44.005,284.828,-0.469615
44.0067,284.844,-0.469646
44.0083,284.861,-0.469666
44.01,284.878,-0.46967
44.0117,284.895,-0.469673
44.0133,284.911,-0.469665
44.015,284.927,-0.469651
44.0167,284.944,-0.46964
44.0183,284.961,-0.469627
44.02,284.978,-0.469612
44.0217,284.994,-0.469595
44.0233,285.011,-0.46958
44.025,285.027,-0.469562
44.0267,285.044,-0.469545
44.0283,285.061,-0.469538
44.03,285.077,-0.469533
44.0317,285.094,-0.469532
44.0333,285.11,-0.469542
44.035,285.127,-0.469559
44.0367,285.144,-0.469582
44.0383,285.161,-0.469611
44.04,285.177,-0.469644
44.0417,285.194,-0.469676
44.0433,285.211,-0.469711
44.045,285.227,-0.469736
44.0467,285.244,-0.469755
44.0483,285.26,-0.46977
44.05,285.277,-0.469773
44.0517,285.294,-0.469769
44.0533,285.311,-0.469766
44.055,285.327,-0.469769
44.0567,285.344,-0.469773
44.0583,285.361,-0.469774
44.06,285.377,-0.469781
44.0617,285.394,-0.469793
44.0633,285.411,-0.469804
44.065,285.427,-0.469814
44.0667,285.444,-0.46982
44.0683,285.461,-0.469825
44.07,285.477,-0.469826
44.0717,285.494,-0.469817
44.0733,285.511,-0.469803
44.075,285.527,-0.469789
44.0767,285.544,-0.469773
44.0783,285.56,-0.469761
44.08,285.577,-0.469749
44.0817,285.594,-0.469737
44.0833,285.611,-0.469728
44.085,285.627,-0.469723
44.0867,285.644,-0.469728
44.0883,285.661,-0.469742
44.09,285.677,-0.469756
44.0917,285.693,-0.469783
44.0933,285.71,-0.469817
44.095,285.727,-0.469849
44.0967,285.743,-0.469881
44.0983,285.76,-0.469904
44.1,285.777,-0.469922
44.1017,285.793,-0.469935
44.1033,285.81,-0.469941
44.105,285.827,-0.469948
44.1067,285.844,-0.469962
44.1083,285.86,-0.469978
44.11,285.876,-0.469997
44.1117,285.893,-0.470019
44.1133,285.91,-0.470046
44.115,285.926,-0.470068
44.1167,285.943,-0.47009
44.1183,285.96,-0.470107
44.12,285.976,-0.470122
44.1217,285.993,-0.470135
44.1233,286.01,-0.470146
44.125,286.026,-0.470163
44.1267,286.043,-0.470175
44.1283,286.059,-0.470186
44.13,286.076,-0.470204
44.1317,286.093,-0.470223
44.1333,286.11,-0.470238
44.135,286.126,-0.470245
44.1367,286.143,-0.470259
44.1383,286.16,-0.47027
44.14,286.176,-0.470286
44.1417,286.193,-0.470306
44.1433,286.209,-0.470328
44.145,286.226,-0.470346
44.1467,286.243,-0.470359
44.1483,286.259,-0.47038
44.15,286.276,-0.470397
44.1517,286.292,-0.470416
44.1533,286.309,-0.470421
44.155,286.326,-0.47042
44.1567,286.343,-0.470418
44.1583,286.359,-0.47041
44.16,286.376,-0.4704
44.1617,286.393,-0.470392
44.1633,286.409,-0.470383
44.165,286.426,-0.470384
44.1667,286.442,-0.470392
44.1683,286.459,-0.470408
44.17,286.476,-0.470428
44.1717,286.492,-0.470453
44.1733,286.509,-0.470481
44.175,286.526,-0.470504
44.1767,286.542,-0.47053
44.1783,286.559,-0.470561
44.18,286.576,-0.47059
44.1817,286.592,-0.470617
44.1833,286.609,-0.470641
44.185,286.626,-0.47066
44.1867,286.642,-0.470671
44.1883,286.659,-0.470679
44.19,286.676,-0.470687
44.1917,286.692,-0.470698
44.1933,286.709,-0.470712
44.195,286.726,-0.470724
44.1967,286.743,-0.470734
44.1983,286.759,-0.470753
44.2,286.776,-0.470769
44.2017,286.792,-0.470785
44.2033,286.809,-0.4708
44.205,286.826,-0.470811
44.2067,286.842,-0.470817
44.2083,286.859,-0.470826
44.21,286.875,-0.470841
44.2117,286.892,-0.470868
44.2133,286.909,-0.470903
44.215,286.925,-0.470943
44.2167,286.942,-0.470982
44.2183,286.959,-0.47102
44.22,286.975,-0.471056
44.2217,286.992,-0.471088
44.2233,287.009,-0.471116
44.225,287.025,-0.471136
44.2267,287.042,-0.471149
44.2283,287.059,-0.47116
44.23,287.076,-0.471171
44.2317,287.092,-0.471183
44.2333,287.109,-0.471194
44.235,287.125,-0.471212
44.2367,287.142,-0.471238
44.2383,287.158,-0.471257
44.24,287.175,-0.47128
44.2417,287.192,-0.471308
44.2433,287.208,-0.471339
44.245,287.225,-0.471364
44.2467,287.242,-0.471386
44.2483,287.258,-0.471414
44.25,287.275,-0.471441
44.2517,287.292,-0.47147
44.2533,287.309,-0.471504
44.255,287.325,-0.471542
44.2567,287.342,-0.471583
44.2583,287.359,-0.47162
44.26,287.375,-0.471655
44.2617,287.392,-0.471685
44.2633,287.408,-0.471715
44.265,287.425,-0.471743
44.2667,287.442,-0.471774
44.2683,287.458,-0.471796
44.27,287.475,-0.471825
44.2717,287.491,-0.471851
44.2733,287.508,-0.47187
44.275,287.525,-0.471886
44.2767,287.542,-0.471898
44.2783,287.558,-0.471911
44.28,287.575,-0.471923
44.2817,287.591,-0.47193
44.2833,287.608,-0.471941
44.285,287.625,-0.471947
44.2867,287.641,-0.471961
44.2883,287.658,-0.471971
44.29,287.674,-0.471987
44.2917,287.691,-0.472012
44.2933,287.708,-0.47204
44.295,287.725,-0.472074
44.2967,287.741,-0.472109
44.2983,287.758,-0.472141
44.3,287.774,-0.472174
44.3017,287.791,-0.472212
44.3033,287.808,-0.472249
44.305,287.825,-0.472292
44.3067,287.841,-0.472331
44.3083,287.858,-0.472365
44.31,287.874,-0.472402
44.3117,287.891,-0.472442
44.3133,287.908,-0.472493
44.315,287.924,-0.472541
44.3167,287.941,-0.472576
44.3183,287.957,-0.4726
44.32,287.974,-0.472621
44.3217,287.991,-0.472637
44.3233,288.008,-0.472647
44.325,288.024,-0.472647
44.3267,288.041,-0.472642
44.3283,288.057,-0.472641
44.33,288.074,-0.472643
44.3317,288.091,-0.472654
44.3333,288.107,-0.472667
44.335,288.124,-0.472679
44.3367,288.141,-0.472697
44.3383,288.157,-0.472716
44.34,288.174,-0.472736
44.3417,288.191,-0.472758
44.3433,288.207,-0.472784
44.345,288.224,-0.472813
44.3467,288.24,-0.472848
44.3483,288.257,-0.472891
44.35,288.274,-0.472934
44.3517,288.29,-0.472987
44.3533,288.307,-0.473042
44.355,288.324,-0.473089
44.3567,288.34,-0.473129
44.3583,288.357,-0.473162
44.36,288.374,-0.47319
44.3617,288.39,-0.473219
44.3633,288.407,-0.473245
44.365,288.424,-0.473269
44.3667,288.44,-0.473297
44.3683,288.457,-0.473321
44.37,288.473,-0.473341
44.3717,288.49,-0.473359
44.3733,288.507,-0.473386
44.375,288.524,-0.473413
44.3767,288.54,-0.473435
44.3783,288.557,-0.473463
44.38,288.573,-0.473497
44.3817,288.59,-0.473533
44.3833,288.607,-0.473567
44.385,288.623,-0.473614
44.3867,288.64,-0.473661
44.3883,288.656,-0.473707
44.39,288.673,-0.473752
44.3917,288.689,-0.473795
44.3933,288.707,-0.473843
44.395,288.723,-0.473888
44.3967,288.74,-0.473937
44.3983,288.757,-0.473985
44.4,288.774,-0.474025
44.4017,288.79,-0.474058
44.4033,288.807,-0.474085
44.405,288.823,-0.474108
44.4067,288.84,-0.474117
44.4083,288.856,-0.474123
44.41,288.873,-0.474122
44.4117,288.89,-0.474124
44.4133,288.907,-0.474134
44.415,288.923,-0.474152
44.4167,288.94,-0.474172
44.4183,288.957,-0.474199
44.42,288.973,-0.474235
44.4217,288.99,-0.474278
44.4233,289.006,-0.47433
44.425,289.023,-0.474406
44.4267,289.04,-0.474484
44.4283,289.057,-0.474547
44.43,289.073,-0.474608
44.4317,289.09,-0.474684
44.4333,289.107,-0.474773
44.435,289.124,-0.474835
44.4367,289.14,-0.474879
44.4383,289.157,-0.474918
44.44,289.173,-0.474953
44.4417,289.19,-0.474985
44.4433,289.206,-0.475009
44.445,289.223,-0.475029
44.4467,289.24,-0.475048
44.4483,289.256,-0.475065
44.45,289.273,-0.47508
44.4517,289.29,-0.475097
44.4533,289.306,-0.475112
44.455,289.323,-0.475133
44.4567,289.34,-0.475149
44.4583,289.356,-0.475166
44.46,289.373,-0.47519
44.4617,289.39,-0.475222
44.4633,289.406,-0.475254
44.465,289.423,-0.475289
44.4667,289.44,-0.475325
44.4683,289.456,-0.475362
44.47,289.473,-0.475396
44.4717,289.49,-0.475428
44.4733,289.506,-0.475466
44.475,289.523,-0.4755
44.4767,289.539,-0.475537
44.4783,289.556,-0.475578
44.48,289.573,-0.475623
44.4817,289.589,-0.475673
44.4833,289.606,-0.475725
44.485,289.623,-0.47578
44.4867,289.64,-0.475827
44.4883,289.656,-0.475874
44.49,289.673,-0.475911
44.4917,289.689,-0.475951
44.4933,289.706,-0.475984
44.495,289.723,-0.47601
44.4967,289.739,-0.476032
44.4983,289.756,-0.476051
44.5,289.773,-0.476066
44.5017,289.789,-0.476076
44.5033,289.806,-0.476097
44.505,289.822,-0.476124
44.5067,289.839,-0.476162
44.5083,289.856,-0.476207
44.51,289.872,-0.476259
44.5117,289.889,-0.476314
44.5133,289.906,-0.476362
44.515,289.922,-0.476404
44.5167,289.939,-0.476447
44.5183,289.956,-0.476476
44.52,289.972,-0.476503
44.5217,289.989,-0.476528
44.5233,290.005,-0.476558
44.525,290.022,-0.476588
44.5267,290.039,-0.476625
44.5283,290.055,-0.476666
44.53,290.072,-0.476712
44.5317,290.089,-0.476761
44.5333,290.105,-0.4768
44.535,290.122,-0.476843
44.5367,290.139,-0.476882
44.5383,290.155,-0.476915
44.54,290.172,-0.476941
44.5417,290.188,-0.476965
44.5433,290.205,-0.476993
44.545,290.222,-0.477021
44.5467,290.239,-0.477055
44.5483,290.255,-0.477085
44.55,290.272,-0.477115
44.5517,290.289,-0.477149
44.5533,290.306,-0.477188
44.555,290.322,-0.477223
44.5567,290.339,-0.47725
44.5583,290.355,-0.477273
44.56,290.372,-0.477296
44.5617,290.389,-0.477318
44.5633,290.406,-0.477344
44.565,290.422,-0.477371
44.5667,290.439,-0.477393
44.5683,290.455,-0.477418
44.57,290.472,-0.477442
44.5717,290.488,-0.477466
44.5733,290.505,-0.47749
44.575,290.522,-0.477522
44.5767,290.538,-0.477545
44.5783,290.555,-0.477576
44.58,290.572,-0.477614
44.5817,290.588,-0.477658
44.5833,290.605,-0.477701
44.585,290.622,-0.477753
44.5867,290.638,-0.477803
44.5883,290.655,-0.477851
44.59,290.672,-0.477899
44.5917,290.688,-0.477943
44.5933,290.705,-0.477984
44.595,290.722,-0.478025
44.5967,290.738,-0.478064
44.5983,290.755,-0.478103
44.6,290.772,-0.478135
44.6017,290.789,-0.478162
44.6033,290.805,-0.478193
44.605,290.822,-0.478227
44.6067,290.839,-0.478264
44.6083,290.856,-0.478305
44.61,290.872,-0.478352
44.6117,290.889,-0.478399
44.6133,290.905,-0.478448
44.615,290.922,-0.478496
44.6167,290.939,-0.478537
44.6183,290.955,-0.478587
44.62,290.972,-0.47863
44.6217,290.989,-0.478671
44.6233,291.006,-0.478712
44.625,291.022,-0.478748
44.6267,291.039,-0.478784
44.6283,291.055,-0.478817
44.63,291.072,-0.478851
44.6317,291.089,-0.478883
44.6333,291.105,-0.478914
44.635,291.122,-0.47895
44.6367,291.138,-0.478998
44.6383,291.155,-0.479051
44.64,291.172,-0.479101
44.6417,291.189,-0.479144
44.6433,291.205,-0.479182
44.645,291.222,-0.479222
44.6467,291.239,-0.479261
44.6483,291.255,-0.47929
44.65,291.272,-0.479319
44.6517,291.289,-0.47935
44.6533,291.305,-0.479387
44.655,291.322,-0.479424
44.6567,291.338,-0.479466
44.6583,291.355,-0.479506
44.66,291.372,-0.479541
44.6617,291.388,-0.479573
44.6633,291.405,-0.479603
44.665,291.422,-0.479644
44.6667,291.439,-0.479689
44.6683,291.455,-0.479733
44.67,291.472,-0.479781
44.6717,291.488,-0.479831
44.6733,291.505,-0.479878
44.675,291.522,-0.479928
44.6767,291.538,-0.479971
44.6783,291.555,-0.480011
44.68,291.572,-0.480042
44.6817,291.588,-0.480067
44.6833,291.605,-0.480093
44.685,291.622,-0.480121
44.6867,291.638,-0.48016
44.6883,291.655,-0.480195
44.69,291.671,-0.480226
44.6917,291.688,-0.480261
44.6933,291.705,-0.480291
44.695,291.721,-0.480323
44.6967,291.738,-0.480357
44.6983,291.755,-0.48039
44.7,291.771,-0.480411
44.7017,291.788,-0.480428
44.7033,291.805,-0.480454
44.705,291.821,-0.480482
44.7067,291.838,-0.480507
44.7083,291.854,-0.480528
44.71,291.871,-0.480549
44.7117,291.888,-0.480576
44.7133,291.904,-0.480604
44.715,291.921,-0.480638
44.7167,291.938,-0.480673
44.7183,291.955,-0.480701
44.72,291.971,-0.480735
44.7217,291.988,-0.480761
44.7233,292.005,-0.480791
44.725,292.021,-0.480822
44.7267,292.038,-0.480848
44.7283,292.054,-0.480872
44.73,292.071,-0.4809
44.7317,292.088,-0.480921
44.7333,292.105,-0.480948
44.735,292.121,-0.480973
44.7367,292.138,-0.481007
44.7383,292.154,-0.481047
44.74,292.171,-0.481091
44.7417,292.188,-0.481135
44.7433,292.204,-0.481176
44.745,292.221,-0.481219
44.7467,292.238,-0.481263
44.7483,292.254,-0.481309
44.75,292.271,-0.481355
44.7517,292.287,-0.481398
44.7533,292.304,-0.481438
44.755,292.321,-0.481476
44.7567,292.337,-0.481509
44.7583,292.354,-0.48154
44.76,292.37,-0.481568
44.7617,292.387,-0.481592
44.7633,292.404,-0.481613
44.765,292.421,-0.481638
44.7667,292.438,-0.481664
44.7683,292.454,-0.48169
44.77,292.471,-0.481723
44.7717,292.487,-0.481752
44.7733,292.504,-0.481783
44.775,292.521,-0.481814
44.7767,292.537,-0.481843
44.7783,292.554,-0.48187
44.78,292.571,-0.481897
44.7817,292.587,-0.481929
44.7833,292.605,-0.481957
44.785,292.621,-0.481986
44.7867,292.638,-0.48202
44.7883,292.655,-0.48205
44.79,292.671,-0.482077
44.7917,292.688,-0.482103
44.7933,292.704,-0.482133
44.795,292.721,-0.482163
44.7967,292.737,-0.482194
44.7983,292.754,-0.482222
44.8,292.771,-0.482251
44.8017,292.787,-0.482279
44.8033,292.804,-0.482301
44.805,292.821,-0.482321
44.8067,292.837,-0.482344
44.8083,292.854,-0.482364
44.81,292.87,-0.482382
44.8117,292.887,-0.482411
44.8133,292.904,-0.48244
44.815,292.921,-0.482469
44.8167,292.937,-0.482509
44.8183,292.954,-0.482549
44.82,292.971,-0.482587
44.8217,292.988,-0.482621
44.8233,293.004,-0.482655
44.825,293.021,-0.482691
44.8267,293.037,-0.482738
44.8283,293.054,-0.482789
44.83,293.071,-0.482839
44.8317,293.087,-0.482882
44.8333,293.104,-0.482923
44.835,293.121,-0.482957
44.8367,293.138,-0.483001
44.8383,293.154,-0.48304
44.84,293.171,-0.483076
44.8417,293.187,-0.483116
44.8433,293.204,-0.483157
44.845,293.221,-0.483191
44.8467,293.238,-0.483228
44.8483,293.254,-0.483263
44.85,293.271,-0.483295
44.8517,293.288,-0.483321
44.8533,293.304,-0.483347
44.855,293.321,-0.483377
44.8567,293.337,-0.483407
44.8583,293.354,-0.483438
44.86,293.371,-0.483471
44.8617,293.387,-0.483505
44.8633,293.404,-0.483532
44.865,293.421,-0.483561
44.8667,293.437,-0.483588
44.8683,293.454,-0.483621
44.87,293.471,-0.483659
44.8717,293.487,-0.483698
44.8733,293.504,-0.483728
44.875,293.521,-0.483757
44.8767,293.537,-0.483787
44.8783,293.554,-0.483818
44.88,293.571,-0.483848
44.8817,293.588,-0.483881
44.8833,293.605,-0.483912
44.885,293.621,-0.483946
44.8867,293.638,-0.483982
44.8883,293.654,-0.484017
44.89,293.671,-0.484045
44.8917,293.688,-0.484069
44.8933,293.704,-0.484086
44.895,293.721,-0.484104
44.8967,293.737,-0.484126
44.8983,293.754,-0.48415
44.9,293.771,-0.484173
44.9017,293.787,-0.484199
44.9033,293.804,-0.484229
44.905,293.821,-0.484257
44.9067,293.838,-0.484284
44.9083,293.854,-0.484308
44.91,293.871,-0.484327
44.9117,293.888,-0.484336
44.9133,293.904,-0.484345
44.915,293.921,-0.484353
44.9167,293.938,-0.484373
44.9183,293.954,-0.484404
44.92,293.971,-0.484442
44.9217,293.988,-0.484485
44.9233,294.005,-0.484524
44.925,294.021,-0.484564
44.9267,294.037,-0.484604
44.9283,294.054,-0.484638
44.93,294.071,-0.484663
44.9317,294.088,-0.484681
44.9333,294.104,-0.484701
44.935,294.121,-0.484721
44.9367,294.138,-0.484747
44.9383,294.154,-0.484777
44.94,294.171,-0.484804
44.9417,294.187,-0.48483
44.9433,294.204,-0.484862
44.945,294.221,-0.484893
44.9467,294.238,-0.484927
44.9483,294.254,-0.484954
44.95,294.271,-0.48497
44.9517,294.288,-0.484987
44.9533,294.304,-0.484999
44.955,294.321,-0.485007
44.9567,294.337,-0.485012
44.9583,294.354,-0.485025
44.96,294.371,-0.485031
44.9617,294.387,-0.485041
44.9633,294.404,-0.485052
44.965,294.421,-0.485072
44.9667,294.437,-0.485089
44.9683,294.454,-0.48512
44.97,294.47,-0.485153
44.9717,294.487,-0.485186
44.9733,294.504,-0.485227
44.975,294.52,-0.485267
44.9767,294.537,-0.485312
44.9783,294.554,-0.485353
44.98,294.57,-0.485394
44.9817,294.587,-0.485424
44.9833,294.604,-0.485453
44.985,294.621,-0.485486
44.9867,294.637,-0.485513
44.9883,294.654,-0.485526
44.99,294.671,-0.485533
44.9917,294.687,-0.485541
44.9933,294.704,-0.485553
44.995,294.721,-0.485566
44.9967,294.737,-0.485576
44.9983,294.754,-0.485593
45,294.771,-0.485618
45.0017,294.787,-0.485646
45.0033,294.804,-0.485682
45.005,294.821,-0.485709
45.0067,294.838,-0.485735
45.0083,294.854,-0.485759
45.01,294.871,-0.485773
45.0117,294.887,-0.485765
45.0133,294.904,-0.48575
45.015,294.921,-0.485724
45.0167,294.937,-0.485694
45.0183,294.954,-0.485677
45.02,294.971,-0.485675
45.0217,294.988,-0.48568
45.0233,295.005,-0.485689
45.025,295.021,-0.485717
45.0267,295.038,-0.485758
45.0283,295.055,-0.4858
45.03,295.071,-0.485846
45.0317,295.088,-0.485901
45.0333,295.104,-0.485947
45.035,295.121,-0.485991
45.0367,295.138,-0.486036
45.0383,295.155,-0.486076
45.04,295.172,-0.486117
45.0417,295.188,-0.486151
45.0433,295.205,-0.48617
45.045,295.221,-0.486194
45.0467,295.238,-0.486226
45.0483,295.255,-0.486255
45.05,295.271,-0.48629
45.0517,295.288,-0.48632
45.0533,295.304,-0.486345
45.055,295.321,-0.486376
45.0567,295.338,-0.486406
45.0583,295.354,-0.486439
45.06,295.371,-0.486464
45.0617,295.388,-0.486486
45.0633,295.405,-0.486502
45.065,295.421,-0.486522
45.0667,295.438,-0.486546
45.0683,295.454,-0.486575
45.07,295.471,-0.486608
45.0717,295.488,-0.486646
45.0733,295.504,-0.486682
45.075,295.521,-0.486716
45.0767,295.538,-0.486737
45.0783,295.555,-0.486752
45.08,295.571,-0.486763
45.0817,295.588,-0.486775
45.0833,295.604,-0.486788
45.085,295.622,-0.486803
45.0867,295.638,-0.48682
45.0883,295.654,-0.486863
45.09,295.671,-0.486916
45.0917,295.688,-0.486985
45.0933,295.705,-0.487044
45.095,295.722,-0.487098
45.0967,295.738,-0.487143
45.0983,295.755,-0.487181
45.1,295.771,-0.487208
45.1017,295.788,-0.487222
45.1033,295.805,-0.487223
45.105,295.821,-0.487222
45.1067,295.838,-0.487222
45.1083,295.855,-0.487215
45.11,295.871,-0.487213
45.1117,295.888,-0.487222
45.1133,295.905,-0.487236
45.115,295.921,-0.487243
45.1167,295.938,-0.487257
45.1183,295.954,-0.487267
45.12,295.971,-0.487284
45.1217,295.988,-0.487307
45.1233,296.005,-0.487327
45.125,296.021,-0.48735
45.1267,296.038,-0.487377
45.1283,296.055,-0.487407
45.13,296.072,-0.487436
45.1317,296.088,-0.487464
45.1333,296.105,-0.487486
45.135,296.121,-0.487514
45.1367,296.138,-0.487536
45.1383,296.154,-0.487551
45.14,296.171,-0.487561
45.1417,296.188,-0.487563
45.1433,296.204,-0.487565
45.145,296.221,-0.487568
45.1467,296.237,-0.487565
45.1483,296.254,-0.487567
45.15,296.271,-0.487574
45.1517,296.288,-0.487588
45.1533,296.305,-0.487611
45.155,296.321,-0.487641
45.1567,296.338,-0.487669
45.1583,296.355,-0.487693
45.16,296.371,-0.487713
45.1617,296.388,-0.487725
45.1633,296.405,-0.487738
45.165,296.421,-0.487746
45.1667,296.437,-0.487746
45.1683,296.454,-0.487745
45.17,296.471,-0.487751
45.1717,296.488,-0.48776
45.1733,296.505,-0.487775
45.175,296.521,-0.48779
45.1767,296.537,-0.487806
45.1783,296.554,-0.487821
45.18,296.571,-0.487842
45.1817,296.588,-0.487867
45.1833,296.604,-0.487891
45.185,296.621,-0.487911
45.1867,296.637,-0.487931
45.1883,296.653,-0.487957
45.19,296.67,-0.487985
45.1917,296.687,-0.488009
45.1933,296.703,-0.488021
45.195,296.72,-0.488036
45.1967,296.737,-0.488049
45.1983,296.754,-0.488056
45.2,296.771,-0.48806
45.2017,296.787,-0.488055
45.2033,296.804,-0.488051
45.205,296.821,-0.488054
45.2067,296.837,-0.488059
45.2083,296.854,-0.488061
45.21,296.87,-0.488063
45.2117,296.887,-0.488063
45.2133,296.904,-0.488069
45.215,296.921,-0.488079
45.2167,296.937,-0.488088
45.2183,296.954,-0.488098
45.22,296.971,-0.488105
45.2217,296.988,-0.488117
45.2233,297.004,-0.488134
45.225,297.021,-0.488151
45.2267,297.037,-0.488173
45.2283,297.054,-0.488196
45.23,297.071,-0.488216
45.2317,297.087,-0.488238
45.2333,297.104,-0.488264
45.235,297.121,-0.488292
45.2367,297.137,-0.488319
45.2383,297.154,-0.48833
45.24,297.171,-0.488344
45.2417,297.187,-0.488354
45.2433,297.204,-0.488365
45.245,297.221,-0.48837
45.2467,297.237,-0.488366
45.2483,297.254,-0.488365
45.25,297.271,-0.488359
45.2517,297.288,-0.488355
45.2533,297.304,-0.488363
45.255,297.321,-0.488379
45.2567,297.338,-0.488399
45.2583,297.354,-0.488418
45.26,297.371,-0.488449
45.2617,297.387,-0.488484
45.2633,297.404,-0.488522
45.265,297.42,-0.488555
45.2667,297.437,-0.488583
45.2683,297.454,-0.488602
45.27,297.47,-0.488612
45.2717,297.487,-0.488623
45.2733,297.504,-0.488632
45.275,297.521,-0.488642
45.2767,297.537,-0.488658
45.2783,297.554,-0.488675
45.28,297.571,-0.488703
45.2817,297.587,-0.488732
45.2833,297.604,-0.488766
45.285,297.621,-0.488806
45.2867,297.637,-0.48884
45.2883,297.654,-0.488872
45.29,297.671,-0.488901
45.2917,297.688,-0.488927
45.2933,297.704,-0.48895
45.295,297.721,-0.488981
45.2967,297.738,-0.489014
45.2983,297.754,-0.48905
45.3,297.771,-0.489077
45.3017,297.787,-0.489108
45.3033,297.804,-0.489136
45.305,297.821,-0.489162
45.3067,297.838,-0.489186
45.3083,297.854,-0.489207
45.31,297.871,-0.489227
45.3117,297.888,-0.489245
45.3133,297.904,-0.489271
45.315,297.921,-0.489301
45.3167,297.937,-0.489328
45.3183,297.954,-0.489341
45.32,297.971,-0.489342
45.3217,297.987,-0.489337
45.3233,298.004,-0.489331
45.325,298.02,-0.489322
45.3267,298.037,-0.48931
45.3283,298.054,-0.489306
45.33,298.071,-0.489318
45.3317,298.088,-0.489339
45.3333,298.104,-0.489369
45.335,298.121,-0.489407
45.3367,298.137,-0.489447
45.3383,298.154,-0.489493
45.34,298.171,-0.489522
45.3417,298.187,-0.489548
45.3433,298.204,-0.489572
45.345,298.221,-0.489593
45.3467,298.238,-0.489613
45.3483,298.254,-0.489639
45.35,298.271,-0.489655
45.3517,298.288,-0.489661
45.3533,298.304,-0.489668
45.355,298.321,-0.489678
45.3567,298.337,-0.489696
45.3583,298.354,-0.489712
45.36,298.371,-0.489728
45.3617,298.387,-0.489735
45.3633,298.404,-0.489741
45.365,298.421,-0.489741
45.3667,298.437,-0.489749
45.3683,298.454,-0.489754
45.37,298.471,-0.489757
45.3717,298.487,-0.489767
45.3733,298.503,-0.489787
45.375,298.52,-0.489817
45.3767,298.537,-0.489851
45.3783,298.554,-0.489894
45.38,298.571,-0.489932
45.3817,298.587,-0.489969
45.3833,298.604,-0.490003
45.385,298.621,-0.490032
45.3867,298.637,-0.490056
45.3883,298.654,-0.490077
45.39,298.67,-0.490094
45.3917,298.688,-0.490104
45.3933,298.704,-0.490107
45.395,298.72,-0.49011
45.3967,298.737,-0.490109
45.3983,298.754,-0.490121
45.4,298.771,-0.490137
45.4017,298.788,-0.49015
45.4033,298.804,-0.49017
45.405,298.821,-0.490199
45.4067,298.837,-0.490229
45.4083,298.854,-0.49026
45.41,298.871,-0.490293
45.4117,298.887,-0.490318
45.4133,298.904,-0.49034
45.415,298.92,-0.490356
45.4167,298.937,-0.490358
45.4183,298.954,-0.490368
45.42,298.971,-0.490378
45.4217,298.988,-0.490391
45.4233,299.004,-0.4904
45.425,299.021,-0.490407
45.4267,299.038,-0.490412
45.4283,299.054,-0.490407
45.43,299.071,-0.490406
45.4317,299.087,-0.490408
45.4333,299.104,-0.490408
45.435,299.121,-0.490406
45.4367,299.137,-0.490402
45.4383,299.154,-0.490405
45.44,299.17,-0.490409
45.4417,299.187,-0.490421
45.4433,299.204,-0.490444
45.445,299.221,-0.490472
45.4467,299.238,-0.490498
45.4483,299.254,-0.490532
45.45,299.271,-0.490563
45.4517,299.287,-0.490589
45.4533,299.304,-0.490604
45.455,299.321,-0.490609
45.4567,299.338,-0.490608
45.4583,299.354,-0.490608
45.46,299.371,-0.49061
45.4617,299.388,-0.490608
45.4633,299.404,-0.490612
45.465,299.421,-0.490624
45.4667,299.437,-0.490644
45.4683,299.454,-0.490659
45.47,299.47,-0.490681
45.4717,299.487,-0.490698
45.4733,299.504,-0.490718
45.475,299.52,-0.490751
45.4767,299.536,-0.490786
45.4783,299.553,-0.490814
45.48,299.57,-0.49084
45.4817,299.587,-0.490865
45.4833,299.604,-0.490887
45.485,299.62,-0.4909
45.4867,299.637,-0.490909
45.4883,299.654,-0.490916
45.49,299.67,-0.490918
45.4917,299.687,-0.490925
45.4933,299.704,-0.490939
45.495,299.721,-0.490953
45.4967,299.737,-0.49097
45.4983,299.754,-0.49098
45.5,299.77,-0.49099
45.5017,299.787,-0.490998
45.5033,299.804,-0.490993
45.505,299.82,-0.490991
45.5067,299.837,-0.490987
45.5083,299.854,-0.490985
45.51,299.87,-0.490985
45.5117,299.887,-0.490989
45.5133,299.904,-0.491004
45.515,299.921,-0.491015
45.5167,299.937,-0.491025
45.5183,299.954,-0.491038
45.52,299.97,-0.491047
45.5217,299.987,-0.49105
45.5233,300.004,-0.49105
45.525,300.021,-0.491045
45.5267,300.037,-0.491044
45.5283,300.054,-0.491046
45.53,300.07,-0.491054
45.5317,300.087,-0.491062
45.5333,300.104,-0.491068
45.535,300.121,-0.491074
45.5367,300.137,-0.491084
45.5383,300.154,-0.491103
45.54,300.17,-0.491125
45.5417,300.187,-0.491142
45.5433,300.204,-0.491161
45.545,300.22,-0.491178
45.5467,300.237,-0.491197
45.5483,300.254,-0.491222
45.55,300.271,-0.491241
45.5517,300.288,-0.491262
45.5533,300.305,-0.491287
45.555,300.321,-0.49131
45.5567,300.338,-0.49134
45.5583,300.354,-0.491365
45.56,300.371,-0.491382
45.5617,300.387,-0.4914
45.5633,300.404,-0.49142
45.565,300.421,-0.491442
45.5667,300.437,-0.491461
45.5683,300.454,-0.491492
45.57,300.471,-0.491524
45.5717,300.487,-0.491548
45.5733,300.504,-0.491562
45.575,300.521,-0.491583
45.5767,300.537,-0.491601
45.5783,300.554,-0.491613
45.58,300.571,-0.491627
45.5817,300.587,-0.491648
45.5833,300.604,-0.491666
45.585,300.62,-0.491683
45.5867,300.637,-0.491703
45.5883,300.653,-0.491729
45.59,300.67,-0.491752
45.5917,300.687,-0.491768
45.5933,300.704,-0.491782
45.595,300.721,-0.491794
45.5967,300.738,-0.491802
45.5983,300.754,-0.49181
45.6,300.771,-0.491815
45.6017,300.788,-0.491811
45.6033,300.804,-0.491804
45.605,300.821,-0.491799
45.6067,300.837,-0.491796
45.6083,300.854,-0.491791
45.61,300.871,-0.491779
45.6117,300.887,-0.491764
45.6133,300.904,-0.491753
45.615,300.921,-0.491739
45.6167,300.937,-0.491723
45.6183,300.954,-0.491704
45.62,300.971,-0.491691
45.6217,300.987,-0.491692
45.6233,301.004,-0.491705
45.625,301.021,-0.491725
45.6267,301.037,-0.491743
45.6283,301.054,-0.491763
45.63,301.071,-0.491786
45.6317,301.087,-0.491813
45.6333,301.104,-0.49183
45.635,301.12,-0.491846
45.6367,301.137,-0.491862
45.6383,301.154,-0.491875
45.64,301.17,-0.491887
45.6417,301.187,-0.491892
45.6433,301.204,-0.491901
45.645,301.221,-0.491913
45.6467,301.238,-0.491931
45.6483,301.254,-0.491945
45.65,301.271,-0.49195
45.6517,301.288,-0.491949
45.6533,301.304,-0.491949
45.655,301.32,-0.491942
45.6567,301.338,-0.491938
45.6583,301.354,-0.491932
45.66,301.37,-0.491931
45.6617,301.387,-0.491931
45.6633,301.404,-0.491941
45.665,301.42,-0.491964
45.6667,301.437,-0.491987
45.6683,301.454,-0.49201
45.67,301.47,-0.492033
45.6717,301.487,-0.492062
45.6733,301.503,-0.492083
45.675,301.52,-0.492094
45.6767,301.537,-0.492104
45.6783,301.554,-0.492111
45.68,301.57,-0.492123
45.6817,301.587,-0.492126
45.6833,301.604,-0.492127
45.685,301.62,-0.492123
45.6867,301.637,-0.492124
45.6883,301.654,-0.492123
45.69,301.67,-0.492127
45.6917,301.687,-0.492136
45.6933,301.704,-0.492143
45.695,301.72,-0.492156
45.6967,301.737,-0.492165
45.6983,301.754,-0.492176
45.7,301.77,-0.492193
45.7017,301.787,-0.49221
45.7033,301.804,-0.492228
45.705,301.82,-0.492249
45.7067,301.837,-0.492276
45.7083,301.854,-0.492307
45.71,301.871,-0.492346
45.7117,301.887,-0.492385
45.7133,301.904,-0.492415
45.715,301.921,-0.492437
45.7167,301.937,-0.492456
45.7183,301.954,-0.492468
45.72,301.97,-0.492475
45.7217,301.987,-0.492472
45.7233,302.004,-0.492465
45.725,302.02,-0.492459
45.7267,302.037,-0.492451
45.7283,302.054,-0.492437
45.73,302.07,-0.492427
45.7317,302.087,-0.49242
45.7333,302.104,-0.492424
45.735,302.121,-0.492433
45.7367,302.137,-0.492436
45.7383,302.154,-0.492439
45.74,302.171,-0.492444
45.7417,302.187,-0.492449
45.7433,302.204,-0.492469
45.745,302.22,-0.49249
45.7467,302.237,-0.492511
45.7483,302.253,-0.492533
45.75,302.27,-0.492557
45.7517,302.287,-0.492581
45.7533,302.303,-0.492608
45.755,302.32,-0.492626
45.7567,302.337,-0.492642
45.7583,302.354,-0.492655
45.76,302.37,-0.49266
45.7617,302.387,-0.492655
45.7633,302.404,-0.492653
45.765,302.42,-0.492652
45.7667,302.437,-0.492654
45.7683,302.453,-0.492661
45.77,302.47,-0.492671
45.7717,302.487,-0.492686
45.7733,302.504,-0.492711
45.775,302.52,-0.492746
45.7767,302.537,-0.492784
45.7783,302.553,-0.49282
45.78,302.57,-0.492855
45.7817,302.587,-0.492888
45.7833,302.604,-0.492912
45.785,302.62,-0.492929
45.7867,302.637,-0.492945
45.7883,302.654,-0.492952
45.79,302.67,-0.492953
45.7917,302.687,-0.492956
45.7933,302.703,-0.492957
45.795,302.72,-0.49296
45.7967,302.736,-0.492973
45.7983,302.753,-0.492988
45.8,302.77,-0.493016
45.8017,302.787,-0.493044
45.8033,302.803,-0.493071
45.805,302.82,-0.493096
45.8067,302.837,-0.493123
45.8083,302.853,-0.493143
45.81,302.87,-0.493161
45.8117,302.887,-0.493176
45.8133,302.903,-0.493186
45.815,302.92,-0.493193
45.8167,302.937,-0.493197
45.8183,302.953,-0.493203
45.82,302.97,-0.493213
45.8217,302.986,-0.493225
45.8233,303.003,-0.493236
45.825,303.02,-0.493254
45.8267,303.037,-0.493275
45.8283,303.053,-0.493297
45.83,303.07,-0.49331
45.8317,303.086,-0.493325
45.8333,303.103,-0.49333
45.835,303.12,-0.493334
45.8367,303.137,-0.493334
45.8383,303.153,-0.493328
45.84,303.17,-0.493323
45.8417,303.186,-0.493322
45.8433,303.203,-0.493321
45.845,303.22,-0.49333
45.8467,303.237,-0.493344
45.8483,303.253,-0.493365
45.85,303.27,-0.493391
45.8517,303.286,-0.493423
45.8533,303.302,-0.493447
45.855,303.319,-0.49347
45.8567,303.336,-0.493488
45.8583,303.353,-0.493503
45.86,303.369,-0.493516
45.8617,303.386,-0.493521
45.8633,303.402,-0.493533
45.865,303.419,-0.493541
45.8667,303.436,-0.493554
45.8683,303.453,-0.49357
45.87,303.469,-0.493592
45.8717,303.486,-0.493615
45.8733,303.502,-0.493646
45.875,303.519,-0.49368
45.8767,303.535,-0.493718
45.8783,303.552,-0.493757
45.88,303.569,-0.493793
45.8817,303.586,-0.493829
45.8833,303.602,-0.493858
45.885,303.619,-0.49388
45.8867,303.636,-0.493898
45.8883,303.652,-0.49391
45.89,303.668,-0.493924
45.8917,303.685,-0.493934
45.8933,303.702,-0.493948
45.895,303.719,-0.493953
45.8967,303.735,-0.493951
45.8983,303.752,-0.493955
45.9,303.769,-0.493954
45.9017,303.786,-0.493952
45.9033,303.802,-0.493955
45.905,303.819,-0.49396
45.9067,303.835,-0.493963
45.9083,303.852,-0.493969
45.91,303.869,-0.493967
45.9117,303.885,-0.493969
45.9133,303.902,-0.49397
45.915,303.918,-0.493959
45.9167,303.935,-0.493945
45.9183,303.951,-0.493946
45.92,303.968,-0.493951
45.9217,303.985,-0.493954
45.9233,304.001,-0.49396
45.925,304.018,-0.493982
45.9267,304.034,-0.494
45.9283,304.051,-0.494017
45.93,304.068,-0.494036
45.9317,304.085,-0.494061
45.9333,304.101,-0.494084
45.935,304.118,-0.494109
45.9367,304.135,-0.494136
45.9383,304.151,-0.494169
45.94,304.168,-0.494196
45.9417,304.185,-0.494223
45.9433,304.201,-0.494238
45.945,304.218,-0.494244
45.9467,304.234,-0.494253
45.9483,304.251,-0.494264
45.95,304.267,-0.494272
45.9517,304.284,-0.494286
45.9533,304.301,-0.494306
45.955,304.318,-0.494326
45.9567,304.334,-0.49435
45.9583,304.351,-0.494375
45.96,304.367,-0.4944
45.9617,304.384,-0.494416
45.9633,304.401,-0.494427
45.965,304.417,-0.494435
45.9667,304.434,-0.494446
45.9683,304.451,-0.494459
45.97,304.467,-0.494471
45.9717,304.484,-0.494483
45.9733,304.501,-0.494504
45.975,304.517,-0.494526
45.9767,304.534,-0.494558
45.9783,304.551,-0.49459
45.98,304.567,-0.494624
45.9817,304.583,-0.494664
45.9833,304.6,-0.494697
45.985,304.617,-0.494727
45.9867,304.633,-0.494762
45.9883,304.65,-0.494794
45.99,304.667,-0.49481
45.9917,304.683,-0.494817
45.9933,304.7,-0.494815
45.995,304.717,-0.49481
45.9967,304.734,-0.494799
45.9983,304.75,-0.494788
46,304.767,-0.494786
46.0017,304.783,-0.494789
46.0033,304.8,-0.494805
46.005,304.816,-0.494828
46.0067,304.833,-0.494859
46.0083,304.85,-0.494885
46.01,304.866,-0.494915
46.0117,304.883,-0.494947
46.0133,304.9,-0.494981
46.015,304.917,-0.495006
46.0167,304.933,-0.495017
46.0183,304.95,-0.495023
46.02,304.967,-0.495031
46.0217,304.983,-0.495042
46.0233,305,-0.49506
46.025,305.017,-0.49508
46.0267,305.033,-0.495103
46.0283,305.05,-0.495125
46.03,305.066,-0.495152
46.0317,305.083,-0.495172
46.0333,305.1,-0.495181
46.035,305.116,-0.495193
46.0367,305.133,-0.495199
46.0383,305.15,-0.495213
46.04,305.166,-0.495225
46.0417,305.183,-0.495233
46.0433,305.199,-0.495244
46.045,305.216,-0.495254
46.0467,305.233,-0.495261
46.0483,305.249,-0.495267
46.05,305.266,-0.495278
46.0517,305.282,-0.495287
46.0533,305.298,-0.495285
46.055,305.315,-0.495299
46.0567,305.332,-0.495315
46.0583,305.349,-0.495336
46.06,305.365,-0.495363
46.0617,305.382,-0.495387
46.0633,305.399,-0.495412
46.065,305.415,-0.495436
46.0667,305.432,-0.495455
46.0683,305.449,-0.495474
46.07,305.465,-0.49549
46.0717,305.482,-0.495498
46.0733,305.499,-0.495506
46.075,305.515,-0.495517
46.0767,305.532,-0.495539
46.0783,305.548,-0.495563
46.08,305.565,-0.495595
46.0817,305.582,-0.495628
46.0833,305.599,-0.495662
46.085,305.615,-0.495692
46.0867,305.632,-0.495715
46.0883,305.648,-0.495734
46.09,305.664,-0.495749
46.0917,305.681,-0.495766
46.0933,305.698,-0.495776
46.095,305.714,-0.495791
46.0967,305.731,-0.495802
46.0983,305.748,-0.495815
46.1,305.764,-0.495837
46.1017,305.781,-0.495859
46.1033,305.798,-0.495878
46.105,305.814,-0.495897
46.1067,305.831,-0.495915
46.1083,305.848,-0.495936
46.11,305.864,-0.495965
46.1117,305.881,-0.495999
46.1133,305.898,-0.49603
46.115,305.914,-0.496052
46.1167,305.931,-0.496069
46.1183,305.948,-0.496078
46.12,305.964,-0.496088
46.1217,305.981,-0.49609
46.1233,305.998,-0.496093
46.125,306.014,-0.496094
46.1267,306.031,-0.496094
46.1283,306.047,-0.496101
46.13,306.064,-0.496112
46.1317,306.08,-0.496126
46.1333,306.097,-0.496137
46.135,306.114,-0.496147
46.1367,306.131,-0.496153
46.1383,306.147,-0.496153
46.14,306.164,-0.496148
46.1417,306.181,-0.49615
46.1433,306.197,-0.49616
46.145,306.214,-0.496164
46.1467,306.23,-0.49617
46.1483,306.247,-0.496178
46.15,306.263,-0.496194
46.1517,306.28,-0.496216
46.1533,306.297,-0.49624
46.155,306.313,-0.496268
46.1567,306.33,-0.496297
46.1583,306.347,-0.496323
46.16,306.363,-0.496343
46.1617,306.38,-0.496361
46.1633,306.396,-0.496376
46.165,306.413,-0.496384
46.1667,306.43,-0.496388
46.1683,306.447,-0.496388
46.17,306.464,-0.496397
46.1717,306.48,-0.496411
46.1733,306.496,-0.496423
46.175,306.513,-0.496436
46.1767,306.53,-0.496444
46.1783,306.546,-0.496458
46.18,306.563,-0.496479
46.1817,306.58,-0.496503
46.1833,306.596,-0.496531
46.185,306.613,-0.496554
46.1867,306.63,-0.496577
46.1883,306.646,-0.496605
46.19,306.663,-0.496628
46.1917,306.679,-0.49665
46.1933,306.696,-0.496667
46.195,306.713,-0.496673
46.1967,306.73,-0.496678
46.1983,306.746,-0.496691
46.2,306.763,-0.496716
46.2017,306.779,-0.496737
46.2033,306.796,-0.496764
46.205,306.812,-0.496798
46.2067,306.829,-0.496836
46.2083,306.846,-0.496881
46.21,306.863,-0.496923
46.2117,306.879,-0.496962
46.2133,306.896,-0.496985
46.215,306.912,-0.496991
46.2167,306.929,-0.496992
46.2183,306.946,-0.496988
46.22,306.962,-0.496983
46.2217,306.979,-0.496974
46.2233,306.996,-0.496963
46.225,307.012,-0.496958
46.2267,307.029,-0.496959
46.2283,307.045,-0.496976
46.23,307.062,-0.497003
46.2317,307.079,-0.497038
46.2333,307.095,-0.497084
46.235,307.112,-0.497128
46.2367,307.128,-0.49716
46.2383,307.145,-0.497187
46.24,307.161,-0.497209
46.2417,307.179,-0.497218
46.2433,307.195,-0.49722
46.245,307.212,-0.497226
46.2467,307.228,-0.497231
46.2483,307.245,-0.497243
46.25,307.262,-0.497259
46.2517,307.278,-0.497289
46.2533,307.295,-0.497326
46.255,307.312,-0.497366
46.2567,307.328,-0.497407
46.2583,307.345,-0.49745
46.26,307.362,-0.49749
46.2617,307.378,-0.497524
46.2633,307.395,-0.497549
46.265,307.412,-0.497572
46.2667,307.428,-0.49759
46.2683,307.445,-0.497597
46.27,307.462,-0.497595
46.2717,307.478,-0.497591
46.2733,307.495,-0.497591
46.275,307.511,-0.497582
46.2767,307.528,-0.497569
46.2783,307.545,-0.497554
46.28,307.561,-0.497539
46.2817,307.578,-0.497531
46.2833,307.595,-0.497524
46.285,307.611,-0.497524
46.2867,307.628,-0.497527
46.2883,307.644,-0.497533
46.29,307.661,-0.49755
46.2917,307.678,-0.497572
46.2933,307.694,-0.497593
46.295,307.711,-0.497618
46.2967,307.728,-0.497649
46.2983,307.744,-0.497682
46.3,307.761,-0.497724
46.3017,307.778,-0.497771
46.3033,307.794,-0.497818
46.305,307.811,-0.497857
46.3067,307.827,-0.497891
46.3083,307.844,-0.49792
46.31,307.86,-0.497952
46.3117,307.877,-0.497984
46.3133,307.893,-0.498016
46.315,307.91,-0.498053
46.3167,307.927,-0.498094
46.3183,307.943,-0.498129
46.32,307.96,-0.498174
46.3217,307.977,-0.498221
46.3233,307.993,-0.498255
46.325,308.01,-0.498274
46.3267,308.027,-0.498295
46.3283,308.044,-0.498305
46.33,308.06,-0.498303
46.3317,308.077,-0.498302
46.3333,308.093,-0.498299
46.335,308.11,-0.498293
46.3367,308.126,-0.498288
46.3383,308.143,-0.498288
46.34,308.16,-0.498291
46.3417,308.176,-0.49829
46.3433,308.193,-0.498297
46.345,308.21,-0.498309
46.3467,308.226,-0.498326
46.3483,308.243,-0.498347
46.35,308.26,-0.498374
46.3517,308.276,-0.498407
46.3533,308.293,-0.498442
46.355,308.309,-0.498477
46.3567,308.326,-0.498517
46.3583,308.343,-0.498557
46.36,308.36,-0.49859
46.3617,308.376,-0.498622
46.3633,308.393,-0.498644
46.365,308.41,-0.498668
46.3667,308.426,-0.498683
46.3683,308.443,-0.498697
46.37,308.459,-0.498714
46.3717,308.476,-0.49873
46.3733,308.492,-0.498751
46.375,308.509,-0.498776
46.3767,308.526,-0.498808
46.3783,308.543,-0.498844
46.38,308.56,-0.498873
46.3817,308.576,-0.498895
46.3833,308.592,-0.498907
46.385,308.609,-0.498908
46.3867,308.626,-0.49891
46.3883,308.643,-0.498925
46.39,308.659,-0.498935
46.3917,308.676,-0.498949
46.3933,308.692,-0.498957
46.395,308.709,-0.498972
46.3967,308.726,-0.498993
46.3983,308.742,-0.499015
46.4,308.759,-0.499033
46.4017,308.776,-0.499057
46.4033,308.792,-0.499082
46.405,308.809,-0.499106
46.4067,308.826,-0.499138
46.4083,308.843,-0.499169
46.41,308.859,-0.499201
46.4117,308.876,-0.499228
46.4133,308.892,-0.499252
46.415,308.908,-0.499279
46.4167,308.925,-0.499299
46.4183,308.942,-0.499316
46.42,308.958,-0.499333
46.4217,308.975,-0.499355
46.4233,308.992,-0.499376
46.425,309.009,-0.499389
46.4267,309.026,-0.499409
46.4283,309.042,-0.499434
46.43,309.059,-0.499464
46.4317,309.076,-0.499492
46.4333,309.092,-0.499516
46.435,309.109,-0.499542
46.4367,309.125,-0.499578
46.4383,309.142,-0.499624
46.44,309.159,-0.49966
46.4417,309.175,-0.499705
46.4433,309.192,-0.499758
46.445,309.209,-0.499809
46.4467,309.225,-0.499872
46.4483,309.242,-0.499923
46.45,309.259,-0.499963
46.4517,309.275,-0.499991
46.4533,309.291,-0.499996
46.455,309.308,-0.5
46.4567,309.325,-0.500007
46.4583,309.342,-0.500009
46.46,309.358,-0.500008
46.4617,309.375,-0.500003
46.4633,309.392,-0.500003
46.465,309.408,-0.500009
46.4667,309.425,-0.500034
46.4683,309.441,-0.500058
46.47,309.458,-0.50009
46.4717,309.475,-0.500123
46.4733,309.492,-0.500162
46.475,309.508,-0.500212
46.4767,309.525,-0.500263
46.4783,309.542,-0.500315
46.48,309.559,-0.500367
46.4817,309.575,-0.500414
46.4833,309.592,-0.50045
46.485,309.608,-0.500481
46.4867,309.625,-0.500509
46.4883,309.642,-0.500528
46.49,309.658,-0.500551
46.4917,309.674,-0.500572
46.4933,309.691,-0.500584
46.495,309.708,-0.500598
46.4967,309.725,-0.500613
46.4983,309.741,-0.500635
46.5,309.758,-0.500657
46.5017,309.774,-0.500689
46.5033,309.791,-0.500724
46.505,309.808,-0.500763
46.5067,309.824,-0.50081
46.5083,309.841,-0.500857
46.51,309.858,-0.500899
46.5117,309.875,-0.500936
46.5133,309.891,-0.500975
46.515,309.908,-0.501017
46.5167,309.924,-0.501056
46.5183,309.941,-0.50109
46.52,309.958,-0.501127
46.5217,309.974,-0.501161
46.5233,309.991,-0.501194
46.525,310.007,-0.501233
46.5267,310.024,-0.501279
46.5283,310.041,-0.501319
46.53,310.058,-0.501357
46.5317,310.074,-0.501402
46.5333,310.091,-0.50145
46.535,310.107,-0.501487
46.5367,310.124,-0.501514
46.5383,310.141,-0.501527
46.54,310.157,-0.501529
46.5417,310.174,-0.501521
46.5433,310.191,-0.501502
46.545,310.207,-0.501478
46.5467,310.224,-0.501442
46.5483,310.241,-0.501434
46.55,310.257,-0.501433
46.5517,310.274,-0.501444
46.5533,310.291,-0.50147
46.555,310.307,-0.5015
46.5567,310.324,-0.501531
46.5583,310.341,-0.501562
46.56,310.357,-0.501589
46.5617,310.374,-0.501616
46.5633,310.39,-0.501639
46.565,310.407,-0.501658
46.5667,310.423,-0.501679
46.5683,310.44,-0.501695
46.57,310.457,-0.501712
46.5717,310.474,-0.501724
46.5733,310.49,-0.501739
46.575,310.507,-0.501764
46.5767,310.522,-0.501786
46.5783,310.539,-0.501812
46.58,310.556,-0.501835
46.5817,310.572,-0.50186
46.5833,310.589,-0.501893
46.585,310.606,-0.501933
46.5867,310.623,-0.501967
46.5883,310.639,-0.502003
46.59,310.656,-0.502032
46.5917,310.673,-0.502063
46.5933,310.69,-0.502095
46.595,310.706,-0.502129
46.5967,310.723,-0.502154
46.5983,310.74,-0.502169
46.6,310.756,-0.502187
46.6017,310.773,-0.502207
46.6033,310.789,-0.502226
46.605,310.806,-0.502242
46.6067,310.823,-0.502253
46.6083,310.839,-0.502271
46.61,310.856,-0.502286
46.6117,310.873,-0.502302
46.6133,310.89,-0.502317
46.615,310.906,-0.502325
46.6167,310.923,-0.50233
46.6183,310.939,-0.502337
46.62,310.956,-0.502348
46.6217,310.972,-0.502366
46.6233,310.989,-0.502384
46.625,311.005,-0.502406
46.6267,311.022,-0.502432
46.6283,311.039,-0.502462
46.63,311.055,-0.502496
46.6317,311.072,-0.502531
46.6333,311.089,-0.502556
46.635,311.106,-0.502579
46.6367,311.122,-0.502592
46.6383,311.139,-0.502597
46.64,311.156,-0.502605
46.6417,311.172,-0.502616
46.6433,311.189,-0.502626
46.645,311.206,-0.502636
46.6467,311.222,-0.502652
46.6483,311.239,-0.502665
46.65,311.256,-0.502678
46.6517,311.272,-0.502698
46.6533,311.289,-0.502722
46.655,311.306,-0.502756
46.6567,311.323,-0.50279
46.6583,311.339,-0.502837
46.66,311.356,-0.502919
46.6617,311.372,-0.50306
46.6633,311.389,-0.503118
46.665,311.406,-0.503177
46.6667,311.423,-0.503227
46.6683,311.439,-0.503276
46.67,311.456,-0.503321
46.6717,311.473,-0.50336
46.6733,311.49,-0.503399
46.675,311.506,-0.503437
46.6767,311.523,-0.503468
46.6783,311.539,-0.503498
46.68,311.556,-0.503532
46.6817,311.573,-0.503565
46.6833,311.589,-0.503599
46.685,311.606,-0.503624
46.6867,311.623,-0.50365
46.6883,311.64,-0.503678
46.69,311.656,-0.503706
46.6917,311.673,-0.503737
46.6933,311.689,-0.503765
46.695,311.706,-0.50378
46.6967,311.722,-0.503803
46.6983,311.74,-0.503829
46.7,311.756,-0.503858
46.7017,311.773,-0.503899
46.7033,311.789,-0.503949
46.705,311.806,-0.504005
46.7067,311.823,-0.504064
46.7083,311.839,-0.504118
46.71,311.856,-0.504171
46.7117,311.872,-0.504219
46.7133,311.889,-0.504258
46.715,311.906,-0.504293
46.7167,311.923,-0.504326
46.7183,311.939,-0.504354
46.72,311.956,-0.504387
46.7217,311.973,-0.504425
46.7233,311.989,-0.504462
46.725,312.006,-0.504496
46.7267,312.023,-0.504525
46.7283,312.039,-0.504548
46.73,312.056,-0.504574
46.7317,312.072,-0.504596
46.7333,312.089,-0.504611
46.735,312.105,-0.504631
46.7367,312.122,-0.504648
46.7383,312.139,-0.504666
46.74,312.155,-0.504699
46.7417,312.172,-0.504744
46.7433,312.189,-0.504796
46.745,312.206,-0.504851
46.7467,312.222,-0.504904
46.7483,312.238,-0.504963
46.75,312.256,-0.50502
46.7517,312.272,-0.50508
46.7533,312.289,-0.505143
46.755,312.305,-0.505205
46.7567,312.322,-0.505251
46.7583,312.339,-0.505289
46.76,312.355,-0.505328
46.7617,312.372,-0.505369
46.7633,312.389,-0.505409
46.765,312.406,-0.505446
46.7667,312.422,-0.50548
46.7683,312.439,-0.505507
46.77,312.455,-0.505539
46.7717,312.472,-0.505568
46.7733,312.489,-0.505599
46.775,312.505,-0.50562
46.7767,312.522,-0.505634
46.7783,312.538,-0.505649
46.78,312.555,-0.505661
46.7817,312.572,-0.505667
46.7833,312.588,-0.505674
46.785,312.605,-0.505684
46.7867,312.621,-0.505695
46.7883,312.638,-0.505714
46.79,312.655,-0.505742
46.7917,312.671,-0.505773
46.7933,312.688,-0.505804
46.795,312.705,-0.505837
46.7967,312.722,-0.505865
46.7983,312.738,-0.50589
46.8,312.755,-0.505909
46.8017,312.772,-0.50592
46.8033,312.788,-0.50593
46.805,312.805,-0.505947
46.8067,312.821,-0.505963
46.8083,312.838,-0.505978
46.81,312.855,-0.505994
46.8117,312.872,-0.506014
46.8133,312.888,-0.506031
46.815,312.905,-0.506052
46.8167,312.922,-0.506079
46.8183,312.938,-0.506101
46.82,312.955,-0.506122
46.8217,312.971,-0.506145
46.8233,312.988,-0.506164
46.825,313.004,-0.506197
46.8267,313.021,-0.506228
46.8283,313.038,-0.506262
46.83,313.055,-0.506294
46.8317,313.071,-0.506329
46.8333,313.088,-0.50636
46.835,313.105,-0.506381
46.8367,313.121,-0.506401
46.8383,313.138,-0.506414
46.84,313.155,-0.50642
46.8417,313.172,-0.506427
46.8433,313.188,-0.506426
46.845,313.205,-0.506421
46.8467,313.221,-0.506414
46.8483,313.238,-0.506404
46.85,313.254,-0.506395
46.8517,313.271,-0.506401
46.8533,313.288,-0.50641
46.855,313.304,-0.506425
46.8567,313.321,-0.506445
46.8583,313.338,-0.506466
46.86,313.355,-0.50649
46.8617,313.371,-0.506511
46.8633,313.388,-0.506533
46.865,313.405,-0.506554
46.8667,313.421,-0.506575
46.8683,313.438,-0.506601
46.87,313.455,-0.506625
46.8717,313.471,-0.506659
46.8733,313.488,-0.506694
46.875,313.504,-0.506735
46.8767,313.521,-0.506783
46.8783,313.538,-0.50683
46.88,313.554,-0.506872
46.8817,313.571,-0.506912
46.8833,313.587,-0.506954
46.885,313.604,-0.506994
46.8867,313.621,-0.507031
46.8883,313.638,-0.50707
46.89,313.654,-0.507111
46.8917,313.671,-0.507156
46.8933,313.688,-0.507201
46.895,313.704,-0.507243
46.8967,313.721,-0.50728
46.8983,313.737,-0.507317
46.9,313.754,-0.507361
46.9017,313.77,-0.50741
46.9033,313.787,-0.507452
46.905,313.804,-0.507493
46.9067,313.82,-0.507535
46.9083,313.837,-0.507575
46.91,313.854,-0.507614
46.9117,313.871,-0.50765
46.9133,313.888,-0.50768
46.915,313.904,-0.507696
46.9167,313.921,-0.50771
46.9183,313.937,-0.507719
46.92,313.954,-0.507729
46.9217,313.97,-0.507737
46.9233,313.986,-0.507738
46.925,314.004,-0.507746
46.9267,314.02,-0.507755
46.9283,314.037,-0.507773
46.93,314.054,-0.507793
46.9317,314.071,-0.507821
46.9333,314.087,-0.507851
46.935,314.104,-0.507881
46.9367,314.12,-0.507915
46.9383,314.137,-0.507957
46.94,314.154,-0.508006
46.9417,314.17,-0.50805
46.9433,314.187,-0.508092
46.945,314.203,-0.508135
46.9467,314.22,-0.508177
46.9483,314.236,-0.50822
46.95,314.253,-0.508263
46.9517,314.27,-0.508296
46.9533,314.287,-0.508332
46.955,314.303,-0.508357
46.9567,314.32,-0.50838
46.9583,314.337,-0.508401
46.96,314.353,-0.50842
46.9617,314.37,-0.508445
46.9633,314.386,-0.508464
46.965,314.403,-0.508491
46.9667,314.42,-0.508522
46.9683,314.437,-0.508553
46.97,314.453,-0.508583
46.9717,314.47,-0.508615
46.9733,314.487,-0.508644
46.975,314.503,-0.508665
46.9767,314.52,-0.508679
46.9783,314.537,-0.508684
46.98,314.554,-0.508685
46.9817,314.57,-0.508681
46.9833,314.587,-0.508687
46.985,314.603,-0.508704
46.9867,314.62,-0.508726
46.9883,314.636,-0.508757
46.99,314.653,-0.508795
46.9917,314.67,-0.508838
46.9933,314.687,-0.508881
46.995,314.703,-0.508924
46.9967,314.72,-0.508962
46.9983,314.736,-0.508986
47,314.753,-0.50901
47.0017,314.77,-0.509032
47.0033,314.787,-0.509057
47.005,314.803,-0.509087
47.0067,314.82,-0.509113
47.0083,314.836,-0.509144
47.01,314.853,-0.509175
47.0117,314.87,-0.509215
47.0133,314.886,-0.509258
47.015,314.903,-0.509299
47.0167,314.92,-0.509348
47.0183,314.936,-0.509391
47.02,314.953,-0.509432
47.0217,314.97,-0.509471
47.0233,314.986,-0.50951
47.025,315.003,-0.509545
47.0267,315.019,-0.509572
47.0283,315.036,-0.509598
47.03,315.053,-0.509631
47.0317,315.069,-0.509668
47.0333,315.086,-0.509712
47.035,315.103,-0.509751
47.0367,315.119,-0.509781
47.0383,315.136,-0.509807
47.04,315.152,-0.509833
47.0417,315.169,-0.509862
47.0433,315.186,-0.509885
47.045,315.202,-0.509904
47.0467,315.219,-0.509924
47.0483,315.236,-0.509953
47.05,315.252,-0.509989
47.0517,315.269,-0.510026
47.0533,315.285,-0.510063
47.055,315.302,-0.510103
47.0567,315.319,-0.510144
47.0583,315.336,-0.51019
47.06,315.352,-0.510242
47.0617,315.369,-0.510296
47.0633,315.385,-0.510353
47.065,315.402,-0.510409
47.0667,315.419,-0.510466
47.0683,315.435,-0.51052
47.07,315.452,-0.510575
47.0717,315.469,-0.51062
47.0733,315.486,-0.510662
47.075,315.502,-0.510698
47.0767,315.519,-0.510737
47.0783,315.535,-0.51077
47.08,315.552,-0.510795
47.0817,315.569,-0.510814
47.0833,315.586,-0.510838
47.085,315.603,-0.510861
47.0867,315.619,-0.510886
47.0883,315.636,-0.510904
47.09,315.653,-0.510916
47.0917,315.669,-0.510922
47.0933,315.686,-0.510928
47.095,315.703,-0.51093
47.0967,315.72,-0.510927
47.0983,315.736,-0.510924
47.1,315.753,-0.510923
47.1017,315.77,-0.510934
47.1033,315.786,-0.510948
47.105,315.803,-0.510972
47.1067,315.819,-0.510998
47.1083,315.836,-0.511024
47.11,315.853,-0.511054
47.1117,315.869,-0.511087
47.1133,315.886,-0.511126
47.115,315.902,-0.511165
47.1167,315.919,-0.511214
47.1183,315.936,-0.511267
47.12,315.952,-0.511338
47.1217,315.969,-0.511463
47.1233,315.985,-0.511574
47.125,316.002,-0.511708
47.1267,316.019,-0.511776
47.1283,316.035,-0.511847
47.13,316.052,-0.511906
47.1317,316.069,-0.511969
47.1333,316.085,-0.512027
47.135,316.101,-0.51208
47.1367,316.118,-0.512124
47.1383,316.135,-0.51216
47.14,316.152,-0.51219
47.1417,316.168,-0.512217
47.1433,316.185,-0.512245
47.145,316.201,-0.512271
47.1467,316.218,-0.512312
47.1483,316.235,-0.51236
47.15,316.251,-0.512415
47.1517,316.268,-0.512482
47.1533,316.285,-0.512538
47.155,316.302,-0.512589
47.1567,316.319,-0.512637
47.1583,316.335,-0.512683
47.16,316.352,-0.512728
47.1617,316.368,-0.512764
47.1633,316.384,-0.512801
47.165,316.401,-0.512838
47.1667,316.418,-0.512881
47.1683,316.435,-0.512925
47.17,316.452,-0.512964
47.1717,316.468,-0.512999
47.1733,316.485,-0.513022
47.175,316.501,-0.513038
47.1767,316.518,-0.513051
47.1783,316.535,-0.513063
47.18,316.551,-0.513069
47.1817,316.568,-0.513073
47.1833,316.585,-0.513084
47.185,316.601,-0.513103
47.1867,316.618,-0.513124
47.1883,316.634,-0.51314
47.19,316.651,-0.513158
47.1917,316.668,-0.513176
47.1933,316.685,-0.513194
47.195,316.702,-0.513216
47.1967,316.718,-0.513245
47.1983,316.735,-0.513276
47.2,316.752,-0.513314
47.2017,316.768,-0.513351
47.2033,316.785,-0.513396
47.205,316.801,-0.513439
47.2067,316.818,-0.513482
47.2083,316.834,-0.513525
47.21,316.851,-0.51357
47.2117,316.868,-0.513618
47.2133,316.884,-0.513667
47.215,316.901,-0.513711
47.2167,316.918,-0.513746
47.2183,316.935,-0.513776
47.22,316.952,-0.513795
47.2217,316.968,-0.513803
47.2233,316.985,-0.513806
47.225,317.001,-0.513809
47.2267,317.017,-0.513817
47.2283,317.034,-0.513837
47.23,317.051,-0.513861
47.2317,317.068,-0.513893
47.2333,317.085,-0.51393
47.235,317.101,-0.513979
47.2367,317.118,-0.514039
47.2383,317.134,-0.514155
47.24,317.151,-0.514315
47.2417,317.168,-0.514485
47.2433,317.184,-0.514644
47.245,317.201,-0.514819
47.2467,317.218,-0.514985
47.2483,317.234,-0.515076
47.25,317.251,-0.515132
47.2517,317.268,-0.515182
47.2533,317.284,-0.515225
47.255,317.301,-0.515268
47.2567,317.318,-0.51531
47.2583,317.334,-0.515344
47.26,317.351,-0.515377
47.2617,317.367,-0.515402
47.2633,317.384,-0.51542
47.265,317.401,-0.515445
47.2667,317.417,-0.515482
47.2683,317.434,-0.515521
47.27,317.451,-0.515563
47.2717,317.467,-0.515608
47.2733,317.484,-0.515649
47.275,317.5,-0.515689
47.2767,317.517,-0.515729
47.2783,317.534,-0.515777
47.28,317.551,-0.51583
47.2817,317.567,-0.515877
47.2833,317.584,-0.515928
47.285,317.601,-0.515977
47.2867,317.617,-0.51603
47.2883,317.634,-0.516085
47.29,317.651,-0.516145
47.2917,317.668,-0.516198
47.2933,317.684,-0.516246
47.295,317.701,-0.516293
47.2967,317.717,-0.516337
47.2983,317.734,-0.516391
47.3,317.75,-0.516444
47.3017,317.767,-0.516501
47.3033,317.784,-0.516557
47.305,317.8,-0.516614
47.3067,317.817,-0.516665
47.3083,317.834,-0.516718
47.31,317.851,-0.516763
47.3117,317.867,-0.516789
47.3133,317.884,-0.516815
47.315,317.901,-0.516838
47.3167,317.917,-0.51686
47.3183,317.934,-0.51688
47.32,317.95,-0.516908
47.3217,317.967,-0.516943
47.3233,317.984,-0.516984
47.325,318.001,-0.517028
47.3267,318.017,-0.517073
47.3283,318.034,-0.517119
47.33,318.051,-0.517158
47.3317,318.067,-0.517198
47.3333,318.084,-0.517237
47.335,318.1,-0.517279
47.3367,318.116,-0.517315
47.3383,318.133,-0.517357
47.34,318.15,-0.517403
47.3417,318.167,-0.517454
47.3433,318.183,-0.517506
47.345,318.2,-0.517559
47.3467,318.217,-0.517617
47.3483,318.234,-0.51768
47.35,318.25,-0.517743
47.3517,318.267,-0.51781
47.3533,318.284,-0.517879
47.355,318.3,-0.517946
47.3567,318.317,-0.518007
47.3583,318.334,-0.518062
47.36,318.351,-0.518118
47.3617,318.367,-0.518165
47.3633,318.384,-0.518204
47.365,318.4,-0.518242
47.3667,318.417,-0.518283
47.3683,318.434,-0.518333
47.37,318.451,-0.518393
47.3717,318.467,-0.51846
47.3733,318.484,-0.51855
47.375,318.5,-0.518634
47.3767,318.517,-0.518706
47.3783,318.534,-0.51878
47.38,318.55,-0.51884
47.3817,318.567,-0.5189
47.3833,318.584,-0.518952
47.385,318.6,-0.519007
47.3867,318.617,-0.519066
47.3883,318.633,-0.519125
47.39,318.65,-0.519191
47.3917,318.667,-0.519256
47.3933,318.684,-0.519324
47.395,318.7,-0.519389
47.3967,318.717,-0.519447
47.3983,318.734,-0.519498
47.4,318.75,-0.519549
47.4017,318.767,-0.519595
47.4033,318.783,-0.519651
47.405,318.8,-0.519709
47.4067,318.817,-0.519773
47.4083,318.833,-0.519836
47.41,318.85,-0.519906
47.4117,318.867,-0.519975
47.4133,318.883,-0.520044
47.415,318.9,-0.52011
47.4167,318.917,-0.520181
47.4183,318.934,-0.520239
47.42,318.95,-0.520297
47.4217,318.967,-0.520339
47.4233,318.983,-0.52038
47.425,319,-0.520429
47.4267,319.016,-0.520477
47.4283,319.033,-0.520528
47.43,319.049,-0.520586
47.4317,319.066,-0.520647
47.4333,319.083,-0.520713
47.435,319.1,-0.520786
47.4367,319.116,-0.520857
47.4383,319.133,-0.520928
47.44,319.15,-0.520998
47.4417,319.166,-0.521066
47.4433,319.184,-0.521135
47.445,319.2,-0.521193
47.4467,319.216,-0.521237
47.4483,319.234,-0.521281
47.45,319.25,-0.521324
47.4517,319.267,-0.521362
47.4533,319.283,-0.521402
47.455,319.299,-0.521444
47.4567,319.316,-0.521487
47.4583,319.333,-0.521533
47.46,319.349,-0.521592
47.4617,319.366,-0.521652
47.4633,319.383,-0.521718
47.465,319.399,-0.521788
47.4667,319.416,-0.521858
47.4683,319.432,-0.52193
47.47,319.449,-0.522009
47.4717,319.466,-0.522093
47.4733,319.483,-0.522189
47.475,319.499,-0.522265
47.4767,319.516,-0.522348
47.4783,319.533,-0.522429
47.48,319.549,-0.522502
47.4817,319.566,-0.522571
47.4833,319.582,-0.522637
47.485,319.599,-0.5227
47.4867,319.616,-0.522765
47.4883,319.632,-0.52283
47.49,319.649,-0.522899
47.4917,319.666,-0.522975
47.4933,319.682,-0.523058
47.495,319.699,-0.523147
47.4967,319.716,-0.523249
47.4983,319.732,-0.52334
47.5,319.749,-0.52343
47.5017,319.766,-0.523519
47.5033,319.782,-0.523599
47.505,319.799,-0.523669
47.5067,319.815,-0.523733
47.5083,319.832,-0.523795
47.51,319.849,-0.523856
47.5117,319.866,-0.523912
47.5133,319.882,-0.523977
47.515,319.899,-0.524048
47.5167,319.916,-0.524114
47.5183,319.932,-0.524177
47.52,319.949,-0.524247
47.5217,319.965,-0.52432
47.5233,319.982,-0.524399
47.525,319.999,-0.524477
47.5267,320.015,-0.524558
47.5283,320.033,-0.524639
47.53,320.048,-0.524724
47.5317,320.065,-0.524814
47.5333,320.082,-0.524912
47.535,320.099,-0.525008
47.5367,320.116,-0.525148
47.5383,320.132,-0.525321
47.54,320.149,-0.525479
47.5417,320.166,-0.525576
47.5433,320.182,-0.525674
47.545,320.199,-0.525763
47.5467,320.216,-0.52585
47.5483,320.232,-0.525929
47.55,320.249,-0.526003
47.5517,320.266,-0.526077
47.5533,320.282,-0.526154
47.555,320.298,-0.526245
47.5567,320.315,-0.526338
47.5583,320.332,-0.526428
47.56,320.348,-0.52652
47.5617,320.365,-0.52662
47.5633,320.382,-0.526731
47.565,320.399,-0.526875
47.5667,320.416,-0.527076
47.5683,320.432,-0.527244
47.57,320.449,-0.527385
47.5717,320.465,-0.527557
47.5733,320.482,-0.527686
47.575,320.498,-0.527792
47.5767,320.515,-0.527892
47.5783,320.532,-0.527991
47.58,320.548,-0.528086
47.5817,320.565,-0.528186
47.5833,320.582,-0.528279
47.585,320.599,-0.528368
47.5867,320.615,-0.52846
47.5883,320.631,-0.528562
47.59,320.648,-0.528668
47.5917,320.665,-0.52877
47.5933,320.682,-0.528862
47.595,320.699,-0.528947
47.5967,320.716,-0.529028
47.5983,320.733,-0.529111
47.6,320.75,-0.529191
47.6017,320.766,-0.529279
47.6033,320.783,-0.529365
47.605,320.799,-0.529447
47.6067,320.816,-0.52954
47.6083,320.832,-0.529643
47.61,320.849,-0.529747
47.6117,320.865,-0.529855
47.6133,320.882,-0.529963
47.615,320.898,-0.530069
47.6167,320.915,-0.530173
47.6183,320.932,-0.530273
47.62,320.949,-0.530376
47.6217,320.965,-0.530479
47.6233,320.982,-0.530587
47.625,320.998,-0.530771
47.6267,321.015,-0.530967
47.6283,321.031,-0.531119
47.63,321.048,-0.53125
47.6317,321.065,-0.531372
47.6333,321.081,-0.531487
47.635,321.098,-0.531594
47.6367,321.115,-0.531703
47.6383,321.131,-0.531807
47.64,321.148,-0.53191
47.6417,321.165,-0.532018
47.6433,321.181,-0.532129
47.645,321.198,-0.532243
47.6467,321.214,-0.532354
47.6483,321.231,-0.53247
47.65,321.248,-0.532588
47.6517,321.264,-0.532698
47.6533,321.281,-0.532806
47.655,321.298,-0.532914
47.6567,321.315,-0.533011
47.6583,321.331,-0.53311
47.66,321.348,-0.533218
47.6617,321.364,-0.533326
47.6633,321.381,-0.533435
47.665,321.398,-0.533543
47.6667,321.415,-0.53365
47.6683,321.431,-0.533761
47.67,321.448,-0.53387
47.6717,321.464,-0.533977
47.6733,321.481,-0.53408
47.675,321.497,-0.534173
47.6767,321.514,-0.534268
47.6783,321.531,-0.534375
47.68,321.548,-0.534486
47.6817,321.564,-0.534596
47.6833,321.581,-0.534706
47.685,321.597,-0.534821
47.6867,321.614,-0.534933
47.6883,321.63,-0.53504
47.69,321.647,-0.535155
47.6917,321.664,-0.535274
47.6933,321.68,-0.535399
47.695,321.697,-0.535588
47.6967,321.714,-0.535786
47.6983,321.73,-0.53591
47.7,321.747,-0.536028
47.7017,321.764,-0.536144
47.7033,321.78,-0.536262
47.705,321.797,-0.536375
47.7067,321.813,-0.536479
47.7083,321.83,-0.536579
47.71,321.847,-0.536679
47.7117,321.863,-0.536781
47.7133,321.88,-0.536893
47.715,321.897,-0.537004
47.7167,321.913,-0.537126
47.7183,321.93,-0.537252
47.72,321.946,-0.537376
47.7217,321.963,-0.5376
47.7233,321.98,-0.537843
47.725,321.997,-0.538033
47.7267,322.013,-0.538325
47.7283,322.03,-0.538654
47.73,322.047,-0.538965
47.7317,322.063,-0.539135
47.7333,322.08,-0.539265
47.735,322.096,-0.539392
47.7367,322.113,-0.539504
47.7383,322.129,-0.539615
47.74,322.146,-0.539722
47.7417,322.162,-0.539831
47.7433,322.179,-0.53994
47.745,322.195,-0.540056
47.7467,322.212,-0.540172
47.7483,322.229,-0.540298
47.75,322.246,-0.540496
47.7517,322.262,-0.540762
47.7533,322.279,-0.541106
47.755,322.296,-0.541498
47.7567,322.312,-0.541967
47.7583,322.329,-0.542509
47.76,322.346,-0.543172
47.7617,322.362,-0.543629
47.7633,322.379,-0.544097
47.765,322.396,-0.544408
47.7667,322.412,-0.544652
47.7683,322.429,-0.544811
47.77,322.445,-0.544945
47.7717,322.462,-0.545109
47.7733,322.479,-0.545316
47.775,322.495,-0.54563
47.7767,322.512,-0.546099
47.7783,322.529,-0.546549
47.78,322.545,-0.54702
47.7817,322.562,-0.547454
47.7833,322.579,-0.547808
47.785,322.595,-0.548052
47.7867,322.612,-0.54818
47.7883,322.628,-0.548464
47.79,322.645,-0.5487
47.7917,322.661,-0.548819
47.7933,322.678,-0.549003
47.795,322.695,-0.549121
47.7967,322.711,-0.549244
47.7983,322.728,-0.549373
47.8,322.745,-0.549513
47.8017,322.761,-0.549666
47.8033,322.778,-0.54984
47.805,322.794,-0.550038
47.8067,322.811,-0.550275
47.8083,322.827,-0.550492
47.81,322.844,-0.550666
47.8117,322.861,-0.550852
47.8133,322.878,-0.551184
47.815,322.894,-0.551481
47.8167,322.91,-0.551895
47.8183,322.927,-0.552314
47.82,322.944,-0.552827
47.8217,322.961,-0.553453
47.8233,322.977,-0.554191
47.825,322.994,-0.554935
47.8267,323.011,-0.555537
47.8283,323.027,-0.555994
47.83,323.044,-0.556266
47.8317,323.061,-0.556566
47.8333,323.077,-0.556806
47.835,323.094,-0.55696
47.8367,323.11,-0.55712
47.8383,323.127,-0.557261
47.84,323.144,-0.557383
47.8417,323.16,-0.557506
47.8433,323.177,-0.557635
47.845,323.193,-0.557765
47.8467,323.21,-0.557893
47.8483,323.227,-0.558023
47.85,323.244,-0.55816
47.8517,323.26,-0.558339
47.8533,323.276,-0.55871
47.855,323.293,-0.559158
47.8567,323.31,-0.559559
47.8583,323.326,-0.559965
47.86,323.343,-0.560448
47.8617,323.36,-0.561174
47.8633,323.376,-0.561938
47.865,323.393,-0.562551
47.8667,323.41,-0.56336
47.8683,323.427,-0.564159
47.87,323.443,-0.564966
47.8717,323.46,-0.565844
47.8733,323.476,-0.56677
47.875,323.493,-0.567564
47.8767,323.509,-0.568258
47.8783,323.526,-0.568985
47.88,323.543,-0.569545
47.8817,323.559,-0.569988
47.8833,323.576,-0.570335
47.885,323.592,-0.57073
47.8867,323.609,-0.571217
47.8883,323.626,-0.571736
47.89,323.642,-0.572267
47.8917,323.659,-0.572788
47.8933,323.676,-0.573449
47.895,323.692,-0.574169
47.8967,323.709,-0.574742
47.8983,323.726,-0.57517
47.9,323.742,-0.575687
47.9017,323.759,-0.576242
47.9033,323.776,-0.576755
47.905,323.792,-0.577239
47.9067,323.809,-0.577699
47.9083,323.825,-0.578148
47.91,323.842,-0.578746
47.9117,323.859,-0.579368
47.9133,323.875,-0.579816
47.915,323.892,-0.580186
47.9167,323.909,-0.580401
47.9183,323.925,-0.580626
47.92,323.942,-0.580924
47.9217,323.958,-0.581246
47.9233,323.975,-0.581496
47.925,323.992,-0.581718
47.9267,324.008,-0.582069
47.9283,324.025,-0.582534
47.93,324.041,-0.583193
47.9317,324.058,-0.583971
47.9333,324.075,-0.584905
47.935,324.092,-0.585875
47.9367,324.108,-0.587
47.9383,324.124,-0.588043
47.94,324.141,-0.588991
47.9417,324.158,-0.589665
47.9433,324.174,-0.590372
47.945,324.191,-0.591015
47.9467,324.207,-0.59167
47.9483,324.224,-0.59236
47.95,324.24,-0.593106
47.9517,324.257,-0.593936
47.9533,324.274,-0.594786
47.955,324.29,-0.595607
47.9567,324.307,-0.596287
47.9583,324.324,-0.597063
47.96,324.341,-0.597731
47.9617,324.357,-0.598338
47.9633,324.374,-0.599065
47.965,324.39,-0.599633
47.9667,324.407,-0.600318
47.9683,324.423,-0.60115
47.97,324.44,-0.602169
47.9717,324.457,-0.603291
47.9733,324.473,-0.60442
47.975,324.49,-0.605347
47.9767,324.506,-0.606318
47.9783,324.523,-0.607361
47.98,324.54,-0.608289
47.9817,324.557,-0.609139
47.9833,324.573,-0.610088
47.985,324.59,-0.611108
47.9867,324.606,-0.612084
47.9883,324.623,-0.613128
47.99,324.64,-0.613922
47.9917,324.656,-0.614742
47.9933,324.673,-0.615573
47.995,324.689,-0.616311
47.9967,324.706,-0.617005
47.9983,324.723,-0.617516
48,324.739,-0.618031
48.0017,324.756,-0.618615
48.0033,324.773,-0.619112
48.005,324.789,-0.619571
48.0067,324.806,-0.620074
48.0083,324.822,-0.620917
48.01,324.839,-0.621867
48.0117,324.856,-0.622872
48.0133,324.872,-0.624172
48.015,324.889,-0.625666
48.0167,324.905,-0.626996
48.0183,324.922,-0.628149
48.02,324.938,-0.629375
48.0217,324.955,-0.630483
48.0233,324.972,-0.631773
48.025,324.989,-0.63308
48.0267,325.005,-0.634454
48.0283,325.022,-0.635852
48.03,325.038,-0.636961
48.0317,325.055,-0.637829
48.0333,325.071,-0.638624
48.035,325.088,-0.639512
48.0367,325.104,-0.640717
48.0383,325.121,-0.641967
48.04,325.138,-0.6432
48.0417,325.154,-0.644238
48.0433,325.171,-0.645317
48.045,325.187,-0.646719
48.0467,325.204,-0.647917
48.0483,325.22,-0.648839
48.05,325.237,-0.649735
48.0517,325.254,-0.650369
48.0533,325.27,-0.651137
48.055,325.287,-0.652164
48.0567,325.303,-0.653573
48.0583,325.32,-0.655173
48.06,325.337,-0.656682
48.0617,325.353,-0.658267
48.0633,325.37,-0.659784
48.065,325.386,-0.661225
48.0667,325.403,-0.662411
48.0683,325.42,-0.663506
48.07,325.436,-0.664233
48.0717,325.453,-0.665039
48.0733,325.47,-0.665711
48.075,325.487,-0.666629
48.0767,325.503,-0.667605
48.0783,325.519,-0.668606
48.08,325.536,-0.669733
48.0817,325.552,-0.670861
48.0833,325.569,-0.672214
48.085,325.586,-0.67369
48.0867,325.602,-0.675155
48.0883,325.619,-0.676751
48.09,325.636,-0.678394
48.0917,325.652,-0.680108
48.0933,325.669,-0.682287
48.095,325.686,-0.684243
48.0967,325.701,-0.685558
48.0983,325.718,-0.6867
48.1,325.734,-0.687987
48.1017,325.751,-0.689434
48.1033,325.767,-0.690639
48.105,325.783,-0.691715
48.1067,325.8,-0.693008
48.1083,325.817,-0.694452
48.11,325.834,-0.696117
48.1117,325.851,-0.698083
48.1133,325.867,-0.699942
48.115,325.884,-0.701411
48.1167,325.9,-0.702872
48.1183,325.917,-0.704242
48.12,325.933,-0.705576
48.1217,325.95,-0.707048
48.1233,325.967,-0.708427
48.125,325.983,-0.709887
48.1267,326,-0.711406
48.1283,326.016,-0.71335
48.13,326.032,-0.715266
48.1317,326.049,-0.7171
48.1333,326.066,-0.719224
48.135,326.083,-0.72162
48.1367,326.099,-0.72398
48.1383,326.116,-0.726134
48.14,326.132,-0.728153
48.1417,326.149,-0.729731
48.1433,326.166,-0.731414
48.145,326.182,-0.733011
48.1467,326.199,-0.734419
48.1483,326.215,-0.735664
48.15,326.232,-0.737
48.1517,326.249,-0.738296
48.1533,326.265,-0.73963
48.155,326.282,-0.740921
48.1567,326.298,-0.742293
48.1583,326.315,-0.743617
48.16,326.331,-0.744824
48.1617,326.348,-0.746253
48.1633,326.364,-0.74819
48.165,326.381,-0.749987
48.1667,326.398,-0.752141
48.1683,326.414,-0.7551
48.17,326.431,-0.758896
48.1717,326.447,-0.762431
48.1733,326.464,-0.765375
48.175,326.48,-0.768714
48.1767,326.497,-0.771848
48.1783,326.513,-0.774016
48.18,326.53,-0.776631
48.1817,326.547,-0.778502
48.1833,326.563,-0.780377
48.185,326.58,-0.782056
48.1867,326.596,-0.783542
48.1883,326.613,-0.784807
48.19,326.63,-0.786278
48.1917,326.646,-0.787757
48.1933,326.662,-0.789906
48.195,326.679,-0.792159
48.1967,326.696,-0.793864
48.1983,326.712,-0.796001
48.2,326.729,-0.799098
48.2017,326.745,-0.802906
48.2033,326.761,-0.805529
48.205,326.778,-0.807314
48.2067,326.795,-0.809401
48.2083,326.811,-0.812133
48.21,326.828,-0.815078
48.2117,326.844,-0.81795
48.2133,326.861,-0.819762
48.215,326.877,-0.821931
48.2167,326.894,-0.82324
48.2183,326.91,-0.824286
48.22,326.927,-0.826448
48.2217,326.943,-0.828141
48.2233,326.96,-0.830473
48.225,326.977,-0.832671
48.2267,326.993,-0.835078
48.2283,327.009,-0.838648
48.23,327.026,-0.842989
48.2317,327.042,-0.846937
48.2333,327.059,-0.852621
48.235,327.075,-0.855293
48.2367,327.092,-0.858532
48.2383,327.108,-0.860386
48.24,327.125,-0.862383
48.2417,327.142,-0.864736
48.2433,327.158,-0.867285
48.245,327.174,-0.870083
48.2467,327.191,-0.872653
48.2483,327.207,-0.875051
48.25,327.224,-0.878242
48.2517,327.24,-0.881786
48.2533,327.257,-0.885542
48.255,327.273,-0.889044
48.2567,327.289,-0.891884
48.2583,327.306,-0.892515
48.26,327.323,-0.894529
48.2617,327.339,-0.896914
48.2633,327.356,-0.899304
48.265,327.372,-0.899871
48.2667,327.388,-0.901218
48.2683,327.405,-0.902103
48.27,327.421,-0.904358
48.2717,327.438,-0.906282
48.2733,327.454,-0.90977
48.275,327.471,-0.912385
48.2767,327.487,-0.916426
48.2783,327.504,-0.921681
48.28,327.52,-0.926601
48.2817,327.537,-0.932202
48.2833,327.554,-0.935611
48.285,327.57,-0.939224
48.2867,327.587,-0.941934
48.2883,327.603,-0.943687
48.29,327.619,-0.946067
48.2917,327.636,-0.947895
48.2933,327.652,-0.949624
48.295,327.669,-0.953014
48.2967,327.685,-0.956225
48.2983,327.702,-0.959524
48.3,327.718,-0.96261
48.3017,327.735,-0.965191
48.3033,327.752,-0.968379
48.305,327.768,-0.97011
48.3067,327.784,-0.972733
48.3083,327.8,-0.974622
48.31,327.817,-0.97552
48.3117,327.833,-0.977893
48.3133,327.85,-0.980908
48.315,327.866,-0.982416
48.3167,327.883,-0.984732
48.3183,327.899,-0.987584
48.32,327.916,-0.990761
48.3217,327.932,-0.994634
48.3233,327.949,-0.997367
48.325,327.965,-0.999272
48.3267,327.982,-1.00298
48.3283,327.998,-1.00568
48.33,328.014,-1.00785
48.3317,328.031,-1.00938
48.3333,328.047,-1.01039
48.335,328.063,-1.01257
48.3367,328.08,-1.0143
48.3383,328.096,-1.01768
48.34,328.113,-1.01893
48.3417,328.129,-1.02037
48.3433,328.146,-1.02132
48.345,328.162,-1.02176
48.3467,328.178,-1.02234
48.3483,328.195,-1.02344
48.35,328.211,-1.02539
48.3517,328.228,-1.02669
48.3533,328.244,-1.02807
48.355,328.261,-1.02926
48.3567,328.277,-1.03038
48.3583,328.294,-1.03149
48.36,328.31,-1.03303
48.3617,328.327,-1.03404
48.3633,328.344,-1.03449
48.365,328.36,-1.03453
48.3667,328.376,-1.03495
48.3683,328.393,-1.03567
48.37,328.41,-1.03622
48.3717,328.426,-1.03673
48.3733,328.443,-1.03745
48.375,328.459,-1.0381
48.3767,328.476,-1.03835
48.3783,328.492,-1.03825
48.38,328.508,-1.03801
48.3817,328.525,-1.0377
48.3833,328.542,-1.03734
48.385,328.558,-1.03434
48.3867,328.575,-1.03227
48.3883,328.591,-1.0309
48.39,328.608,-1.02974
48.3917,328.624,-1.02882
48.3933,328.641,-1.02826
48.395,328.658,-1.02767
48.3967,328.674,-1.02702
48.3983,328.691,-1.02638
48.4,328.708,-1.02583
48.4017,328.725,-1.0252
48.4033,328.741,-1.02433
48.405,328.758,-1.02322
48.4067,328.775,-1.02175
48.4083,328.792,-1.01988
48.41,328.808,-1.01734
48.4117,328.825,-1.01439
48.4133,328.841,-1.01186
48.415,328.858,-1.00928
48.4167,328.874,-1.00648
48.4183,328.891,-1.0034
48.42,328.908,-1.00016
48.4217,328.924,-0.996292
48.4233,328.941,-0.991891
48.425,328.958,-0.987109
48.4267,328.974,-0.982124
48.4283,328.991,-0.976503
48.43,329.008,-0.969971
48.4317,329.025,-0.96452
48.4333,329.041,-0.959196
48.435,329.058,-0.954266
48.4367,329.075,-0.948784
48.4383,329.091,-0.944562
48.44,329.108,-0.939248
48.4417,329.125,-0.935758
48.4433,329.142,-0.930857
48.445,329.159,-0.926341
48.4467,329.176,-0.921991
48.4483,329.193,-0.916944
48.45,329.209,-0.91098
48.4517,329.226,-0.90538
48.4533,329.243,-0.898247
48.455,329.26,-0.891597
48.4567,329.276,-0.8851
48.4583,329.294,-0.877339
48.46,329.31,-0.870875
48.4617,329.327,-0.865397
48.4633,329.344,-0.860187
48.465,329.361,-0.854532
48.4667,329.378,-0.848647
48.4683,329.395,-0.842729
48.47,329.412,-0.837383
48.4717,329.428,-0.831393
48.4733,329.445,-0.826098
48.475,329.462,-0.819701
48.4767,329.479,-0.812548
48.4783,329.496,-0.806474
48.48,329.513,-0.801371
48.4817,329.53,-0.79585
48.4833,329.547,-0.79022
48.485,329.564,-0.785806
48.4867,329.581,-0.780015
48.4883,329.598,-0.774834
48.49,329.615,-0.769649
48.4917,329.632,-0.762774
48.4933,329.649,-0.756534
48.495,329.666,-0.749691
48.4967,329.683,-0.744513
48.4983,329.699,-0.737856
48.5,329.717,-0.731982
48.5017,329.733,-0.726197
48.5033,329.75,-0.719997
48.505,329.767,-0.714354
48.5067,329.784,-0.70792
48.5083,329.801,-0.701969
48.51,329.818,-0.695764
48.5117,329.835,-0.689807
48.5133,329.852,-0.685032
48.515,329.869,-0.679386
48.5167,329.886,-0.674712
48.5183,329.903,-0.671637
48.52,329.92,-0.666341
48.5217,329.937,-0.661667
48.5233,329.954,-0.658218
48.525,329.971,-0.654159
48.5267,329.988,-0.648683
48.5283,330.005,-0.644287
48.53,330.022,-0.638191
48.5317,330.039,-0.633543
48.5333,330.056,-0.627718
48.535,330.073,-0.621876
48.5367,330.09,-0.617582
48.5383,330.107,-0.612362
48.54,330.124,-0.608304
48.5417,330.141,-0.604505
48.5433,330.158,-0.599662
48.545,330.175,-0.596764
48.5467,330.192,-0.592492
48.5483,330.209,-0.589313
48.55,330.226,-0.585571
48.5517,330.242,-0.581527
48.5533,330.26,-0.577393
48.555,330.277,-0.573831
48.5567,330.293,-0.570086
48.5583,330.311,-0.566057
48.56,330.327,-0.561297
48.5617,330.344,-0.55721
48.5633,330.361,-0.553859
48.565,330.379,-0.551328
48.5667,330.396,-0.547039
48.5683,330.413,-0.544416
48.57,330.43,-0.541651
48.5717,330.446,-0.538209
48.5733,330.464,-0.534891
48.575,330.48,-0.531219
48.5767,330.497,-0.526472
48.5783,330.514,-0.523661
48.58,330.531,-0.520506
48.5817,330.548,-0.517692
48.5833,330.565,-0.515494
48.585,330.582,-0.511783
48.5867,330.599,-0.509521
48.5883,330.616,-0.508437
48.59,330.633,-0.507446
48.5917,330.649,-0.504948
48.5933,330.666,-0.501703
48.595,330.683,-0.500711
48.5967,330.7,-0.498295
48.5983,330.717,-0.497445
48.6,330.734,-0.494778
48.6017,330.751,-0.492478
48.6033,330.768,-0.490445
48.605,330.785,-0.489176
48.6067,330.802,-0.487404
48.6083,330.819,-0.485849
48.61,330.836,-0.484347
48.6117,330.853,-0.481255
48.6133,330.87,-0.480422
48.615,330.887,-0.479533
48.6167,330.904,-0.478672
48.6183,330.92,-0.476852
48.62,330.937,-0.475757
48.6217,330.954,-0.472159
48.6233,330.971,-0.469607
48.625,330.987,-0.467445
48.6267,331.004,-0.465419
48.6283,331.021,-0.46414
48.63,331.038,-0.462076
48.6317,331.055,-0.460655
48.6333,331.071,-0.460023
48.635,331.088,-0.458461
48.6367,331.105,-0.457857
48.6383,331.122,-0.457723
48.64,331.139,-0.457628
48.6417,331.156,-0.456558
48.6433,331.173,-0.455288
48.645,331.189,-0.454477
48.6467,331.206,-0.454183
48.6483,331.223,-0.453977
48.65,331.24,-0.453228
48.6517,331.257,-0.452096
48.6533,331.273,-0.451175
48.655,331.291,-0.450441
48.6567,331.307,-0.449916
48.6583,331.324,-0.449298
48.66,331.341,-0.447932
48.6617,331.357,-0.446538
48.6633,331.374,-0.445228
48.665,331.391,-0.443897
48.6667,331.408,-0.443002
48.6683,331.425,-0.442379
48.67,331.441,-0.441566
48.6717,331.458,-0.44101
48.6733,331.475,-0.440472
48.675,331.492,-0.439792
48.6767,331.509,-0.439099
48.6783,331.525,-0.43844
48.68,331.542,-0.437878
48.6817,331.559,-0.437161
48.6833,331.576,-0.43617
48.685,331.592,-0.434915
48.6867,331.609,-0.434308
48.6883,331.626,-0.433519
48.69,331.642,-0.433005
48.6917,331.659,-0.432389
48.6933,331.676,-0.431713
48.695,331.693,-0.431238
48.6967,331.709,-0.431085
48.6983,331.726,-0.430952
48.7,331.743,-0.430655
48.7017,331.76,-0.430519
48.7033,331.776,-0.430372
48.705,331.793,-0.430287
48.7067,331.81,-0.4302
48.7083,331.827,-0.430129
48.71,331.843,-0.430005
48.7117,331.86,-0.429841
48.7133,331.877,-0.429673
48.715,331.893,-0.429408
48.7167,331.91,-0.429023
48.7183,331.927,-0.428532
48.72,331.943,-0.427917
48.7217,331.96,-0.427152
48.7233,331.977,-0.426306
48.725,331.994,-0.425468
48.7267,332.011,-0.424724
48.7283,332.027,-0.424177
48.73,332.044,-0.423565
48.7317,332.061,-0.423154
48.7333,332.078,-0.422853
48.735,332.094,-0.422708
48.7367,332.111,-0.42264
48.7383,332.128,-0.422585
48.74,332.144,-0.422567
48.7417,332.161,-0.422548
48.7433,332.177,-0.42242
48.745,332.194,-0.422437
48.7467,332.211,-0.422422
48.7483,332.228,-0.422413
48.75,332.244,-0.422492
48.7517,332.261,-0.422487
48.7533,332.278,-0.422477
48.755,332.294,-0.422451
48.7567,332.311,-0.422359
48.7583,332.328,-0.422213
48.76,332.344,-0.422068
48.7617,332.361,-0.421912
48.7633,332.377,-0.421711
48.765,332.394,-0.421482
48.7667,332.411,-0.421277
48.7683,332.427,-0.421123
48.77,332.444,-0.421012
48.7717,332.461,-0.420965
48.7733,332.478,-0.420941
48.775,332.494,-0.420916
48.7767,332.511,-0.420733
48.7783,332.528,-0.420558
48.78,332.544,-0.420534
48.7817,332.561,-0.420508
48.7833,332.578,-0.42048
48.785,332.595,-0.420439
48.7867,332.611,-0.420382
48.7883,332.628,-0.420266
48.79,332.644,-0.420173
48.7917,332.661,-0.420105
48.7933,332.677,-0.420069
48.795,332.694,-0.420035
48.7967,332.71,-0.420003
48.7983,332.727,-0.419973
48.8,332.744,-0.419798
48.8017,332.761,-0.419766
48.8033,332.777,-0.419729
48.805,332.794,-0.419664
48.8067,332.811,-0.419591
48.8083,332.828,-0.419478
48.81,332.844,-0.419327
48.8117,332.861,-0.419227
48.8133,332.878,-0.419142
48.815,332.894,-0.419056
48.8167,332.911,-0.418966
48.8183,332.928,-0.418858
48.82,332.944,-0.418707
48.8217,332.961,-0.418622
48.8233,332.977,-0.418545
48.825,332.994,-0.418459
48.8267,333.011,-0.418378
48.8283,333.027,-0.418308
48.83,333.044,-0.418246
48.8317,333.061,-0.418191
48.8333,333.077,-0.418061
48.835,333.094,-0.417983
48.8367,333.111,-0.417919
48.8383,333.127,-0.417863
48.84,333.144,-0.417824
48.8417,333.16,-0.417787
48.8433,333.178,-0.417752
48.845,333.194,-0.41771
48.8467,333.211,-0.417666
48.8483,333.228,-0.417621
48.85,333.244,-0.417577
48.8517,333.261,-0.417529
48.8533,333.277,-0.417473
48.855,333.294,-0.417415
48.8567,333.311,-0.417354
48.8583,333.327,-0.417294
48.86,333.344,-0.417242
48.8617,333.36,-0.417192
48.8633,333.377,-0.417138
48.865,333.394,-0.41708
48.8667,333.41,-0.41702
48.8683,333.427,-0.416962
48.87,333.444,-0.416912
48.8717,333.46,-0.416874
48.8733,333.477,-0.41683
48.875,333.494,-0.416796
48.8767,333.51,-0.416768
48.8783,333.527,-0.416743
48.88,333.543,-0.416713
48.8817,333.56,-0.416684
48.8833,333.577,-0.416645
48.885,333.594,-0.416599
48.8867,333.61,-0.416547
48.8883,333.627,-0.416491
48.89,333.643,-0.416443
48.8917,333.66,-0.416402
48.8933,333.677,-0.416358
48.895,333.694,-0.416315
48.8967,333.71,-0.416278
48.8983,333.727,-0.416234
48.9,333.744,-0.416189
48.9017,333.76,-0.416141
48.9033,333.777,-0.416086
48.905,333.793,-0.416018
48.9067,333.81,-0.415945
48.9083,333.827,-0.41586
48.91,333.844,-0.415795
48.9117,333.86,-0.415731
48.9133,333.877,-0.415672
48.915,333.894,-0.41562
48.9167,333.91,-0.415569
48.9183,333.927,-0.415523
48.92,333.944,-0.415476
48.9217,333.96,-0.415427
48.9233,333.977,-0.415373
48.925,333.993,-0.415324
48.9267,334.01,-0.415277
48.9283,334.027,-0.415232
48.93,334.043,-0.415185
48.9317,334.06,-0.41514
48.9333,334.077,-0.41509
48.935,334.094,-0.415049
48.9367,334.11,-0.415006
48.9383,334.126,-0.414956
48.94,334.143,-0.414904
48.9417,334.16,-0.414865
48.9433,334.176,-0.414829
48.945,334.193,-0.414794
48.9467,334.21,-0.414751
48.9483,334.226,-0.414704
48.95,334.243,-0.414655
48.9517,334.259,-0.41461
48.9533,334.276,-0.41456
48.955,334.293,-0.414514
48.9567,334.309,-0.414466
48.9583,334.326,-0.414412
48.96,334.343,-0.414361
48.9617,334.36,-0.414317
48.9633,334.377,-0.414279
48.965,334.393,-0.414243
48.9667,334.41,-0.414207
48.9683,334.427,-0.414172
48.97,334.443,-0.414138
48.9717,334.46,-0.414111
48.9733,334.476,-0.414081
48.975,334.493,-0.414051
48.9767,334.51,-0.414009
48.9783,334.527,-0.413965
48.98,334.543,-0.413913
48.9817,334.56,-0.413862
48.9833,334.576,-0.413811
48.985,334.593,-0.413759
48.9867,334.61,-0.413707
48.9883,334.626,-0.413655
48.99,334.643,-0.41359
48.9917,334.66,-0.413523
48.9933,334.676,-0.413462
48.995,334.693,-0.413407
48.9967,334.71,-0.413348
48.9983,334.727,-0.413294
49,334.743,-0.413237
49.0017,334.76,-0.413181
49.0033,334.776,-0.413124
49.005,334.793,-0.41308
49.0067,334.809,-0.413031
49.0083,334.826,-0.412984
49.01,334.843,-0.412927
49.0117,334.859,-0.412874
49.0133,334.876,-0.412821
49.015,334.893,-0.412757
49.0167,334.91,-0.412689
49.0183,334.926,-0.41263
49.02,334.943,-0.412576
49.0217,334.96,-0.412523
49.0233,334.976,-0.412482
49.025,334.992,-0.412442
49.0267,335.009,-0.412401
49.0283,335.026,-0.412368
49.03,335.043,-0.412339
49.0317,335.059,-0.412308
49.0333,335.076,-0.412267
49.035,335.092,-0.412234
49.0367,335.109,-0.412207
49.0383,335.125,-0.412185
49.04,335.142,-0.412163
49.0417,335.159,-0.412138
49.0433,335.176,-0.412113
49.045,335.192,-0.412088
49.0467,335.209,-0.412061
49.0483,335.226,-0.412036
49.05,335.242,-0.412006
49.0517,335.259,-0.411973
49.0533,335.276,-0.411941
49.055,335.292,-0.411909
49.0567,335.309,-0.411873
49.0583,335.326,-0.41183
49.06,335.342,-0.411797
49.0617,335.359,-0.41176
49.0633,335.375,-0.411719
49.065,335.392,-0.411671
49.0667,335.409,-0.411614
49.0683,335.426,-0.411521
49.07,335.442,-0.411399
49.0717,335.459,-0.41133
49.0733,335.476,-0.411259
49.075,335.492,-0.411193
49.0767,335.509,-0.411128
49.0783,335.525,-0.411069
49.08,335.542,-0.411014
49.0817,335.559,-0.410971
49.0833,335.576,-0.410928
49.085,335.592,-0.410887
49.0867,335.609,-0.41086
49.0883,335.625,-0.410835
49.09,335.642,-0.410808
49.0917,335.659,-0.410779
49.0933,335.675,-0.410749
49.095,335.692,-0.41072
49.0967,335.709,-0.410689
49.0983,335.725,-0.410649
49.1,335.742,-0.410603
49.1017,335.759,-0.410557
49.1033,335.775,-0.410508
49.105,335.792,-0.410458
49.1067,335.809,-0.41041
49.1083,335.825,-0.410357
49.11,335.842,-0.410304
49.1117,335.859,-0.410259
49.1133,335.875,-0.410219
49.115,335.892,-0.410188
49.1167,335.909,-0.410164
49.1183,335.925,-0.41014
49.12,335.942,-0.410119
49.1217,335.959,-0.4101
49.1233,335.975,-0.41008
49.125,335.992,-0.410064
49.1267,336.009,-0.410046
49.1283,336.026,-0.410026
49.13,336.042,-0.410003
49.1317,336.059,-0.409977
49.1333,336.075,-0.409949
49.135,336.092,-0.409912
49.1367,336.108,-0.409885
49.1383,336.125,-0.409859
49.14,336.142,-0.409834
49.1417,336.158,-0.409806
49.1433,336.175,-0.409775
49.145,336.192,-0.409754
49.1467,336.209,-0.409737
49.1483,336.225,-0.409724
49.15,336.242,-0.409713
49.1517,336.258,-0.409702
49.1533,336.275,-0.409691
49.155,336.292,-0.409686
49.1567,336.309,-0.40967
49.1583,336.325,-0.409641
49.16,336.341,-0.409604
49.1617,336.358,-0.409556
49.1633,336.375,-0.40951
49.165,336.392,-0.40946
49.1667,336.408,-0.40942
49.1683,336.425,-0.409375
49.17,336.442,-0.409334
49.1717,336.458,-0.409306
49.1733,336.475,-0.409285
49.175,336.492,-0.409265
49.1767,336.509,-0.409243
49.1783,336.525,-0.409226
49.18,336.542,-0.409206
49.1817,336.558,-0.409191
49.1833,336.575,-0.409171
49.185,336.591,-0.409145
49.1867,336.608,-0.40911
49.1883,336.625,-0.409072
49.19,336.642,-0.409039
49.1917,336.658,-0.409008
49.1933,336.675,-0.408981
49.195,336.691,-0.408954
49.1967,336.708,-0.40893
49.1983,336.725,-0.408899
49.2,336.742,-0.408863
49.2017,336.758,-0.408825
49.2033,336.775,-0.408786
49.205,336.792,-0.408741
49.2067,336.808,-0.40869
49.2083,336.825,-0.408643
49.21,336.842,-0.408595
49.2117,336.858,-0.408551
49.2133,336.875,-0.408515
49.215,336.891,-0.408489
49.2167,336.908,-0.408465
49.2183,336.925,-0.408445
49.22,336.941,-0.408432
49.2217,336.958,-0.408421
49.2233,336.975,-0.408417
49.225,336.992,-0.408418
49.2267,337.008,-0.408427
49.2283,337.025,-0.408436
49.23,337.041,-0.408446
49.2317,337.058,-0.408449
49.2333,337.075,-0.408442
49.235,337.091,-0.408426
49.2367,337.108,-0.408397
49.2383,337.125,-0.408363
49.24,337.142,-0.408327
49.2417,337.158,-0.408287
49.2433,337.175,-0.408242
49.245,337.192,-0.408203
49.2467,337.208,-0.408168
49.2483,337.225,-0.40813
49.25,337.242,-0.408088
49.2517,337.258,-0.408058
49.2533,337.275,-0.408033
49.255,337.291,-0.408004
49.2567,337.308,-0.407972
49.2583,337.325,-0.407942
49.26,337.341,-0.407909
49.2617,337.358,-0.407874
49.2633,337.375,-0.407843
49.265,337.391,-0.40782
49.2667,337.408,-0.407794
49.2683,337.425,-0.407768
49.27,337.441,-0.407747
49.2717,337.458,-0.407724
49.2733,337.475,-0.4077
49.275,337.491,-0.407673
49.2767,337.508,-0.407646
49.2783,337.524,-0.407618
49.28,337.541,-0.407586
49.2817,337.558,-0.407551
49.2833,337.574,-0.407514
49.285,337.591,-0.407475
49.2867,337.607,-0.407445
49.2883,337.624,-0.407419
49.29,337.641,-0.407405
49.2917,337.657,-0.407402
49.2933,337.674,-0.407399
49.295,337.691,-0.407394
49.2967,337.708,-0.407381
49.2983,337.725,-0.407369
49.3,337.741,-0.407353
49.3017,337.758,-0.407333
49.3033,337.775,-0.407303
49.305,337.791,-0.407273
49.3067,337.808,-0.407248
49.3083,337.824,-0.407221
49.31,337.841,-0.4072
49.3117,337.857,-0.407176
49.3133,337.874,-0.407152
49.315,337.891,-0.40712
49.3167,337.907,-0.407082
49.3183,337.924,-0.407041
49.32,337.941,-0.407002
49.3217,337.958,-0.40697
49.3233,337.974,-0.406937
49.325,337.991,-0.406899
49.3267,338.008,-0.406853
49.3283,338.024,-0.406814
49.33,338.041,-0.406788
49.3317,338.058,-0.406759
49.3333,338.074,-0.40673
49.335,338.091,-0.406697
49.3367,338.107,-0.406673
49.3383,338.124,-0.406653
49.34,338.141,-0.406636
49.3417,338.158,-0.406625
49.3433,338.174,-0.406615
49.345,338.191,-0.406596
49.3467,338.208,-0.406571
49.3483,338.225,-0.406543
49.35,338.241,-0.406507
49.3517,338.258,-0.406463
49.3533,338.274,-0.406415
49.355,338.291,-0.40638
49.3567,338.308,-0.406356
49.3583,338.324,-0.406333
49.36,338.341,-0.406318
49.3617,338.357,-0.406303
49.3633,338.374,-0.406283
49.365,338.39,-0.406263
49.3667,338.407,-0.406238
49.3683,338.424,-0.406221
49.37,338.441,-0.406198
49.3717,338.457,-0.406178
49.3733,338.474,-0.406163
49.375,338.491,-0.406153
49.3767,338.507,-0.406145
49.3783,338.524,-0.406133
49.38,338.541,-0.406123
49.3817,338.558,-0.40612
49.3833,338.574,-0.406117
49.385,338.591,-0.406112
49.3867,338.607,-0.406098
49.3883,338.624,-0.406086
49.39,338.641,-0.406072
49.3917,338.657,-0.406067
49.3933,338.674,-0.406053
49.395,338.691,-0.406041
49.3967,338.707,-0.406025
49.3983,338.724,-0.406016
49.4,338.741,-0.406006
49.4017,338.757,-0.406001
49.4033,338.774,-0.405999
49.405,338.791,-0.406007
49.4067,338.807,-0.406012
49.4083,338.824,-0.406022
49.41,338.841,-0.406032
49.4117,338.858,-0.406025
49.4133,338.874,-0.406012
49.415,338.891,-0.405992
49.4167,338.907,-0.40596
49.4183,338.924,-0.405917
49.42,338.941,-0.405872
49.4217,338.957,-0.405827
49.4233,338.974,-0.405772
49.425,338.991,-0.405725
49.4267,339.007,-0.405684
49.4283,339.024,-0.405649
49.43,339.041,-0.405615
49.4317,339.057,-0.405587
49.4333,339.074,-0.405564
49.435,339.091,-0.405546
49.4367,339.107,-0.405529
49.4383,339.124,-0.405513
49.44,339.14,-0.405507
49.4417,339.157,-0.405498
49.4433,339.174,-0.405484
49.445,339.19,-0.405465
49.4467,339.207,-0.405446
49.4483,339.224,-0.405427
49.45,339.241,-0.40541
49.4517,339.257,-0.405398
49.4533,339.274,-0.405384
49.455,339.291,-0.405378
49.4567,339.307,-0.405379
49.4583,339.324,-0.40539
49.46,339.341,-0.405404
49.4617,339.357,-0.405413
49.4633,339.374,-0.40541
49.465,339.39,-0.405394
49.4667,339.407,-0.405373
49.4683,339.424,-0.405343
49.47,339.44,-0.405316
49.4717,339.456,-0.405289
49.4733,339.473,-0.405257
49.475,339.49,-0.405233
49.4767,339.507,-0.405207
49.4783,339.524,-0.405189
49.48,339.54,-0.405174
49.4817,339.557,-0.405161
49.4833,339.574,-0.405147
49.485,339.59,-0.405125
49.4867,339.607,-0.405098
49.4883,339.624,-0.405074
49.49,339.64,-0.405052
49.4917,339.657,-0.405038
49.4933,339.674,-0.405023
49.495,339.691,-0.405006
49.4967,339.707,-0.404987
49.4983,339.724,-0.404975
49.5,339.74,-0.404964
49.5017,339.757,-0.404953
49.5033,339.774,-0.404938
49.505,339.79,-0.404925
49.5067,339.807,-0.404924
49.5083,339.823,-0.40492
49.51,339.84,-0.404916
49.5117,339.856,-0.404905
49.5133,339.873,-0.404886
49.515,339.89,-0.404858
49.5167,339.906,-0.404831
49.5183,339.923,-0.404812
49.52,339.94,-0.404793
49.5217,339.956,-0.404777
49.5233,339.973,-0.404776
49.525,339.99,-0.40478
49.5267,340.007,-0.404777
49.5283,340.023,-0.404772
49.53,340.04,-0.404768
49.5317,340.056,-0.404751
49.5333,340.073,-0.404728
49.535,340.089,-0.404695
49.5367,340.106,-0.404659
49.5383,340.123,-0.404618
49.54,340.139,-0.404591
49.5417,340.156,-0.404567
49.5433,340.173,-0.404538
49.545,340.19,-0.404513
49.5467,340.206,-0.404492
49.5483,340.223,-0.404488
49.55,340.24,-0.404483
49.5517,340.256,-0.404472
49.5533,340.273,-0.404456
49.555,340.289,-0.404443
49.5567,340.306,-0.404434
49.5583,340.323,-0.404423
49.56,340.339,-0.404418
49.5617,340.356,-0.404409
49.5633,340.373,-0.404394
49.565,340.389,-0.404379
49.5667,340.406,-0.404356
49.5683,340.422,-0.404331
49.57,340.439,-0.404308
49.5717,340.456,-0.404277
49.5733,340.473,-0.404246
49.575,340.489,-0.404222
49.5767,340.506,-0.4042
49.5783,340.523,-0.404183
49.58,340.539,-0.404167
49.5817,340.556,-0.404156
49.5833,340.572,-0.404146
49.585,340.589,-0.404133
49.5867,340.606,-0.404116
49.5883,340.622,-0.404097
49.59,340.639,-0.404079
49.5917,340.656,-0.404059
49.5933,340.672,-0.404048
49.595,340.689,-0.404034
49.5967,340.705,-0.404032
49.5983,340.722,-0.404035
49.6,340.739,-0.404031
49.6017,340.755,-0.404031
49.6033,340.772,-0.404035
49.605,340.789,-0.404042
49.6067,340.805,-0.40404
49.6083,340.822,-0.404034
49.61,340.839,-0.404024
49.6117,340.855,-0.404011
49.6133,340.872,-0.403992
49.615,340.888,-0.403977
49.6167,340.905,-0.403965
49.6183,340.922,-0.403959
49.62,340.938,-0.40395
49.6217,340.955,-0.403952
49.6233,340.972,-0.403955
49.625,340.989,-0.403955
49.6267,341.006,-0.40395
49.6283,341.023,-0.403929
49.63,341.04,-0.403904
49.6317,341.056,-0.403865
49.6333,341.073,-0.403826
49.635,341.089,-0.403776
49.6367,341.106,-0.403726
49.6383,341.123,-0.403681
49.64,341.139,-0.403647
49.6417,341.156,-0.403614
49.6433,341.172,-0.403581
49.645,341.189,-0.403556
49.6467,341.206,-0.403542
49.6483,341.222,-0.403533
49.65,341.239,-0.403521
49.6517,341.256,-0.403519
49.6533,341.272,-0.403521
49.655,341.289,-0.403518
49.6567,341.305,-0.403518
49.6583,341.322,-0.403522
49.66,341.338,-0.403527
49.6617,341.355,-0.403529
49.6633,341.372,-0.403533
49.665,341.388,-0.40353
49.6667,341.405,-0.403526
49.6683,341.422,-0.403519
49.67,341.439,-0.403521
49.6717,341.455,-0.403521
49.6733,341.473,-0.403522
49.675,341.489,-0.403525
49.6767,341.505,-0.403523
49.6783,341.522,-0.403519
49.68,341.539,-0.403512
49.6817,341.556,-0.403507
49.6833,341.572,-0.4035
49.685,341.589,-0.403502
49.6867,341.605,-0.403499
49.6883,341.622,-0.403497
49.69,341.639,-0.403503
49.6917,341.655,-0.403509
49.6933,341.672,-0.403513
49.695,341.689,-0.403518
49.6967,341.705,-0.403517
49.6983,341.722,-0.403507
49.7,341.739,-0.403495
49.7017,341.755,-0.403484
49.7033,341.772,-0.403469
49.705,341.789,-0.403449
49.7067,341.805,-0.403421
49.7083,341.822,-0.40339
49.71,341.838,-0.403358
49.7117,341.855,-0.403322
49.7133,341.872,-0.403294
49.715,341.888,-0.403275
49.7167,341.905,-0.403267
49.7183,341.922,-0.403268
49.72,341.938,-0.403277
49.7217,341.955,-0.403292
49.7233,341.971,-0.403303
49.725,341.988,-0.403315
49.7267,342.005,-0.403315
49.7283,342.022,-0.40331
49.73,342.038,-0.4033
49.7317,342.055,-0.403284
49.7333,342.071,-0.40327
49.735,342.088,-0.403249
49.7367,342.105,-0.403231
49.7383,342.121,-0.403217
49.74,342.138,-0.403214
49.7417,342.155,-0.403212
49.7433,342.171,-0.403207
49.745,342.188,-0.403197
49.7467,342.205,-0.403183
49.7483,342.221,-0.403164
49.75,342.238,-0.403147
49.7517,342.254,-0.403127
49.7533,342.271,-0.403104
49.755,342.288,-0.403078
49.7567,342.305,-0.40305
49.7583,342.321,-0.403023
49.76,342.338,-0.402995
49.7617,342.355,-0.40297
49.7633,342.371,-0.402948
49.765,342.388,-0.402929
49.7667,342.404,-0.402904
49.7683,342.421,-0.402884
49.77,342.438,-0.402869
49.7717,342.455,-0.402859
49.7733,342.471,-0.402845
49.775,342.488,-0.402834
49.7767,342.505,-0.402816
49.7783,342.521,-0.402801
49.78,342.538,-0.402782
49.7817,342.554,-0.402766
49.7833,342.571,-0.402745
49.785,342.588,-0.402721
49.7867,342.604,-0.4027
49.7883,342.621,-0.402679
49.79,342.638,-0.402659
49.7917,342.655,-0.402642
49.7933,342.671,-0.402623
49.795,342.688,-0.402608
49.7967,342.704,-0.402584
49.7983,342.721,-0.402566
49.8,342.738,-0.402545
49.8017,342.754,-0.402531
49.8033,342.771,-0.402521
49.805,342.787,-0.402504
49.8067,342.804,-0.40249
49.8083,342.821,-0.402481
49.81,342.838,-0.402473
49.8117,342.854,-0.402469
49.8133,342.871,-0.402468
49.815,342.888,-0.402468
49.8167,342.905,-0.402465
49.8183,342.921,-0.402457
49.82,342.938,-0.402449
49.8217,342.954,-0.402442
49.8233,342.971,-0.402424
49.825,342.987,-0.402404
49.8267,343.004,-0.402386
49.8283,343.021,-0.402363
49.83,343.038,-0.402345
49.8317,343.054,-0.402319
49.8333,343.071,-0.402298
49.835,343.088,-0.402282
49.8367,343.104,-0.402278
49.8383,343.121,-0.402278
49.84,343.138,-0.402286
49.8417,343.154,-0.402293
49.8433,343.171,-0.402306
49.845,343.188,-0.402314
49.8467,343.204,-0.402325
49.8483,343.221,-0.402333
49.85,343.238,-0.40233
49.8517,343.255,-0.402318
49.8533,343.272,-0.402306
49.855,343.288,-0.402287
49.8567,343.305,-0.402266
49.8583,343.321,-0.402254
49.86,343.338,-0.402249
49.8617,343.354,-0.402247
49.8633,343.371,-0.402247
49.865,343.387,-0.402249
49.8667,343.404,-0.40226
49.8683,343.421,-0.402268
49.87,343.437,-0.402275
49.8717,343.454,-0.402281
49.8733,343.47,-0.402281
49.875,343.487,-0.402283
49.8767,343.504,-0.402285
49.8783,343.521,-0.402284
49.88,343.538,-0.402274
49.8817,343.554,-0.402252
49.8833,343.571,-0.40223
49.885,343.588,-0.402206
49.8867,343.605,-0.402187
49.8883,343.621,-0.402175
49.89,343.638,-0.402163
49.8917,343.654,-0.402151
49.8933,343.67,-0.402145
49.895,343.687,-0.402145
49.8967,343.704,-0.402141
49.8983,343.721,-0.402138
49.9,343.738,-0.402132
49.9017,343.754,-0.402128
49.9033,343.771,-0.402121
49.905,343.788,-0.402114
49.9067,343.804,-0.402104
49.9083,343.821,-0.402092
49.91,343.837,-0.40208
49.9117,343.854,-0.402071
49.9133,343.871,-0.402065
49.915,343.887,-0.402061
49.9167,343.904,-0.40206
49.9183,343.921,-0.402061
49.92,343.937,-0.402061
49.9217,343.954,-0.40205
49.9233,343.971,-0.402041
49.925,343.988,-0.402032
49.9267,344.004,-0.402017
49.9283,344.021,-0.402001
49.93,344.037,-0.401987
49.9317,344.054,-0.401976
49.9333,344.071,-0.401959
49.935,344.087,-0.401947
49.9367,344.104,-0.401939
49.9383,344.121,-0.401944
49.94,344.138,-0.401956
49.9417,344.154,-0.401968
49.9433,344.171,-0.401984
49.945,344.187,-0.401993
49.9467,344.204,-0.401998
49.9483,344.221,-0.401996
49.95,344.238,-0.40199
49.9517,344.254,-0.401966
49.9533,344.271,-0.401946
49.955,344.287,-0.401916
49.9567,344.304,-0.401884
49.9583,344.321,-0.401843
49.96,344.337,-0.401805
49.9617,344.354,-0.401774
49.9633,344.371,-0.401752
49.965,344.387,-0.401729
49.9667,344.404,-0.40172
49.9683,344.421,-0.401718
49.97,344.437,-0.401714
49.9717,344.454,-0.40171
49.9733,344.471,-0.40171
49.975,344.487,-0.401706
49.9767,344.504,-0.401702
49.9783,344.52,-0.401692
49.98,344.537,-0.401693
49.9817,344.554,-0.401696
49.9833,344.571,-0.401704
49.985,344.587,-0.40171
49.9867,344.604,-0.401705
49.9883,344.621,-0.401708
49.99,344.637,-0.401705
49.9917,344.654,-0.401706
49.9933,344.67,-0.40171
49.995,344.687,-0.401701
49.9967,344.703,-0.401694
49.9983,344.72,-0.401686
50,344.737,-0.401685
50.0017,344.753,-0.401682
50.0033,344.77,-0.401678
50.005,344.787,-0.401664
50.0067,344.803,-0.401645
50.0083,344.82,-0.401618
50.01,344.836,-0.401584
50.0117,344.853,-0.401558
50.0133,344.87,-0.401537
50.015,344.887,-0.401522
50.0167,344.904,-0.401513
50.0183,344.92,-0.401514
50.02,344.937,-0.401536
50.0217,344.954,-0.401559
50.0233,344.97,-0.401585
50.025,344.987,-0.401609
50.0267,345.004,-0.401618
50.0283,345.02,-0.401615
50.03,345.037,-0.401607
50.0317,345.054,-0.401597
50.0333,345.07,-0.401586
50.035,345.087,-0.401567
50.0367,345.103,-0.401548
50.0383,345.12,-0.401531
50.04,345.137,-0.401513
50.0417,345.154,-0.401492
50.0433,345.17,-0.401476
50.045,345.187,-0.401448
50.0467,345.204,-0.401415
50.0483,345.22,-0.401369
50.05,345.237,-0.401338
50.0517,345.253,-0.401303
50.0533,345.27,-0.401276
50.055,345.287,-0.401255
50.0567,345.303,-0.401237
50.0583,345.32,-0.401229
50.06,345.337,-0.40122
50.0617,345.353,-0.401226
50.0633,345.37,-0.401232
50.065,345.387,-0.401234
50.0667,345.404,-0.401229
50.0683,345.42,-0.401219
50.07,345.437,-0.401206
50.0717,345.453,-0.40119
50.0733,345.47,-0.401183
50.075,345.487,-0.401174
50.0767,345.503,-0.401173
50.0783,345.52,-0.401174
50.08,345.537,-0.401181
50.0817,345.554,-0.40119
50.0833,345.57,-0.4012
50.085,345.587,-0.401201
50.0867,345.603,-0.401188
50.0883,345.62,-0.401168
50.09,345.637,-0.401144
50.0917,345.653,-0.401122
50.0933,345.67,-0.401114
50.095,345.687,-0.40111
50.0967,345.703,-0.401103
50.0983,345.719,-0.401094
50.1,345.737,-0.401087
50.1017,345.753,-0.401085
50.1033,345.77,-0.401087
50.105,345.787,-0.401085
50.1067,345.803,-0.40108
50.1083,345.82,-0.401074
50.11,345.836,-0.40106
50.1117,345.853,-0.401047
50.1133,345.87,-0.401043
50.115,345.886,-0.401042
50.1167,345.903,-0.401034
50.1183,345.919,-0.401023
50.12,345.936,-0.401001
50.1217,345.953,-0.400985
50.1233,345.969,-0.400971
50.125,345.986,-0.400955
50.1267,346.003,-0.400933
50.1283,346.019,-0.400914
50.13,346.036,-0.400891
50.1317,346.053,-0.400872
50.1333,346.069,-0.400864
50.135,346.086,-0.40086
50.1367,346.102,-0.400864
50.1383,346.119,-0.400858
50.14,346.136,-0.400852
50.1417,346.152,-0.400854
50.1433,346.169,-0.400849
50.145,346.186,-0.400844
50.1467,346.203,-0.400841
50.1483,346.219,-0.400836
50.15,346.236,-0.400829
50.1517,346.253,-0.400818
50.1533,346.269,-0.400803
50.155,346.286,-0.400787
50.1567,346.303,-0.400772
50.1583,346.319,-0.400755
50.16,346.336,-0.400741
50.1617,346.352,-0.400729
50.1633,346.369,-0.400715
50.165,346.386,-0.400708
50.1667,346.402,-0.400694
50.1683,346.419,-0.40068
50.17,346.436,-0.400659
50.1717,346.452,-0.400645
50.1733,346.469,-0.400629
50.175,346.486,-0.400613
50.1767,346.503,-0.400593
50.1783,346.519,-0.40058
50.18,346.536,-0.400575
50.1817,346.553,-0.400573
50.1833,346.57,-0.400576
50.185,346.586,-0.400571
50.1867,346.603,-0.400567
50.1883,346.62,-0.400562
50.19,346.636,-0.40056
50.1917,346.653,-0.400565
50.1933,346.669,-0.400571
50.195,346.686,-0.40058
50.1967,346.702,-0.400594
50.1983,346.719,-0.400607
50.2,346.736,-0.400623
50.2017,346.752,-0.400637
50.2033,346.769,-0.400637
50.205,346.785,-0.400634
50.2067,346.802,-0.40063
50.2083,346.819,-0.400632
50.21,346.835,-0.400637
50.2117,346.852,-0.400641
50.2133,346.869,-0.400647
50.215,346.885,-0.400654
50.2167,346.902,-0.400663
50.2183,346.919,-0.400671
50.22,346.935,-0.400676
50.2217,346.952,-0.400664
50.2233,346.968,-0.400645
50.225,346.985,-0.400619
50.2267,347.002,-0.400595
50.2283,347.018,-0.400571
50.23,347.035,-0.400551
50.2317,347.052,-0.400528
50.2333,347.068,-0.400521
50.235,347.085,-0.400511
50.2367,347.102,-0.400516
50.2383,347.118,-0.400531
50.24,347.135,-0.400548
50.2417,347.151,-0.400568
50.2433,347.168,-0.400582
50.245,347.185,-0.400591
50.2467,347.202,-0.400596
50.2483,347.218,-0.400598
50.25,347.235,-0.400591
50.2517,347.251,-0.400584
50.2533,347.268,-0.400569
50.255,347.285,-0.400551
50.2567,347.302,-0.40054
50.2583,347.318,-0.400524
50.26,347.335,-0.400509
50.2617,347.352,-0.400501
50.2633,347.368,-0.400484
50.265,347.385,-0.400465
50.2667,347.401,-0.40045
50.2683,347.418,-0.400432
50.27,347.435,-0.400408
50.2717,347.451,-0.40039
50.2733,347.468,-0.400368
50.275,347.485,-0.400348
50.2767,347.501,-0.400324
50.2783,347.518,-0.400298
50.28,347.535,-0.400271
50.2817,347.551,-0.400244
50.2833,347.568,-0.40022
50.285,347.584,-0.4002
50.2867,347.601,-0.400185
50.2883,347.618,-0.400158
50.29,347.634,-0.400139
50.2917,347.651,-0.400132
50.2933,347.668,-0.400127
50.295,347.684,-0.400128
50.2967,347.701,-0.400131
50.2983,347.717,-0.400134
50.3,347.734,-0.400143
50.3017,347.751,-0.400156
50.3033,347.768,-0.400171
50.305,347.785,-0.400186
50.3067,347.801,-0.400199
50.3083,347.818,-0.400212
50.31,347.835,-0.400224
50.3117,347.851,-0.40023
50.3133,347.868,-0.400224
50.315,347.884,-0.400215
50.3167,347.901,-0.400201
50.3183,347.918,-0.400175
50.32,347.934,-0.400143
50.3217,347.951,-0.400115
50.3233,347.967,-0.400096
50.325,347.984,-0.400085
50.3267,348.001,-0.400079
50.3283,348.017,-0.400075
50.33,348.034,-0.40007
50.3317,348.05,-0.400057
50.3333,348.067,-0.400039
50.335,348.084,-0.400016
50.3367,348.101,-0.399993
50.3383,348.117,-0.399963
50.34,348.134,-0.399938
50.3417,348.15,-0.399918
50.3433,348.167,-0.399894
50.345,348.184,-0.399873
50.3467,348.201,-0.39986
50.3483,348.217,-0.399848
50.35,348.234,-0.399835
50.3517,348.251,-0.399825
50.3533,348.267,-0.399814
50.355,348.284,-0.399809
50.3567,348.301,-0.399806
50.3583,348.317,-0.399808
50.36,348.334,-0.39981
50.3617,348.351,-0.399805
50.3633,348.368,-0.399798
50.365,348.384,-0.399789
50.3667,348.401,-0.39978
50.3683,348.417,-0.399765
50.37,348.434,-0.399749
50.3717,348.451,-0.399725
50.3733,348.467,-0.399705
50.375,348.484,-0.399685
50.3767,348.5,-0.399671
50.3783,348.517,-0.399666
50.38,348.534,-0.399666
50.3817,348.551,-0.399675
50.3833,348.567,-0.399691
50.385,348.583,-0.399707
50.3867,348.6,-0.399729
50.3883,348.617,-0.399744
50.39,348.634,-0.399748
50.3917,348.65,-0.399751
50.3933,348.667,-0.399744
50.395,348.684,-0.399734
50.3967,348.701,-0.39971
50.3983,348.718,-0.399689
50.4,348.734,-0.399673
50.4017,348.751,-0.399663
50.4033,348.767,-0.399648
50.405,348.784,-0.399639
50.4067,348.801,-0.399629
50.4083,348.817,-0.399612
50.41,348.834,-0.399601
50.4117,348.851,-0.399589
50.4133,348.867,-0.399588
50.415,348.884,-0.399586
50.4167,348.901,-0.399583
50.4183,348.917,-0.39958
50.42,348.934,-0.399579
50.4217,348.95,-0.399577
50.4233,348.967,-0.399574
50.425,348.983,-0.399567
50.4267,349,-0.399551
50.4283,349.017,-0.399541
50.43,349.033,-0.399521
50.4317,349.05,-0.399498
50.4333,349.067,-0.399473
50.435,349.083,-0.399452
50.4367,349.1,-0.399439
50.4383,349.117,-0.399437
50.44,349.133,-0.39944
50.4417,349.15,-0.399444
50.4433,349.167,-0.399449
50.445,349.183,-0.399463
50.4467,349.2,-0.399477
50.4483,349.216,-0.39949
50.45,349.233,-0.399503
50.4517,349.25,-0.399518
50.4533,349.267,-0.399541
50.455,349.283,-0.399568
50.4567,349.3,-0.399593
50.4583,349.317,-0.399616
50.46,349.333,-0.399631
50.4617,349.35,-0.399647
50.4633,349.366,-0.399657
50.465,349.383,-0.399664
50.4667,349.4,-0.399666
50.4683,349.417,-0.399659
50.47,349.433,-0.39965
50.4717,349.45,-0.399642
50.4733,349.466,-0.399633
50.475,349.483,-0.399622
50.4767,349.5,-0.39961
50.4783,349.517,-0.399599
50.48,349.533,-0.399594
50.4817,349.549,-0.399587
50.4833,349.566,-0.399576
50.485,349.583,-0.399555
50.4867,349.6,-0.399536
50.4883,349.617,-0.399514
50.49,349.633,-0.39949
50.4917,349.65,-0.399464
50.4933,349.666,-0.399436
50.495,349.683,-0.399407
50.4967,349.699,-0.399379
50.4983,349.716,-0.39936
50.5,349.732,-0.399353
50.5017,349.749,-0.39935
50.5033,349.766,-0.39935
50.505,349.783,-0.399346
50.5067,349.799,-0.399339
50.5083,349.816,-0.39933
50.51,349.832,-0.399321
50.5117,349.849,-0.399305
50.5133,349.866,-0.399284
50.515,349.883,-0.39926
50.5167,349.899,-0.399246
50.5183,349.916,-0.399241
50.52,349.933,-0.399244
50.5217,349.949,-0.399248
50.5233,349.966,-0.399256
50.525,349.983,-0.399267
50.5267,349.999,-0.399278
50.5283,350.016,-0.399293
50.53,350.033,-0.3993
50.5317,350.049,-0.399303
50.5333,350.065,-0.399306
50.535,350.082,-0.399308
50.5367,350.099,-0.399311
50.5383,350.116,-0.39931
50.54,350.132,-0.399305
50.5417,350.149,-0.3993
50.5433,350.166,-0.399294
50.545,350.182,-0.399288
50.5467,350.199,-0.399284
50.5483,350.216,-0.399286
50.55,350.232,-0.399286
50.5517,350.249,-0.39929
50.5533,350.266,-0.399294
50.555,350.282,-0.399298
50.5567,350.299,-0.399306
50.5583,350.316,-0.399311
50.56,350.332,-0.399311
50.5617,350.349,-0.399299
50.5633,350.366,-0.399281
50.565,350.382,-0.399268
50.5667,350.399,-0.39925
50.5683,350.415,-0.399225
50.57,350.432,-0.399201
50.5717,350.449,-0.399186
50.5733,350.465,-0.399173
50.575,350.482,-0.399166
50.5767,350.499,-0.39916
50.5783,350.515,-0.399157
50.58,350.532,-0.39915
50.5817,350.549,-0.399147
50.5833,350.566,-0.399156
50.585,350.582,-0.399164
50.5867,350.599,-0.399165
50.5883,350.615,-0.399166
50.59,350.632,-0.399167
50.5917,350.649,-0.399172
50.5933,350.665,-0.399173
50.595,350.682,-0.399173
50.5967,350.699,-0.399167
50.5983,350.715,-0.399158
50.6,350.732,-0.39915
50.6017,350.749,-0.399147
50.6033,350.766,-0.399149
50.605,350.782,-0.399147
50.6067,350.798,-0.399149
50.6083,350.815,-0.39915
50.61,350.832,-0.399153
50.6117,350.848,-0.39916
50.6133,350.865,-0.399162
50.615,350.882,-0.399165
50.6167,350.898,-0.399164
50.6183,350.915,-0.399156
50.62,350.931,-0.399145
50.6217,350.948,-0.399131
50.6233,350.965,-0.39912
50.625,350.981,-0.399112
50.6267,350.998,-0.399106
50.6283,351.015,-0.399102
50.63,351.031,-0.399106
50.6317,351.048,-0.399109
50.6333,351.065,-0.399115
50.635,351.082,-0.399124
50.6367,351.098,-0.399125
50.6383,351.115,-0.399123
50.64,351.131,-0.399119
50.6417,351.148,-0.399107
50.6433,351.165,-0.399091
50.645,351.181,-0.399082
50.6467,351.198,-0.399074
50.6483,351.214,-0.399067
50.65,351.231,-0.39906
50.6517,351.248,-0.399055
50.6533,351.264,-0.399053
50.655,351.281,-0.399051
50.6567,351.298,-0.399043
50.6583,351.314,-0.399033
50.66,351.331,-0.399025
50.6617,351.347,-0.399011
50.6633,351.364,-0.398998
50.665,351.381,-0.398988
50.6667,351.398,-0.398968
50.6683,351.414,-0.398954
50.67,351.431,-0.39894
50.6717,351.448,-0.398931
50.6733,351.464,-0.398916
50.675,351.481,-0.398904
50.6767,351.497,-0.398898
50.6783,351.514,-0.398886
50.68,351.53,-0.39888
50.6817,351.547,-0.398868
50.6833,351.564,-0.398863
50.685,351.58,-0.398857
50.6867,351.597,-0.398847
50.6883,351.614,-0.398836
50.69,351.63,-0.398835
50.6917,351.647,-0.398837
50.6933,351.664,-0.39884
50.695,351.68,-0.39885
50.6967,351.697,-0.398859
50.6983,351.714,-0.398869
50.7,351.731,-0.398878
50.7017,351.747,-0.398875
50.7033,351.763,-0.398862
50.705,351.78,-0.398855
50.7067,351.797,-0.39885
50.7083,351.814,-0.398846
50.71,351.83,-0.398844
50.7117,351.847,-0.398839
50.7133,351.864,-0.398841
50.715,351.88,-0.39884
50.7167,351.897,-0.398839
50.7183,351.914,-0.39884
50.72,351.931,-0.398835
50.7217,351.947,-0.398827
50.7233,351.964,-0.39882
50.725,351.98,-0.398811
50.7267,351.997,-0.398796
50.7283,352.014,-0.398783
50.73,352.03,-0.398773
50.7317,352.047,-0.398764
50.7333,352.063,-0.398752
50.735,352.08,-0.398739
50.7367,352.097,-0.398727
50.7383,352.113,-0.398717
50.74,352.13,-0.398707
50.7417,352.147,-0.398702
50.7433,352.164,-0.398696
50.745,352.18,-0.398697
50.7467,352.197,-0.398686
50.7483,352.214,-0.398687
50.75,352.23,-0.398691
50.7517,352.247,-0.398693
50.7533,352.264,-0.398687
50.755,352.28,-0.398678
50.7567,352.297,-0.398663
50.7583,352.313,-0.398647
50.76,352.33,-0.398634
50.7617,352.347,-0.398621
50.7633,352.363,-0.398604
50.765,352.38,-0.398578
50.7667,352.396,-0.398556
50.7683,352.413,-0.398538
50.77,352.43,-0.398527
50.7717,352.446,-0.398521
50.7733,352.463,-0.39852
50.775,352.479,-0.398508
50.7767,352.496,-0.3985
50.7783,352.512,-0.398495
50.78,352.529,-0.398493
50.7817,352.546,-0.398486
50.7833,352.563,-0.398484
50.785,352.579,-0.398477
50.7867,352.596,-0.398466
50.7883,352.613,-0.398456
50.79,352.63,-0.39844
50.7917,352.646,-0.39842
50.7933,352.663,-0.398399
50.795,352.679,-0.398363
50.7967,352.696,-0.39833
50.7983,352.713,-0.398295
50.8,352.73,-0.398268
50.8017,352.746,-0.398246
50.8033,352.763,-0.398238
50.805,352.779,-0.398242
50.8067,352.796,-0.398259
50.8083,352.813,-0.39828
50.81,352.829,-0.398309
50.8117,352.846,-0.398333
50.8133,352.862,-0.398341
50.815,352.879,-0.398346
50.8167,352.896,-0.398333
50.8183,352.913,-0.398318
50.82,352.93,-0.398296
50.8217,352.946,-0.398272
50.8233,352.963,-0.398254
50.825,352.98,-0.398236
50.8267,352.996,-0.398204
50.8283,353.012,-0.398177
50.83,353.029,-0.398148
50.8317,353.045,-0.398119
50.8333,353.062,-0.398105
50.835,353.079,-0.3981
50.8367,353.096,-0.398099
50.8383,353.113,-0.398107
50.84,353.129,-0.398116
50.8417,353.146,-0.398127
50.8433,353.163,-0.39814
50.845,353.179,-0.398147
50.8467,353.195,-0.398147
50.8483,353.212,-0.398127
50.85,353.229,-0.398097
50.8517,353.245,-0.398062
50.8533,353.262,-0.397999
50.855,353.279,-0.397957
50.8567,353.295,-0.397915
50.8583,353.312,-0.397873
50.86,353.329,-0.397829
50.8617,353.346,-0.397794
50.8633,353.362,-0.397768
50.865,353.379,-0.397755
50.8667,353.395,-0.397739
50.8683,353.412,-0.397731
50.87,353.429,-0.397727
50.8717,353.446,-0.397718
50.8733,353.462,-0.397712
50.875,353.479,-0.397702
50.8767,353.496,-0.397688
50.8783,353.513,-0.397672
50.88,353.529,-0.397654
50.8817,353.546,-0.397639
50.8833,353.562,-0.397621
50.885,353.579,-0.397607
50.8867,353.595,-0.397594
50.8883,353.612,-0.397584
50.89,353.629,-0.397568
50.8917,353.645,-0.397547
50.8933,353.662,-0.397516
50.895,353.678,-0.397491
50.8967,353.695,-0.397467
50.8983,353.712,-0.397457
50.9,353.729,-0.397449
50.9017,353.745,-0.397447
50.9033,353.762,-0.397454
50.905,353.779,-0.397468
50.9067,353.796,-0.397485
50.9083,353.812,-0.397503
50.91,353.829,-0.397519
50.9117,353.846,-0.397526
50.9133,353.862,-0.397528
50.915,353.879,-0.397521
50.9167,353.896,-0.39751
50.9183,353.912,-0.397486
50.92,353.929,-0.397466
50.9217,353.945,-0.397443
50.9233,353.962,-0.397422
50.925,353.979,-0.397405
50.9267,353.996,-0.397395
50.9283,354.012,-0.397385
50.93,354.029,-0.397374
50.9317,354.045,-0.397372
50.9333,354.062,-0.397379
50.935,354.078,-0.397391
50.9367,354.095,-0.397409
50.9383,354.112,-0.397424
50.94,354.128,-0.397444
50.9417,354.145,-0.397459
50.9433,354.162,-0.397464
50.945,354.178,-0.397469
50.9467,354.195,-0.39747
50.9483,354.212,-0.397468
50.95,354.229,-0.39746
50.9517,354.245,-0.397455
50.9533,354.262,-0.397446
50.955,354.278,-0.397432
50.9567,354.295,-0.397418
50.9583,354.312,-0.397405
50.96,354.328,-0.397394
50.9617,354.345,-0.397385
50.9633,354.362,-0.397372
50.965,354.378,-0.397354
50.9667,354.395,-0.397345
50.9683,354.411,-0.397338
50.97,354.428,-0.39733
50.9717,354.445,-0.397321
50.9733,354.461,-0.397308
50.975,354.478,-0.397296
50.9767,354.494,-0.397292
50.9783,354.511,-0.397276
50.98,354.528,-0.397271
50.9817,354.545,-0.397266
50.9833,354.562,-0.397256
50.985,354.578,-0.39726
50.9867,354.595,-0.397268
50.9883,354.611,-0.397265
50.99,354.628,-0.397264
50.9917,354.645,-0.397272
50.9933,354.661,-0.397284
50.995,354.677,-0.397296
50.9967,354.694,-0.397305
50.9983,354.711,-0.397316
51,354.728,-0.397334
51.0017,354.745,-0.397343
51.0033,354.761,-0.397351
51.005,354.778,-0.397357
51.0067,354.795,-0.397357
51.0083,354.811,-0.397355
51.01,354.828,-0.397349
51.0117,354.845,-0.397342
51.0133,354.861,-0.397325
51.015,354.878,-0.397305
51.0167,354.894,-0.397289
51.0183,354.911,-0.397278
51.02,354.927,-0.397264
51.0217,354.944,-0.397248
51.0233,354.961,-0.397238
51.025,354.978,-0.397227
51.0267,354.995,-0.397204
51.0283,355.011,-0.397187
51.03,355.028,-0.397165
51.0317,355.045,-0.397142
51.0333,355.061,-0.397121
51.035,355.078,-0.397102
51.0367,355.095,-0.397086
51.0383,355.111,-0.397074
51.04,355.128,-0.397068
51.0417,355.145,-0.397074
51.0433,355.161,-0.397075
51.045,355.178,-0.397073
51.0467,355.195,-0.397073
51.0483,355.212,-0.397072
51.05,355.228,-0.397069
51.0517,355.245,-0.397064
51.0533,355.261,-0.397053
51.055,355.278,-0.397041
51.0567,355.295,-0.397023
51.0583,355.311,-0.397017
51.06,355.328,-0.39702
51.0617,355.344,-0.397022
51.0633,355.361,-0.397027
51.065,355.377,-0.39703
51.0667,355.394,-0.397031
51.0683,355.411,-0.397036
51.07,355.428,-0.397036
51.0717,355.444,-0.397036
51.0733,355.461,-0.397033
51.075,355.477,-0.397036
51.0767,355.494,-0.397047
51.0783,355.511,-0.397057
51.08,355.527,-0.397066
51.0817,355.544,-0.397075
51.0833,355.561,-0.397082
51.085,355.577,-0.397087
51.0867,355.594,-0.397082
51.0883,355.611,-0.397068
51.09,355.627,-0.397048
51.0917,355.644,-0.397024
51.0933,355.661,-0.396995
51.095,355.677,-0.396964
51.0967,355.694,-0.396931
51.0983,355.711,-0.396902
51.1,355.727,-0.396877
51.1017,355.744,-0.396856
51.1033,355.761,-0.396844
51.105,355.777,-0.396837
51.1067,355.794,-0.39683
51.1083,355.811,-0.396823
51.11,355.828,-0.396812
51.1117,355.844,-0.396805
51.1133,355.861,-0.396802
51.115,355.877,-0.396794
51.1167,355.894,-0.39678
51.1183,355.911,-0.396767
51.12,355.927,-0.396752
51.1217,355.944,-0.39673
51.1233,355.961,-0.396698
51.125,355.977,-0.396675
51.1267,355.994,-0.396655
51.1283,356.01,-0.396635
51.13,356.027,-0.396622
51.1317,356.044,-0.396619
51.1333,356.061,-0.39662
51.135,356.077,-0.396619
51.1367,356.094,-0.396617
51.1383,356.111,-0.396608
51.14,356.127,-0.396594
51.1417,356.144,-0.396573
51.1433,356.161,-0.396543
51.145,356.177,-0.396515
51.1467,356.194,-0.396484
51.1483,356.211,-0.39646
51.15,356.227,-0.396435
51.1517,356.244,-0.396411
51.1533,356.261,-0.396392
51.155,356.277,-0.396375
51.1567,356.294,-0.396367
51.1583,356.311,-0.396365
51.16,356.327,-0.396371
51.1617,356.344,-0.396375
51.1633,356.361,-0.396367
51.165,356.378,-0.396363
51.1667,356.394,-0.396363
51.1683,356.41,-0.396365
51.17,356.427,-0.396367
51.1717,356.444,-0.396365
51.1733,356.46,-0.396358
51.175,356.477,-0.396343
51.1767,356.494,-0.396329
51.1783,356.511,-0.396318
51.18,356.527,-0.39631
51.1817,356.544,-0.396299
51.1833,356.56,-0.396286
51.185,356.577,-0.39628
51.1867,356.594,-0.396279
51.1883,356.61,-0.396274
51.19,356.627,-0.396266
51.1917,356.643,-0.396262
51.1933,356.66,-0.39626
51.195,356.677,-0.396251
51.1967,356.693,-0.396247
51.1983,356.71,-0.396248
51.2,356.727,-0.396246
51.2017,356.744,-0.396243
51.2033,356.76,-0.396248
51.205,356.777,-0.396254
51.2067,356.793,-0.396258
51.2083,356.81,-0.396258
51.21,356.827,-0.396257
51.2117,356.844,-0.396253
51.2133,356.86,-0.396248
51.215,356.877,-0.396241
51.2167,356.893,-0.396235
51.2183,356.91,-0.396226
51.22,356.927,-0.396208
51.2217,356.943,-0.396186
51.2233,356.96,-0.396166
51.225,356.976,-0.396145
51.2267,356.993,-0.396123
51.2283,357.01,-0.396101
51.23,357.027,-0.396087
51.2317,357.043,-0.396079
51.2333,357.06,-0.396078
51.235,357.076,-0.396079
51.2367,357.093,-0.396076
51.2383,357.11,-0.396078
51.24,357.126,-0.396075
51.2417,357.143,-0.396069
51.2433,357.16,-0.396059
51.245,357.176,-0.39605
51.2467,357.193,-0.396038
51.2483,357.209,-0.396021
51.25,357.226,-0.396007
51.2517,357.243,-0.395993
51.2533,357.259,-0.395976
51.255,357.276,-0.395953
51.2567,357.292,-0.395936
51.2583,357.309,-0.395921
51.26,357.326,-0.395906
51.2617,357.343,-0.395891
51.2633,357.36,-0.395876
51.265,357.376,-0.395864
51.2667,357.393,-0.395856
51.2683,357.409,-0.395844
51.27,357.426,-0.39583
51.2717,357.443,-0.395815
51.2733,357.459,-0.395794
51.275,357.476,-0.395785
51.2767,357.493,-0.395772
51.2783,357.509,-0.395749
51.28,357.526,-0.395727
51.2817,357.543,-0.395712
51.2833,357.559,-0.395689
51.285,357.576,-0.395669
51.2867,357.592,-0.39565
51.2883,357.609,-0.395633
51.29,357.625,-0.39562
51.2917,357.642,-0.395611
51.2933,357.659,-0.395598
51.295,357.676,-0.395588
51.2967,357.692,-0.395573
51.2983,357.709,-0.395556
51.3,357.726,-0.395543
51.3017,357.742,-0.395525
51.3033,357.759,-0.395499
51.305,357.776,-0.395469
51.3067,357.792,-0.395438
51.3083,357.809,-0.395409
51.31,357.826,-0.39539
51.3117,357.842,-0.395377
51.3133,357.858,-0.395356
51.315,357.875,-0.395334
51.3167,357.892,-0.395318
51.3183,357.909,-0.395301
51.32,357.926,-0.395284
51.3217,357.942,-0.395266
51.3233,357.959,-0.395253
51.325,357.975,-0.395233
51.3267,357.992,-0.395224
51.3283,358.009,-0.395222
51.33,358.025,-0.39522
51.3317,358.042,-0.395221
51.3333,358.058,-0.395222
51.335,358.075,-0.395234
51.3367,358.092,-0.395242
51.3383,358.108,-0.395237
51.34,358.125,-0.395225
51.3417,358.142,-0.395206
51.3433,358.158,-0.395181
51.345,358.175,-0.395149
51.3467,358.192,-0.395117
51.3483,358.208,-0.395082
51.35,358.225,-0.395048
51.3517,358.241,-0.395022
51.3533,358.258,-0.395007
51.355,358.274,-0.395005
51.3567,358.291,-0.395005
51.3583,358.308,-0.395002
51.36,358.325,-0.394987
51.3617,358.342,-0.394967
51.3633,358.358,-0.394947
51.365,358.374,-0.39493
51.3667,358.391,-0.394927
51.3683,358.407,-0.394921
51.37,358.424,-0.394913
51.3717,358.441,-0.394907
51.3733,358.458,-0.394912
51.375,358.475,-0.394914
51.3767,358.491,-0.394913
51.3783,358.508,-0.394898
51.38,358.525,-0.394872
51.3817,358.541,-0.394838
51.3833,358.558,-0.394792
51.385,358.575,-0.394734
51.3867,358.591,-0.394651
51.3883,358.608,-0.394564
51.39,358.625,-0.394485
51.3917,358.641,-0.394438
51.3933,358.658,-0.394395
51.395,358.674,-0.394364
51.3967,358.691,-0.394338
51.3983,358.708,-0.394317
51.4,358.725,-0.39431
51.4017,358.741,-0.394311
51.4033,358.758,-0.394318
51.405,358.775,-0.39432
51.4067,358.791,-0.394325
51.4083,358.808,-0.394323
51.41,358.825,-0.394323
51.4117,358.842,-0.394322
51.4133,358.858,-0.394314
51.415,358.874,-0.394297
51.4167,358.891,-0.394273
51.4183,358.908,-0.394256
51.42,358.924,-0.394244
51.4217,358.941,-0.394236
51.4233,358.958,-0.394231
51.425,358.974,-0.394223
51.4267,358.991,-0.394227
51.4283,359.008,-0.39424
51.43,359.024,-0.394249
51.4317,359.041,-0.394264
51.4333,359.057,-0.394268
51.435,359.074,-0.394275
51.4367,359.091,-0.394284
51.4383,359.107,-0.39429
51.44,359.124,-0.394304
51.4417,359.141,-0.394322
51.4433,359.157,-0.394332
51.445,359.174,-0.394344
51.4467,359.191,-0.394359
51.4483,359.208,-0.39437
51.45,359.224,-0.394375
51.4517,359.241,-0.394382
51.4533,359.257,-0.394392
51.455,359.274,-0.3944
51.4567,359.291,-0.394409
51.4583,359.307,-0.394418
51.46,359.324,-0.394423
51.4617,359.341,-0.394418
51.4633,359.357,-0.394411
51.465,359.374,-0.394393
51.4667,359.391,-0.394364
51.4683,359.407,-0.394333
51.47,359.424,-0.394297
51.4717,359.44,-0.394263
51.4733,359.457,-0.394234
51.475,359.474,-0.39421
51.4767,359.49,-0.394194
51.4783,359.507,-0.394186
51.48,359.523,-0.394175
51.4817,359.54,-0.394168
51.4833,359.557,-0.394165
51.485,359.574,-0.394172
51.4867,359.59,-0.394178
51.4883,359.607,-0.394187
51.49,359.624,-0.394193
51.4917,359.64,-0.394196
51.4933,359.657,-0.394182
51.495,359.673,-0.394154
51.4967,359.69,-0.394119
51.4983,359.707,-0.394059
51.5,359.724,-0.393995
51.5017,359.74,-0.393929
51.5033,359.757,-0.393855
51.505,359.774,-0.393798
51.5067,359.79,-0.393754
51.5083,359.807,-0.393716
51.51,359.824,-0.393678
51.5117,359.84,-0.393649
51.5133,359.857,-0.393625
51.515,359.873,-0.393613
51.5167,359.89,-0.393607
51.5183,359.907,-0.393606
51.52,359.923,-0.39361
51.5217,359.94,-0.393613
51.5233,359.956,-0.393613
51.525,359.973,-0.393608
51.5267,359.99,-0.393599
51.5283,360.006,-0.393579
51.53,360.023,-0.393556
51.5317,360.04,-0.393538
51.5333,360.057,-0.393519
51.535,360.074,-0.393513
51.5367,360.09,-0.393509
51.5383,360.107,-0.393504
51.54,360.124,-0.393495
51.5417,360.141,-0.393488
51.5433,360.157,-0.393484
51.545,360.174,-0.393487
51.5467,360.19,-0.393478
51.5483,360.207,-0.393462
51.55,360.224,-0.39344
51.5517,360.24,-0.393425
51.5533,360.257,-0.393405
51.555,360.273,-0.39338
51.5567,360.29,-0.393361
51.5583,360.306,-0.393347
51.56,360.323,-0.393343
51.5617,360.34,-0.393347
51.5633,360.356,-0.393362
51.565,360.373,-0.393372
51.5667,360.389,-0.393387
51.5683,360.406,-0.393405
51.57,360.423,-0.393416
51.5717,360.44,-0.393422
51.5733,360.457,-0.39343
51.575,360.473,-0.393434
51.5767,360.489,-0.393433
51.5783,360.506,-0.393423
51.58,360.523,-0.393409
51.5817,360.539,-0.393398
51.5833,360.556,-0.393388
51.585,360.573,-0.393377
51.5867,360.59,-0.393363
51.5883,360.606,-0.393353
51.59,360.623,-0.393339
51.5917,360.639,-0.393324
51.5933,360.656,-0.393304
51.595,360.673,-0.393286
51.5967,360.689,-0.393262
51.5983,360.706,-0.393232
51.6,360.722,-0.393205
51.6017,360.739,-0.393181
51.6033,360.756,-0.393155
51.605,360.772,-0.393133
51.6067,360.789,-0.39311
51.6083,360.806,-0.393091
51.61,360.822,-0.393069
51.6117,360.839,-0.393041
51.6133,360.856,-0.393014
51.615,360.873,-0.392996
51.6167,360.889,-0.392975
51.6183,360.906,-0.392957
51.62,360.923,-0.392939
51.6217,360.939,-0.392926
51.6233,360.956,-0.392914
51.625,360.973,-0.392911
51.6267,360.989,-0.392907
51.6283,361.006,-0.392898
51.63,361.023,-0.392889
51.6317,361.039,-0.392884
51.6333,361.056,-0.392876
51.635,361.073,-0.392859
51.6367,361.089,-0.392835
51.6383,361.106,-0.392806
51.64,361.122,-0.39278
51.6417,361.139,-0.392757
51.6433,361.155,-0.392736
51.645,361.172,-0.392721
51.6467,361.189,-0.392709
51.6483,361.206,-0.39269
51.65,361.222,-0.392671
51.6517,361.239,-0.392661
51.6533,361.256,-0.392642
51.655,361.273,-0.392625
51.6567,361.289,-0.392611
51.6583,361.306,-0.392597
51.66,361.322,-0.392586
51.6617,361.339,-0.392576
51.6633,361.356,-0.392569
51.665,361.372,-0.392573
51.6667,361.389,-0.392575
51.6683,361.406,-0.392564
51.67,361.422,-0.39255
51.6717,361.439,-0.392531
51.6733,361.455,-0.392502
51.675,361.472,-0.392464
51.6767,361.489,-0.392429
51.6783,361.505,-0.392393
51.68,361.522,-0.392368
51.6817,361.539,-0.392342
51.6833,361.555,-0.392318
51.685,361.572,-0.392302
51.6867,361.589,-0.392292
51.6883,361.605,-0.392288
51.69,361.622,-0.392284
51.6917,361.638,-0.39228
51.6933,361.655,-0.392275
51.695,361.672,-0.392267
51.6967,361.688,-0.392261
51.6983,361.705,-0.39225
51.7,361.721,-0.39224
51.7017,361.738,-0.392239
51.7033,361.755,-0.392236
51.705,361.771,-0.392232
51.7067,361.788,-0.392229
51.7083,361.805,-0.39222
51.71,361.822,-0.392218
51.7117,361.838,-0.392209
51.7133,361.855,-0.392198
51.715,361.872,-0.392175
51.7167,361.888,-0.392147
51.7183,361.905,-0.392109
51.72,361.922,-0.392082
51.7217,361.938,-0.392054
51.7233,361.954,-0.392027
51.725,361.971,-0.391999
51.7267,361.988,-0.391974
51.7283,362.004,-0.391952
51.73,362.021,-0.391935
51.7317,362.038,-0.391923
51.7333,362.055,-0.391916
51.735,362.072,-0.391909
51.7367,362.088,-0.391903
51.7383,362.105,-0.391889
51.74,362.121,-0.391867
51.7417,362.138,-0.391843
51.7433,362.154,-0.391813
51.745,362.171,-0.391779
51.7467,362.188,-0.391741
51.7483,362.204,-0.391706
51.75,362.221,-0.391681
51.7517,362.238,-0.391663
51.7533,362.254,-0.391652
51.755,362.271,-0.391653
51.7567,362.288,-0.391657
51.7583,362.304,-0.39167
51.76,362.321,-0.391684
51.7617,362.338,-0.391691
51.7633,362.354,-0.3917
51.765,362.371,-0.391698
51.7667,362.387,-0.391692
51.7683,362.404,-0.391677
51.77,362.421,-0.391646
51.7717,362.438,-0.391608
51.7733,362.454,-0.391562
51.775,362.471,-0.3915
51.7767,362.488,-0.391414
51.7783,362.504,-0.391364
51.78,362.521,-0.391319
51.7817,362.538,-0.391278
51.7833,362.554,-0.391237
51.785,362.571,-0.39121
51.7867,362.587,-0.391198
51.7883,362.604,-0.391199
51.79,362.621,-0.391203
51.7917,362.637,-0.391215
51.7933,362.654,-0.391232
51.795,362.671,-0.391247
51.7967,362.687,-0.391261
51.7983,362.704,-0.391282
51.8,362.72,-0.391297
51.8017,362.737,-0.391305
51.8033,362.754,-0.391308
51.805,362.771,-0.391316
51.8067,362.787,-0.391317
51.8083,362.804,-0.391308
51.81,362.82,-0.391289
51.8117,362.837,-0.391266
51.8133,362.854,-0.391244
51.815,362.87,-0.391213
51.8167,362.887,-0.391179
51.8183,362.904,-0.391146
51.82,362.92,-0.391106
51.8217,362.937,-0.391063
51.8233,362.954,-0.391021
51.825,362.97,-0.390986
51.8267,362.987,-0.390957
51.8283,363.004,-0.390931
51.83,363.02,-0.390918
51.8317,363.037,-0.390915
51.8333,363.054,-0.390922
51.835,363.07,-0.390936
51.8367,363.087,-0.390943
51.8383,363.103,-0.390949
51.84,363.12,-0.390945
51.8417,363.137,-0.390941
51.8433,363.153,-0.390928
51.845,363.17,-0.3909
51.8467,363.187,-0.39087
51.8483,363.204,-0.390847
51.85,363.22,-0.390829
51.8517,363.237,-0.39082
51.8533,363.253,-0.390806
51.855,363.27,-0.390796
51.8567,363.287,-0.390779
51.8583,363.303,-0.390756
51.86,363.32,-0.390734
51.8617,363.336,-0.390718
51.8633,363.353,-0.390695
51.865,363.37,-0.390677
51.8667,363.387,-0.390666
51.8683,363.404,-0.390654
51.87,363.421,-0.390647
51.8717,363.437,-0.390643
51.8733,363.454,-0.39064
51.875,363.47,-0.390634
51.8767,363.487,-0.390622
51.8783,363.503,-0.390607
51.88,363.52,-0.390605
51.8817,363.537,-0.390595
51.8833,363.553,-0.39058
51.885,363.57,-0.390566
51.8867,363.587,-0.390557
51.8883,363.603,-0.390544
51.89,363.62,-0.390529
51.8917,363.637,-0.390509
51.8933,363.653,-0.390479
51.895,363.67,-0.390446
51.8967,363.687,-0.390406
51.8983,363.703,-0.39036
51.9,363.72,-0.390321
51.9017,363.737,-0.390287
51.9033,363.753,-0.390261
51.905,363.77,-0.390247
51.9067,363.786,-0.39025
51.9083,363.803,-0.390247
51.91,363.82,-0.390252
51.9117,363.837,-0.390253
51.9133,363.853,-0.390257
51.915,363.87,-0.39026
51.9167,363.886,-0.390259
51.9183,363.903,-0.390259
51.92,363.92,-0.390251
51.9217,363.936,-0.390239
51.9233,363.953,-0.390231
51.925,363.969,-0.390224
51.9267,363.986,-0.39021
51.9283,364.003,-0.390189
51.93,364.02,-0.390166
51.9317,364.036,-0.390151
51.9333,364.052,-0.390138
51.935,364.069,-0.390129
51.9367,364.086,-0.39013
51.9383,364.103,-0.390136
51.94,364.119,-0.39014
51.9417,364.136,-0.39015
51.9433,364.153,-0.390157
51.945,364.169,-0.390152
51.9467,364.186,-0.390142
51.9483,364.203,-0.390127
51.95,364.219,-0.390116
51.9517,364.236,-0.390101
51.9533,364.253,-0.390079
51.955,364.269,-0.39005
51.9567,364.286,-0.390024
51.9583,364.302,-0.389994
51.96,364.319,-0.389977
51.9617,364.335,-0.389956
51.9633,364.352,-0.389937
51.965,364.369,-0.389918
51.9667,364.386,-0.38991
51.9683,364.402,-0.389907
51.97,364.419,-0.3899
51.9717,364.436,-0.389903
51.9733,364.453,-0.38991
51.975,364.47,-0.38991
51.9767,364.486,-0.389911
51.9783,364.502,-0.389911
51.98,364.519,-0.38991
51.9817,364.536,-0.389902
51.9833,364.552,-0.389889
51.985,364.569,-0.389865
51.9867,364.586,-0.389837
51.9883,364.602,-0.389804
51.99,364.619,-0.389764
51.9917,364.635,-0.38973
51.9933,364.652,-0.389697
51.995,364.669,-0.389661
51.9967,364.685,-0.389635
51.9983,364.702,-0.389617
52,364.718,-0.389602
52.0017,364.735,-0.389584
52.0033,364.752,-0.389571
52.005,364.768,-0.389558
52.0067,364.785,-0.389544
52.0083,364.802,-0.389527
52.01,364.819,-0.3895
52.0117,364.835,-0.389476
52.0133,364.852,-0.389452
52.015,364.869,-0.389424
52.0167,364.885,-0.389389
52.0183,364.902,-0.389352
52.02,364.919,-0.389309
52.0217,364.935,-0.389266
52.0233,364.952,-0.389226
52.025,364.969,-0.389185
52.0267,364.985,-0.389148
52.0283,365.002,-0.389115
52.03,365.018,-0.389079
52.0317,365.035,-0.389051
52.0333,365.051,-0.389027
52.035,365.068,-0.388998
52.0367,365.085,-0.388981
52.0383,365.102,-0.388962
52.04,365.118,-0.388951
52.0417,365.135,-0.388944
52.0433,365.152,-0.388939
52.045,365.168,-0.388937
52.0467,365.185,-0.388941
52.0483,365.202,-0.388952
52.05,365.218,-0.388976
52.0517,365.235,-0.388994
52.0533,365.252,-0.388999
52.055,365.269,-0.389
52.0567,365.285,-0.388989
52.0583,365.302,-0.388971
52.06,365.318,-0.388953
52.0617,365.335,-0.388929
52.0633,365.352,-0.388898
52.065,365.369,-0.388864
52.0667,365.385,-0.388828
52.0683,365.402,-0.3888
52.07,365.418,-0.388775
52.0717,365.435,-0.388745
52.0733,365.452,-0.388714
52.075,365.468,-0.388681
52.0767,365.485,-0.388645
52.0783,365.502,-0.388605
52.08,365.518,-0.388569
52.0817,365.535,-0.388543
52.0833,365.552,-0.388524
52.085,365.568,-0.388507
52.0867,365.585,-0.388498
52.0883,365.601,-0.388492
52.09,365.618,-0.38848
52.0917,365.634,-0.388465
52.0933,365.651,-0.388444
52.095,365.668,-0.388421
52.0967,365.685,-0.388403
52.0983,365.701,-0.388377
52.1,365.718,-0.388352
52.1017,365.734,-0.388334
52.1033,365.751,-0.38832
52.105,365.768,-0.38831
52.1067,365.784,-0.38832
52.1083,365.801,-0.388333
52.11,365.818,-0.388349
52.1117,365.834,-0.388367
52.1133,365.852,-0.388393
52.115,365.868,-0.388405
52.1167,365.885,-0.388406
52.1183,365.901,-0.388397
52.12,365.918,-0.388381
52.1217,365.935,-0.388355
52.1233,365.951,-0.388328
52.125,365.968,-0.388309
52.1267,365.985,-0.388293
52.1283,366.001,-0.388278
52.13,366.018,-0.388273
52.1317,366.034,-0.388266
52.1333,366.051,-0.388249
52.135,366.068,-0.388232
52.1367,366.084,-0.388218
52.1383,366.101,-0.388203
52.14,366.118,-0.388181
52.1417,366.134,-0.388148
52.1433,366.151,-0.388111
52.145,366.168,-0.388073
52.1467,366.184,-0.388036
52.1483,366.201,-0.388003
52.15,366.217,-0.387975
52.1517,366.233,-0.387957
52.1533,366.25,-0.387941
52.155,366.266,-0.387936
52.1567,366.283,-0.387934
52.1583,366.3,-0.387943
52.16,366.317,-0.387954
52.1617,366.333,-0.387954
52.1633,366.35,-0.387952
52.165,366.367,-0.387954
52.1667,366.383,-0.387949
52.1683,366.4,-0.387935
52.17,366.417,-0.387921
52.1717,366.434,-0.387909
52.1733,366.45,-0.387894
52.175,366.467,-0.387876
52.1767,366.483,-0.387853
52.1783,366.5,-0.387821
52.18,366.517,-0.387791
52.1817,366.534,-0.387763
52.1833,366.55,-0.387738
52.185,366.566,-0.387713
52.1867,366.583,-0.38769
52.1883,366.6,-0.387669
52.19,366.616,-0.387648
52.1917,366.633,-0.387632
52.1933,366.649,-0.387624
52.195,366.666,-0.387609
52.1967,366.683,-0.387596
52.1983,366.7,-0.38758
52.2,366.716,-0.38756
52.2017,366.733,-0.38754
52.2033,366.75,-0.387512
52.205,366.767,-0.387476
52.2067,366.783,-0.387436
52.2083,366.8,-0.387395
52.21,366.817,-0.387359
52.2117,366.833,-0.387326
52.2133,366.85,-0.387291
52.215,366.867,-0.38727
52.2167,366.883,-0.387252
52.2183,366.9,-0.387231
52.22,366.917,-0.38721
52.2217,366.933,-0.387188
52.2233,366.95,-0.387163
52.225,366.966,-0.387135
52.2267,366.983,-0.387106
52.2283,366.999,-0.387085
52.23,367.016,-0.38706
52.2317,367.032,-0.387036
52.2333,367.049,-0.387012
52.235,367.066,-0.386988
52.2367,367.083,-0.386954
52.2383,367.1,-0.386913
52.24,367.116,-0.38687
52.2417,367.133,-0.386826
52.2433,367.149,-0.386793
52.245,367.166,-0.386757
52.2467,367.183,-0.386726
52.2483,367.2,-0.386705
52.25,367.216,-0.386689
52.2517,367.233,-0.386676
52.2533,367.25,-0.38666
52.255,367.266,-0.386646
52.2567,367.283,-0.386642
52.2583,367.3,-0.386632
52.26,367.316,-0.38662
52.2617,367.333,-0.386614
52.2633,367.349,-0.386617
52.265,367.365,-0.386615
52.2667,367.382,-0.386611
52.2683,367.399,-0.38661
52.27,367.416,-0.386607
52.2717,367.432,-0.38659
52.2733,367.449,-0.386579
52.275,367.466,-0.386566
52.2767,367.483,-0.386546
52.2783,367.499,-0.386519
52.28,367.516,-0.386497
52.2817,367.532,-0.386479
52.2833,367.549,-0.386463
52.285,367.565,-0.386445
52.2867,367.582,-0.386427
52.2883,367.599,-0.386407
52.29,367.615,-0.386382
52.2917,367.632,-0.386354
52.2933,367.649,-0.386322
52.295,367.665,-0.386289
52.2967,367.682,-0.386264
52.2983,367.699,-0.386252
52.3,367.716,-0.386242
52.3017,367.732,-0.386248
52.3033,367.749,-0.386266
52.305,367.766,-0.386295
52.3067,367.782,-0.386316
52.3083,367.799,-0.386335
52.31,367.816,-0.386341
52.3117,367.832,-0.386336
52.3133,367.849,-0.386324
52.315,367.865,-0.386314
52.3167,367.882,-0.386295
52.3183,367.899,-0.386262
52.32,367.916,-0.386225
52.3217,367.932,-0.386194
52.3233,367.949,-0.386155
52.325,367.965,-0.386119
52.3267,367.982,-0.386085
52.3283,367.999,-0.386043
52.33,368.015,-0.385997
52.3317,368.032,-0.385954
52.3333,368.048,-0.385914
52.335,368.065,-0.385878
52.3367,368.082,-0.385841
52.3383,368.099,-0.385813
52.34,368.115,-0.385795
52.3417,368.132,-0.385771
52.3433,368.148,-0.385758
52.345,368.165,-0.385755
52.3467,368.181,-0.385749
52.3483,368.198,-0.38574
52.35,368.215,-0.385729
52.3517,368.232,-0.385723
52.3533,368.248,-0.385717
52.355,368.265,-0.385706
52.3567,368.282,-0.385701
52.3583,368.298,-0.385697
52.36,368.315,-0.385684
52.3617,368.332,-0.385672
52.3633,368.348,-0.385647
52.365,368.365,-0.385622
52.3667,368.382,-0.385585
52.3683,368.398,-0.385549
52.37,368.415,-0.385511
52.3717,368.431,-0.385468
52.3733,368.448,-0.385423
52.375,368.465,-0.385383
52.3767,368.481,-0.385337
52.3783,368.498,-0.385296
52.38,368.514,-0.385261
52.3817,368.531,-0.385227
52.3833,368.548,-0.385199
52.385,368.565,-0.385168
52.3867,368.581,-0.385145
52.3883,368.598,-0.385129
52.39,368.614,-0.38512
52.3917,368.631,-0.385117
52.3933,368.648,-0.385121
52.395,368.664,-0.385121
52.3967,368.681,-0.385129
52.3983,368.697,-0.385131
52.4,368.714,-0.38513
52.4017,368.731,-0.385128
52.4033,368.748,-0.38512
52.405,368.764,-0.385104
52.4067,368.781,-0.385077
52.4083,368.798,-0.385043
52.41,368.814,-0.385002
52.4117,368.831,-0.384963
52.4133,368.848,-0.384924
52.415,368.864,-0.384882
52.4167,368.881,-0.384845
52.4183,368.898,-0.384807
52.42,368.914,-0.384774
52.4217,368.931,-0.384752
52.4233,368.948,-0.384733
52.425,368.964,-0.384719
52.4267,368.981,-0.384712
52.4283,368.998,-0.384715
52.43,369.014,-0.384714
52.4317,369.031,-0.384703
52.4333,369.048,-0.384692
52.435,369.064,-0.384681
52.4367,369.081,-0.384663
52.4383,369.097,-0.384635
52.44,369.114,-0.3846
52.4417,369.13,-0.384562
52.4433,369.147,-0.38452
52.445,369.164,-0.384467
52.4467,369.181,-0.384416
52.4483,369.197,-0.384337
52.45,369.214,-0.384228
52.4517,369.23,-0.384173
52.4533,369.247,-0.384122
52.455,369.263,-0.384071
52.4567,369.28,-0.384028
52.4583,369.297,-0.383983
52.46,369.314,-0.383949
52.4617,369.33,-0.383926
52.4633,369.347,-0.383906
52.465,369.364,-0.383894
52.4667,369.38,-0.383875
52.4683,369.397,-0.383861
52.47,369.413,-0.383855
52.4717,369.431,-0.383853
52.4733,369.447,-0.383849
52.475,369.464,-0.383838
52.4767,369.48,-0.383823
52.4783,369.497,-0.383816
52.48,369.513,-0.383815
52.4817,369.53,-0.38381
52.4833,369.546,-0.3838
52.485,369.563,-0.383779
52.4867,369.58,-0.383754
52.4883,369.596,-0.383729
52.49,369.614,-0.383704
52.4917,369.63,-0.383679
52.4933,369.647,-0.383656
52.495,369.664,-0.383626
52.4967,369.68,-0.383597
52.4983,369.697,-0.383561
52.5,369.713,-0.383526
52.5017,369.73,-0.38349
52.5033,369.746,-0.383449
52.505,369.763,-0.383407
52.5067,369.78,-0.383362
52.5083,369.797,-0.383322
52.51,369.813,-0.383289
52.5117,369.83,-0.383267
52.5133,369.847,-0.383253
52.515,369.863,-0.38324
52.5167,369.88,-0.383224
52.5183,369.897,-0.383215
52.52,369.914,-0.383195
52.5217,369.93,-0.383175
52.5233,369.946,-0.383151
52.525,369.963,-0.383129
52.5267,369.98,-0.383111
52.5283,369.996,-0.383088
52.53,370.013,-0.383075
52.5317,370.03,-0.383066
52.5333,370.047,-0.383065
52.535,370.063,-0.38306
52.5367,370.08,-0.383049
52.5383,370.096,-0.383027
52.54,370.113,-0.382995
52.5417,370.13,-0.382957
52.5433,370.146,-0.38292
52.545,370.162,-0.382886
52.5467,370.18,-0.382858
52.5483,370.196,-0.382833
52.55,370.213,-0.382819
52.5517,370.23,-0.382805
52.5533,370.246,-0.382792
52.555,370.263,-0.382779
52.5567,370.28,-0.382769
52.5583,370.296,-0.382761
52.56,370.313,-0.382755
52.5617,370.329,-0.382748
52.5633,370.346,-0.382746
52.565,370.363,-0.38274
52.5667,370.38,-0.382735
52.5683,370.396,-0.382732
52.57,370.413,-0.382726
52.5717,370.43,-0.382718
52.5733,370.447,-0.382712
52.575,370.463,-0.382703
52.5767,370.48,-0.382692
52.5783,370.497,-0.382676
52.58,370.514,-0.38266
52.5817,370.53,-0.382639
52.5833,370.546,-0.38261
52.585,370.562,-0.382577
52.5867,370.579,-0.382539
52.5883,370.595,-0.382497
52.59,370.612,-0.38245
52.5917,370.629,-0.382404
52.5933,370.645,-0.382357
52.595,370.662,-0.382313
52.5967,370.679,-0.382273
52.5983,370.696,-0.382236
52.6,370.713,-0.382204
52.6017,370.729,-0.382174
52.6033,370.746,-0.382142
52.605,370.763,-0.382114
52.6067,370.78,-0.382079
52.6083,370.796,-0.382038
52.61,370.813,-0.382008
52.6117,370.83,-0.381981
52.6133,370.846,-0.381962
52.615,370.863,-0.381935
52.6167,370.879,-0.381901
52.6183,370.896,-0.381862
52.62,370.913,-0.381817
52.6217,370.93,-0.381773
52.6233,370.946,-0.381729
52.625,370.962,-0.381691
52.6267,370.979,-0.381651
52.6283,370.996,-0.381622
52.63,371.012,-0.381598
52.6317,371.029,-0.381575
52.6333,371.046,-0.381557
52.635,371.062,-0.381539
52.6367,371.079,-0.381535
52.6383,371.096,-0.381528
52.64,371.113,-0.381519
52.6417,371.13,-0.381496
52.6433,371.146,-0.381475
52.645,371.162,-0.381443
52.6467,371.179,-0.381409
52.6483,371.196,-0.381375
52.65,371.212,-0.38134
52.6517,371.23,-0.381304
52.6533,371.246,-0.381272
52.655,371.263,-0.381246
52.6567,371.28,-0.381217
52.6583,371.296,-0.381188
52.66,371.313,-0.381162
52.6617,371.33,-0.381137
52.6633,371.346,-0.381102
52.665,371.363,-0.381066
52.6667,371.38,-0.38103
52.6683,371.396,-0.380995
52.67,371.413,-0.380966
52.6717,371.43,-0.380945
52.6733,371.446,-0.38093
52.675,371.463,-0.380915
52.6767,371.48,-0.380903
52.6783,371.496,-0.380892
52.68,371.513,-0.380885
52.6817,371.529,-0.380869
52.6833,371.546,-0.380852
52.685,371.563,-0.380829
52.6867,371.579,-0.380797
52.6883,371.596,-0.380765
52.69,371.613,-0.38074
52.6917,371.629,-0.380718
52.6933,371.646,-0.380696
52.695,371.663,-0.380673
52.6967,371.679,-0.380652
52.6983,371.696,-0.380627
52.7,371.713,-0.380598
52.7017,371.729,-0.380562
52.7033,371.746,-0.380524
52.705,371.762,-0.380491
52.7067,371.779,-0.380448
52.7083,371.796,-0.380396
52.71,371.812,-0.380341
52.7117,371.829,-0.380293
52.7133,371.846,-0.380245
52.715,371.862,-0.380205
52.7167,371.879,-0.380168
52.7183,371.896,-0.380138
52.72,371.913,-0.380117
52.7217,371.929,-0.380096
52.7233,371.946,-0.380068
52.725,371.963,-0.380038
52.7267,371.979,-0.380009
52.7283,371.996,-0.379981
52.73,372.012,-0.379947
52.7317,372.029,-0.379918
52.7333,372.046,-0.379895
52.735,372.063,-0.379871
52.7367,372.079,-0.379852
52.7383,372.095,-0.379835
52.74,372.112,-0.379819
52.7417,372.129,-0.379809
52.7433,372.146,-0.379797
52.745,372.163,-0.379775
52.7467,372.179,-0.379742
52.7483,372.196,-0.37971
52.75,372.213,-0.379671
52.7517,372.229,-0.379632
52.7533,372.246,-0.379591
52.755,372.263,-0.379554
52.7567,372.279,-0.379515
52.7583,372.296,-0.379471
52.76,372.313,-0.379426
52.7617,372.329,-0.379384
52.7633,372.346,-0.379339
52.765,372.362,-0.379298
52.7667,372.379,-0.379259
52.7683,372.396,-0.379218
52.77,372.412,-0.379174
52.7717,372.429,-0.379134
52.7733,372.446,-0.379098
52.775,372.462,-0.379062
52.7767,372.479,-0.379029
52.7783,372.496,-0.378997
52.78,372.512,-0.378974
52.7817,372.529,-0.378963
52.7833,372.545,-0.378948
52.785,372.562,-0.378944
52.7867,372.579,-0.378926
52.7883,372.596,-0.37891
52.79,372.612,-0.378899
52.7917,372.629,-0.378885
52.7933,372.646,-0.378874
52.795,372.662,-0.378856
52.7967,372.679,-0.378833
52.7983,372.696,-0.378813
52.8,372.712,-0.378785
52.8017,372.729,-0.378753
52.8033,372.746,-0.378718
52.805,372.762,-0.378679
52.8067,372.779,-0.378645
52.8083,372.795,-0.378617
52.81,372.812,-0.378596
52.8117,372.829,-0.378584
52.8133,372.845,-0.378574
52.815,372.862,-0.378559
52.8167,372.879,-0.378551
52.8183,372.895,-0.378543
52.82,372.912,-0.378536
52.8217,372.928,-0.378536
52.8233,372.945,-0.37853
52.825,372.962,-0.378516
52.8267,372.979,-0.378497
52.8283,372.995,-0.378473
52.83,373.012,-0.378436
52.8317,373.029,-0.378395
52.8333,373.045,-0.378353
52.835,373.062,-0.378308
52.8367,373.078,-0.378263
52.8383,373.095,-0.378218
52.84,373.112,-0.378189
52.8417,373.129,-0.378162
52.8433,373.145,-0.378136
52.845,373.162,-0.378107
52.8467,373.178,-0.378073
52.8483,373.195,-0.378046
52.85,373.212,-0.378015
52.8517,373.228,-0.377987
52.8533,373.245,-0.377961
52.855,373.262,-0.377929
52.8567,373.278,-0.377901
52.8583,373.295,-0.377864
52.86,373.312,-0.377829
52.8617,373.328,-0.377787
52.8633,373.345,-0.377749
52.865,373.361,-0.377714
52.8667,373.378,-0.377682
52.8683,373.395,-0.377648
52.87,373.411,-0.377612
52.8717,373.428,-0.377582
52.8733,373.445,-0.377559
52.875,373.461,-0.377535
52.8767,373.478,-0.377512
52.8783,373.495,-0.377486
