Ramp 10.00 °C/min to 375.00 °C,,
Time,Temperature,Heat Flow (Normalized)
min,°C,W/g
5.00333,249.875,-0.142169
5.005,249.875,-0.14214
5.00667,249.875,-0.142117
5.00833,249.875,-0.142095
5.01,249.874,-0.142075
5.01167,249.874,-0.142058
5.01333,249.874,-0.142035
5.015,249.874,-0.142006
5.01667,249.874,-0.141971
5.01833,249.874,-0.141942
5.02,249.875,-0.141909
5.02167,249.875,-0.141882
5.02333,249.875,-0.141861
5.025,249.876,-0.141836
5.02667,249.876,-0.141811
5.02833,249.877,-0.141791
5.03,249.878,-0.141782
5.03167,249.878,-0.141768
5.03333,249.879,-0.141749
5.035,249.88,-0.141715
5.03667,249.88,-0.141674
5.03833,249.882,-0.141623
5.04,249.883,-0.141469
5.04167,249.884,-0.14107
5.04333,249.885,-0.139937
5.045,249.887,-0.137269
5.04667,249.888,-0.1323
5.04833,249.89,-0.126032
5.05,249.892,-0.11772
5.05167,249.894,-0.106339
5.05333,249.896,-0.0935831
5.055,249.898,-0.0800076
5.05667,249.901,-0.0688297
5.05833,249.904,-0.0589928
5.06,249.907,-0.0481531
5.06167,249.91,-0.0365694
5.06333,249.912,-0.0238415
5.065,249.916,-0.0120324
5.06667,249.919,0.00149804
5.06833,249.923,0.013494
5.07,249.927,0.025931
5.07167,249.931,0.0385428
5.07333,249.936,0.0520149
5.075,249.94,0.0659192
5.07667,249.945,0.0781336
5.07833,249.95,0.0916798
5.08,249.955,0.10396
5.08167,249.961,0.116069
5.08333,249.966,0.127278
5.085,249.972,0.137517
5.08667,249.978,0.147053
5.08833,249.985,0.155246
5.09,249.991,0.163915
5.09167,249.998,0.17354
5.09333,250.005,0.18198
5.095,250.012,0.189714
5.09667,250.019,0.197599
5.09833,250.026,0.205125
5.1,250.034,0.212667
5.10167,250.042,0.21877
5.10333,250.05,0.223927
5.105,250.058,0.227987
5.10667,250.066,0.229091
5.10833,250.075,0.229957
5.11,250.084,0.230859
5.11167,250.093,0.231116
5.11333,250.102,0.229954
5.115,250.111,0.228678
5.11667,250.12,0.225812
5.11833,250.13,0.221824
5.12,250.14,0.217477
5.12167,250.149,0.214437
5.12333,250.159,0.208426
5.125,250.169,0.203713
5.12667,250.179,0.198917
5.12833,250.19,0.194366
5.13,250.2,0.189444
5.13167,250.211,0.183437
5.13333,250.221,0.176547
5.135,250.232,0.169206
5.13667,250.244,0.162998
5.13833,250.255,0.157674
5.14,250.266,0.147564
5.14167,250.277,0.136128
5.14333,250.288,0.126166
5.145,250.3,0.114886
5.14667,250.312,0.105007
5.14833,250.323,0.0959756
5.15,250.335,0.0858537
5.15167,250.347,0.0766805
5.15333,250.359,0.0685234
5.155,250.371,0.0608889
5.15667,250.383,0.0518709
5.15833,250.395,0.0422669
5.16,250.408,0.0334125
5.16167,250.42,0.0252926
5.16333,250.432,0.0165553
5.165,250.445,0.00811162
5.16667,250.458,-0.00253834
5.16833,250.471,-0.0111999
5.17,250.484,-0.018654
5.17167,250.497,-0.0261613
5.17333,250.509,-0.0335246
5.175,250.522,-0.0402032
5.17667,250.535,-0.0493401
5.17833,250.549,-0.0576157
5.18,250.562,-0.0646069
5.18167,250.575,-0.0721428
5.18333,250.588,-0.0806665
5.185,250.602,-0.0884199
5.18667,250.615,-0.0970833
5.18833,250.629,-0.104396
5.19,250.643,-0.111769
5.19167,250.656,-0.118339
5.19333,250.67,-0.125642
5.195,250.683,-0.132566
5.19667,250.697,-0.137465
5.19833,250.711,-0.143123
5.2,250.725,-0.148556
5.20167,250.739,-0.154742
5.20333,250.753,-0.161077
5.205,250.767,-0.167064
5.20667,250.781,-0.172398
5.20833,250.795,-0.179197
5.21,250.809,-0.184599
5.21167,250.824,-0.190371
5.21333,250.838,-0.195898
5.215,250.852,-0.200902
5.21667,250.867,-0.205112
5.21833,250.881,-0.208503
5.22,250.896,-0.212163
5.22167,250.91,-0.216172
5.22333,250.925,-0.220477
5.225,250.94,-0.225683
5.22667,250.955,-0.231241
5.22833,250.969,-0.237681
5.23,250.984,-0.243547
5.23167,250.998,-0.249161
5.23333,251.013,-0.254666
5.235,251.028,-0.259895
5.23667,251.043,-0.264266
5.23833,251.058,-0.268048
5.24,251.072,-0.272025
5.24167,251.087,-0.276133
5.24333,251.103,-0.280237
5.245,251.117,-0.282422
5.24667,251.132,-0.285392
5.24833,251.147,-0.288736
5.25,251.162,-0.293243
5.25167,251.177,-0.295907
5.25333,251.193,-0.299002
5.255,251.208,-0.302373
5.25667,251.223,-0.307024
5.25833,251.238,-0.310145
5.26,251.254,-0.314602
5.26167,251.27,-0.317346
5.26333,251.285,-0.320996
5.265,251.3,-0.324448
5.26667,251.315,-0.32625
5.26833,251.331,-0.329018
5.27,251.346,-0.332089
5.27167,251.362,-0.33481
5.27333,251.377,-0.337568
5.275,251.392,-0.340609
5.27667,251.408,-0.343511
5.27833,251.423,-0.346011
5.28,251.439,-0.348405
5.28167,251.454,-0.352034
5.28333,251.47,-0.355073
5.285,251.486,-0.358694
5.28667,251.501,-0.362105
5.28833,251.517,-0.36449
5.29,251.533,-0.367381
5.29167,251.548,-0.36967
5.29333,251.564,-0.372184
5.295,251.579,-0.374743
5.29667,251.595,-0.376572
5.29833,251.611,-0.378398
5.3,251.626,-0.380212
5.30167,251.642,-0.382386
5.30333,251.658,-0.384613
5.305,251.674,-0.387188
5.30667,251.69,-0.387831
5.30833,251.706,-0.391313
5.31,251.721,-0.393169
5.31167,251.737,-0.394169
5.31333,251.753,-0.396596
5.315,251.769,-0.399095
5.31667,251.784,-0.400773
5.31833,251.8,-0.401906
5.32,251.816,-0.403211
5.32167,251.832,-0.405003
5.32333,251.848,-0.406885
5.325,251.864,-0.406897
5.32667,251.88,-0.407629
5.32833,251.896,-0.408973
5.33,251.912,-0.410663
5.33167,251.928,-0.412205
5.33333,251.944,-0.414271
5.335,251.96,-0.415872
5.33667,251.976,-0.416501
5.33833,251.992,-0.418015
5.34,252.008,-0.419966
5.34167,252.024,-0.421725
5.34333,252.04,-0.42342
5.345,252.056,-0.424517
5.34667,252.073,-0.425542
5.34833,252.089,-0.425601
5.35,252.105,-0.425746
5.35167,252.121,-0.426566
5.35333,252.137,-0.426719
5.355,252.153,-0.426551
5.35667,252.169,-0.426554
5.35833,252.185,-0.426802
5.36,252.201,-0.427413
5.36167,252.218,-0.427658
5.36333,252.234,-0.428138
5.365,252.25,-0.428494
5.36667,252.266,-0.429258
5.36833,252.283,-0.430251
5.37,252.299,-0.431874
5.37167,252.315,-0.433314
5.37333,252.331,-0.434641
5.375,252.347,-0.436448
5.37667,252.364,-0.438061
5.37833,252.38,-0.439164
5.38,252.396,-0.439822
5.38167,252.412,-0.439942
5.38333,252.429,-0.440253
5.385,252.445,-0.44044
5.38667,252.461,-0.44068
5.38833,252.478,-0.441142
5.39,252.494,-0.441691
5.39167,252.51,-0.442265
5.39333,252.527,-0.442956
5.395,252.543,-0.443538
5.39667,252.56,-0.444256
5.39833,252.576,-0.444992
5.4,252.592,-0.445702
5.40167,252.609,-0.446305
5.40333,252.625,-0.44683
5.405,252.641,-0.447545
5.40667,252.657,-0.448575
5.40833,252.673,-0.449651
5.41,252.69,-0.45089
5.41167,252.706,-0.452239
5.41333,252.723,-0.453738
5.415,252.739,-0.455103
5.41667,252.755,-0.45606
5.41833,252.771,-0.457029
5.42,252.788,-0.457724
5.42167,252.804,-0.458243
5.42333,252.82,-0.45856
5.425,252.837,-0.45884
5.42667,252.853,-0.459376
5.42833,252.87,-0.460087
5.43,252.886,-0.460805
5.43167,252.902,-0.461497
5.43333,252.919,-0.462209
5.435,252.935,-0.462952
5.43667,252.952,-0.46362
5.43833,252.968,-0.464286
5.44,252.985,-0.464746
5.44167,253.001,-0.465234
5.44333,253.017,-0.465708
5.445,253.034,-0.466111
5.44667,253.05,-0.466453
5.44833,253.067,-0.466897
5.45,253.083,-0.46726
5.45167,253.099,-0.467623
5.45333,253.116,-0.467964
5.455,253.132,-0.468304
5.45667,253.148,-0.468706
5.45833,253.165,-0.468993
5.46,253.181,-0.469272
5.46167,253.198,-0.46976
5.46333,253.214,-0.470377
5.465,253.231,-0.471013
5.46667,253.247,-0.471659
5.46833,253.264,-0.47254
5.47,253.28,-0.473165
5.47167,253.296,-0.473717
5.47333,253.312,-0.474087
5.475,253.329,-0.474392
5.47667,253.345,-0.474615
5.47833,253.362,-0.474781
5.48,253.378,-0.47489
5.48167,253.395,-0.474934
5.48333,253.411,-0.475067
5.485,253.428,-0.475189
5.48667,253.444,-0.475308
5.48833,253.46,-0.475301
5.49,253.477,-0.475224
5.49167,253.493,-0.475116
5.49333,253.509,-0.475047
5.495,253.526,-0.475007
5.49667,253.542,-0.474976
5.49833,253.559,-0.474971
5.5,253.575,-0.474981
5.50167,253.592,-0.474968
5.50333,253.608,-0.474987
5.505,253.625,-0.474995
5.50667,253.641,-0.475001
5.50833,253.658,-0.475011
5.51,253.674,-0.475013
5.51167,253.691,-0.475017
5.51333,253.707,-0.475022
5.515,253.724,-0.475029
5.51667,253.74,-0.475039
5.51833,253.756,-0.475059
5.52,253.773,-0.475072
5.52167,253.789,-0.475088
5.52333,253.806,-0.475107
5.525,253.822,-0.475133
5.52667,253.839,-0.475167
5.52833,253.855,-0.475207
5.53,253.872,-0.475254
5.53167,253.888,-0.475319
5.53333,253.904,-0.475394
5.535,253.921,-0.475525
5.53667,253.937,-0.475663
5.53833,253.954,-0.475816
5.54,253.97,-0.475967
5.54167,253.987,-0.476132
5.54333,254.004,-0.476278
5.545,254.02,-0.476408
5.54667,254.037,-0.476521
5.54833,254.053,-0.476594
5.55,254.069,-0.47665
5.55167,254.086,-0.476696
5.55333,254.102,-0.476747
5.555,254.119,-0.476791
5.55667,254.135,-0.476947
5.55833,254.152,-0.476992
5.56,254.168,-0.477038
5.56167,254.184,-0.477089
5.56333,254.201,-0.477142
5.565,254.218,-0.477203
5.56667,254.234,-0.477272
5.56833,254.251,-0.477358
5.57,254.267,-0.477456
5.57167,254.284,-0.47755
5.57333,254.3,-0.477614
5.575,254.317,-0.477667
5.57667,254.333,-0.477724
5.57833,254.349,-0.477784
5.58,254.366,-0.477847
5.58167,254.382,-0.477925
5.58333,254.399,-0.477996
5.585,254.415,-0.478063
5.58667,254.431,-0.478153
5.58833,254.448,-0.478194
5.59,254.464,-0.478221
5.59167,254.481,-0.478245
5.59333,254.497,-0.478244
5.595,254.514,-0.478227
5.59667,254.53,-0.478186
5.59833,254.546,-0.47813
5.6,254.563,-0.478069
5.60167,254.58,-0.47803
5.60333,254.597,-0.478014
5.605,254.613,-0.477991
5.60667,254.63,-0.477978
5.60833,254.647,-0.477947
5.61,254.664,-0.477878
5.61167,254.681,-0.477788
5.61333,254.698,-0.477602
5.615,254.715,-0.477191
5.61667,254.732,-0.476171
5.61833,254.749,-0.474673
5.62,254.766,-0.472525
5.62167,254.783,-0.469464
5.62333,254.8,-0.465195
5.625,254.816,-0.459575
5.62667,254.833,-0.451867
5.62833,254.85,-0.442861
5.63,254.866,-0.435371
5.63167,254.883,-0.428544
5.63333,254.9,-0.422422
5.635,254.917,-0.418088
5.63667,254.934,-0.415956
5.63833,254.951,-0.415283
5.64,254.968,-0.415901
5.64167,254.984,-0.416403
5.64333,255.001,-0.416905
5.645,255.018,-0.418014
5.64667,255.035,-0.419231
5.64833,255.052,-0.420365
5.65,255.069,-0.421307
5.65167,255.086,-0.423729
5.65333,255.103,-0.425011
5.655,255.119,-0.425274
5.65667,255.136,-0.426084
5.65833,255.153,-0.429182
5.66,255.17,-0.437456
5.66167,255.187,-0.450706
5.66333,255.204,-0.468021
5.665,255.221,-0.484523
5.66667,255.238,-0.498883
5.66833,255.254,-0.509497
5.67,255.271,-0.516368
5.67167,255.288,-0.524269
5.67333,255.304,-0.531055
5.675,255.32,-0.538423
5.67667,255.337,-0.546677
5.67833,255.354,-0.555459
5.68,255.37,-0.562158
5.68167,255.387,-0.567959
5.68333,255.403,-0.573171
5.685,255.42,-0.579212
5.68667,255.436,-0.584266
5.68833,255.452,-0.587968
5.69,255.469,-0.591874
5.69167,255.485,-0.593474
5.69333,255.502,-0.596241
5.695,255.518,-0.59782
5.69667,255.535,-0.600263
5.69833,255.551,-0.600791
5.7,255.568,-0.601437
5.70167,255.584,-0.599927
5.70333,255.6,-0.598254
5.705,255.616,-0.594757
5.70667,255.633,-0.591599
5.70833,255.65,-0.588494
5.71,255.666,-0.585071
5.71167,255.682,-0.573883
5.71333,255.698,-0.569603
5.715,255.715,-0.566542
5.71667,255.732,-0.564587
5.71833,255.748,-0.563314
5.72,255.764,-0.560795
5.72167,255.78,-0.55657
5.72333,255.797,-0.550554
5.725,255.813,-0.542884
5.72667,255.83,-0.531912
5.72833,255.846,-0.519607
5.73,255.863,-0.5089
5.73167,255.879,-0.500713
5.73333,255.896,-0.495561
5.735,255.913,-0.491254
5.73667,255.929,-0.4878
5.73833,255.946,-0.48419
5.74,255.963,-0.480958
5.74167,255.98,-0.477195
5.74333,255.996,-0.47217
5.745,256.013,-0.469552
5.74667,256.029,-0.466308
5.74833,256.046,-0.463836
5.75,256.063,-0.46387
5.75167,256.079,-0.463365
5.75333,256.096,-0.463024
5.755,256.113,-0.462863
5.75667,256.129,-0.462159
5.75833,256.146,-0.462572
5.76,256.162,-0.462536
5.76167,256.179,-0.461976
5.76333,256.196,-0.461764
5.765,256.213,-0.462074
5.76667,256.23,-0.462591
5.76833,256.247,-0.463421
5.77,256.263,-0.464378
5.77167,256.28,-0.465238
5.77333,256.297,-0.467413
5.775,256.314,-0.468814
5.77667,256.33,-0.469481
5.77833,256.347,-0.469692
5.78,256.364,-0.469885
5.78167,256.38,-0.470246
5.78333,256.397,-0.47092
5.785,256.413,-0.472425
5.78667,256.43,-0.47457
5.78833,256.447,-0.477812
5.79,256.463,-0.482003
5.79167,256.48,-0.486807
5.79333,256.497,-0.491773
5.795,256.513,-0.496266
5.79667,256.53,-0.500213
5.79833,256.546,-0.504524
5.8,256.563,-0.508611
5.80167,256.579,-0.511789
5.80333,256.596,-0.514893
5.805,256.612,-0.517656
5.80667,256.629,-0.520472
5.80833,256.645,-0.522871
5.81,256.662,-0.525172
5.81167,256.678,-0.52774
5.81333,256.695,-0.530469
5.815,256.711,-0.532513
5.81667,256.727,-0.533787
5.81833,256.744,-0.534734
5.82,256.76,-0.535362
5.82167,256.777,-0.535611
5.82333,256.793,-0.535651
5.825,256.809,-0.535599
5.82667,256.826,-0.535438
5.82833,256.842,-0.535226
5.83,256.858,-0.53504
5.83167,256.874,-0.534895
5.83333,256.891,-0.534803
5.835,256.907,-0.534697
5.83667,256.923,-0.534582
5.83833,256.94,-0.53448
5.84,256.956,-0.534395
5.84167,256.972,-0.534339
5.84333,256.989,-0.534287
5.845,257.005,-0.534227
5.84667,257.021,-0.533983
5.84833,257.037,-0.533774
5.85,257.054,-0.533606
5.85167,257.07,-0.533468
5.85333,257.086,-0.533407
5.855,257.102,-0.533302
5.85667,257.119,-0.533137
5.85833,257.135,-0.532919
5.86,257.151,-0.532667
5.86167,257.167,-0.532253
5.86333,257.183,-0.531673
5.865,257.199,-0.530873
5.86667,257.216,-0.529866
5.86833,257.232,-0.528555
5.87,257.248,-0.527059
5.87167,257.265,-0.525407
5.87333,257.281,-0.523565
5.875,257.297,-0.521874
5.87667,257.314,-0.520053
5.87833,257.33,-0.51844
5.88,257.346,-0.51701
5.88167,257.363,-0.515905
5.88333,257.378,-0.514811
5.885,257.395,-0.513816
5.88667,257.411,-0.513145
5.88833,257.427,-0.512622
5.89,257.443,-0.512252
5.89167,257.459,-0.511905
5.89333,257.476,-0.511592
5.895,257.492,-0.511238
5.89667,257.509,-0.510844
5.89833,257.525,-0.510264
5.9,257.541,-0.50978
5.90167,257.557,-0.509227
5.90333,257.573,-0.508653
5.905,257.59,-0.508098
5.90667,257.606,-0.507396
5.90833,257.622,-0.50651
5.91,257.639,-0.505413
5.91167,257.655,-0.504593
5.91333,257.671,-0.503695
5.915,257.688,-0.502978
5.91667,257.704,-0.502225
5.91833,257.72,-0.501898
5.92,257.736,-0.5018
5.92167,257.752,-0.501692
5.92333,257.769,-0.501653
5.925,257.785,-0.501634
5.92667,257.801,-0.501632
5.92833,257.818,-0.501623
5.93,257.834,-0.501595
5.93167,257.85,-0.50154
5.93333,257.867,-0.501508
5.935,257.883,-0.501444
5.93667,257.899,-0.501305
5.93833,257.915,-0.501163
5.94,257.931,-0.501044
5.94167,257.948,-0.500978
5.94333,257.964,-0.500904
5.945,257.98,-0.50086
5.94667,257.997,-0.500813
5.94833,258.013,-0.500735
5.95,258.029,-0.500601
5.95167,258.046,-0.500518
5.95333,258.062,-0.500423
5.955,258.078,-0.500287
5.95667,258.094,-0.50011
5.95833,258.111,-0.499948
5.96,258.127,-0.499849
5.96167,258.143,-0.499786
5.96333,258.16,-0.499732
5.965,258.176,-0.499681
5.96667,258.192,-0.499628
5.96833,258.209,-0.499572
5.97,258.225,-0.499516
5.97167,258.241,-0.499456
5.97333,258.258,-0.499395
5.975,258.274,-0.499329
5.97667,258.291,-0.499258
5.97833,258.307,-0.499186
5.98,258.323,-0.499115
5.98167,258.339,-0.499046
5.98333,258.356,-0.498976
5.985,258.372,-0.498908
5.98667,258.388,-0.498848
5.98833,258.404,-0.498795
5.99,258.421,-0.498745
5.99167,258.437,-0.498691
5.99333,258.453,-0.498635
5.995,258.47,-0.498583
5.99667,258.486,-0.498537
5.99833,258.503,-0.49848
6,258.519,-0.498415
6.00167,258.536,-0.498343
6.00333,258.552,-0.498269
6.005,258.568,-0.498173
6.00667,258.585,-0.498089
6.00833,258.601,-0.49801
6.01,258.618,-0.497931
6.01167,258.634,-0.497852
6.01333,258.65,-0.497782
6.015,258.667,-0.497715
6.01667,258.683,-0.49765
6.01833,258.7,-0.497588
6.02,258.717,-0.497531
6.02167,258.733,-0.497479
6.02333,258.749,-0.497422
6.025,258.766,-0.497362
6.02667,258.782,-0.497305
6.02833,258.798,-0.497242
6.03,258.815,-0.497169
6.03167,258.831,-0.497094
6.03333,258.848,-0.497011
6.035,258.865,-0.496932
6.03667,258.881,-0.496856
6.03833,258.898,-0.496781
6.04,258.914,-0.496719
6.04167,258.931,-0.496655
6.04333,258.947,-0.496605
6.045,258.964,-0.496554
6.04667,258.98,-0.4965
6.04833,258.996,-0.496454
6.05,259.013,-0.496403
6.05167,259.03,-0.496344
6.05333,259.046,-0.496281
6.055,259.063,-0.496208
6.05667,259.079,-0.496142
6.05833,259.095,-0.496079
6.06,259.112,-0.496008
6.06167,259.128,-0.495942
6.06333,259.145,-0.495875
6.065,259.162,-0.495819
6.06667,259.178,-0.49577
6.06833,259.195,-0.495724
6.07,259.211,-0.495678
6.07167,259.228,-0.495639
6.07333,259.244,-0.495593
6.075,259.26,-0.495547
6.07667,259.277,-0.495493
6.07833,259.293,-0.495446
6.08,259.31,-0.495401
6.08167,259.327,-0.495357
6.08333,259.343,-0.495325
6.085,259.36,-0.495291
6.08667,259.376,-0.495268
6.08833,259.393,-0.495255
6.09,259.409,-0.495246
6.09167,259.426,-0.495232
6.09333,259.442,-0.495223
6.095,259.459,-0.49521
6.09667,259.475,-0.495195
6.09833,259.492,-0.495179
6.1,259.508,-0.495169
6.10167,259.525,-0.495162
6.10333,259.542,-0.495151
6.105,259.558,-0.495141
6.10667,259.575,-0.495128
6.10833,259.591,-0.495113
6.11,259.608,-0.4951
6.11167,259.624,-0.495086
6.11333,259.641,-0.495073
6.115,259.657,-0.49506
6.11667,259.674,-0.495041
6.11833,259.69,-0.49502
6.12,259.707,-0.494991
6.12167,259.724,-0.494958
6.12333,259.74,-0.494916
6.125,259.757,-0.49487
6.12667,259.774,-0.494822
6.12833,259.791,-0.494774
6.13,259.807,-0.494719
6.13167,259.824,-0.494668
6.13333,259.84,-0.494621
6.135,259.857,-0.494581
6.13667,259.874,-0.49454
6.13833,259.89,-0.494501
6.14,259.907,-0.494461
6.14167,259.924,-0.494427
6.14333,259.94,-0.494393
6.145,259.957,-0.494363
6.14667,259.973,-0.494329
6.14833,259.99,-0.494294
6.15,260.006,-0.494262
6.15167,260.023,-0.494237
6.15333,260.04,-0.494208
6.155,260.057,-0.494182
6.15667,260.073,-0.494157
6.15833,260.09,-0.494132
6.16,260.106,-0.494111
6.16167,260.123,-0.494096
6.16333,260.139,-0.494087
6.165,260.156,-0.494081
6.16667,260.173,-0.494068
6.16833,260.19,-0.494049
6.17,260.206,-0.494035
6.17167,260.223,-0.494025
6.17333,260.24,-0.49402
6.175,260.256,-0.494016
6.17667,260.273,-0.494009
6.17833,260.289,-0.494003
6.18,260.306,-0.49401
6.18167,260.322,-0.494018
6.18333,260.339,-0.494028
6.185,260.356,-0.49404
6.18667,260.373,-0.494051
6.18833,260.389,-0.494055
6.19,260.406,-0.494063
6.19167,260.423,-0.494071
6.19333,260.44,-0.494078
6.195,260.456,-0.494088
6.19667,260.473,-0.494098
6.19833,260.49,-0.494108
6.2,260.506,-0.49412
6.20167,260.523,-0.494134
6.20333,260.54,-0.494151
6.205,260.556,-0.494165
6.20667,260.573,-0.494178
6.20833,260.589,-0.494188
6.21,260.606,-0.494202
6.21167,260.623,-0.494207
6.21333,260.639,-0.494221
6.215,260.656,-0.494244
6.21667,260.673,-0.494264
6.21833,260.689,-0.494278
6.22,260.706,-0.494296
6.22167,260.722,-0.494315
6.22333,260.739,-0.49433
6.225,260.756,-0.494336
6.22667,260.773,-0.494343
6.22833,260.789,-0.49434
6.23,260.806,-0.494344
6.23167,260.823,-0.494362
6.23333,260.839,-0.494375
6.235,260.856,-0.494391
6.23667,260.873,-0.494407
6.23833,260.889,-0.494427
6.24,260.906,-0.494451
6.24167,260.923,-0.494481
6.24333,260.939,-0.494517
6.245,260.956,-0.494556
6.24667,260.973,-0.494583
6.24833,260.99,-0.494602
6.25,261.006,-0.494606
6.25167,261.023,-0.494594
6.25333,261.039,-0.494586
6.255,261.056,-0.494574
6.25667,261.072,-0.494551
6.25833,261.089,-0.494528
6.26,261.106,-0.494516
6.26167,261.123,-0.49452
6.26333,261.139,-0.494523
6.265,261.157,-0.494535
6.26667,261.173,-0.494559
6.26833,261.19,-0.494588
6.27,261.206,-0.494619
6.27167,261.223,-0.494648
6.27333,261.24,-0.494669
6.275,261.256,-0.494692
6.27667,261.273,-0.494708
6.27833,261.29,-0.494721
6.28,261.306,-0.494735
6.28167,261.323,-0.494749
6.28333,261.339,-0.494766
6.285,261.356,-0.494788
6.28667,261.373,-0.494808
6.28833,261.39,-0.494827
6.29,261.406,-0.494851
6.29167,261.423,-0.494879
6.29333,261.44,-0.494906
6.295,261.457,-0.494927
6.29667,261.474,-0.494942
6.29833,261.49,-0.494963
6.3,261.507,-0.494978
6.30167,261.524,-0.494988
6.30333,261.54,-0.494999
6.305,261.557,-0.495009
6.30667,261.573,-0.495012
6.30833,261.59,-0.495019
6.31,261.607,-0.495026
6.31167,261.624,-0.495024
6.31333,261.64,-0.49502
6.315,261.657,-0.495011
6.31667,261.674,-0.494998
6.31833,261.69,-0.49498
6.32,261.707,-0.494957
6.32167,261.724,-0.494944
6.32333,261.74,-0.494933
6.325,261.757,-0.494921
6.32667,261.774,-0.494909
6.32833,261.791,-0.494904
6.33,261.807,-0.494913
6.33167,261.824,-0.494932
6.33333,261.841,-0.494958
6.335,261.857,-0.494984
6.33667,261.874,-0.495009
6.33833,261.89,-0.495043
6.34,261.907,-0.495074
6.34167,261.924,-0.495098
6.34333,261.941,-0.495111
6.345,261.957,-0.495124
6.34667,261.974,-0.495137
6.34833,261.991,-0.49514
6.35,262.008,-0.495138
6.35167,262.025,-0.495137
6.35333,262.041,-0.495138
6.355,262.058,-0.49513
6.35667,262.075,-0.495128
6.35833,262.092,-0.495128
6.36,262.108,-0.495126
6.36167,262.125,-0.495129
6.36333,262.141,-0.495143
6.365,262.158,-0.495155
6.36667,262.174,-0.49517
6.36833,262.191,-0.49519
6.37,262.207,-0.49521
6.37167,262.224,-0.495224
6.37333,262.241,-0.495233
6.375,262.258,-0.495231
6.37667,262.275,-0.495229
6.37833,262.291,-0.495228
6.38,262.308,-0.495227
6.38167,262.324,-0.495228
6.38333,262.341,-0.495224
6.385,262.358,-0.495219
6.38667,262.375,-0.495213
6.38833,262.391,-0.495213
6.39,262.408,-0.495203
6.39167,262.425,-0.495195
6.39333,262.441,-0.495189
6.395,262.458,-0.495187
6.39667,262.475,-0.495188
6.39833,262.491,-0.495187
6.4,262.509,-0.495194
6.40167,262.525,-0.495207
6.40333,262.542,-0.495223
6.405,262.558,-0.49524
6.40667,262.575,-0.495255
6.40833,262.592,-0.49527
6.41,262.609,-0.495283
6.41167,262.625,-0.495287
6.41333,262.642,-0.49529
6.415,262.658,-0.495289
6.41667,262.675,-0.495286
6.41833,262.692,-0.495293
6.42,262.708,-0.495303
6.42167,262.725,-0.495318
6.42333,262.742,-0.495327
6.425,262.759,-0.495328
6.42667,262.775,-0.495324
6.42833,262.792,-0.495327
6.43,262.809,-0.495329
6.43167,262.826,-0.495334
6.43333,262.842,-0.495342
6.435,262.859,-0.495346
6.43667,262.876,-0.495346
6.43833,262.893,-0.495344
6.44,262.909,-0.495333
6.44167,262.926,-0.495311
6.44333,262.942,-0.495291
6.445,262.959,-0.49527
6.44667,262.976,-0.495248
6.44833,262.993,-0.495229
6.45,263.01,-0.495215
6.45167,263.027,-0.495208
6.45333,263.043,-0.495199
6.455,263.06,-0.495201
6.45667,263.077,-0.495207
6.45833,263.093,-0.495215
6.46,263.11,-0.495229
6.46167,263.126,-0.49524
6.46333,263.143,-0.495253
6.465,263.16,-0.495269
6.46667,263.177,-0.495289
6.46833,263.193,-0.495304
6.47,263.21,-0.495322
6.47167,263.226,-0.495341
6.47333,263.243,-0.495362
6.475,263.26,-0.495383
6.47667,263.277,-0.495402
6.47833,263.294,-0.495414
6.48,263.31,-0.495414
6.48167,263.327,-0.495407
6.48333,263.344,-0.495403
6.485,263.36,-0.495398
6.48667,263.377,-0.495392
6.48833,263.394,-0.495385
6.49,263.41,-0.495384
6.49167,263.427,-0.495387
6.49333,263.443,-0.495398
6.495,263.46,-0.49541
6.49667,263.477,-0.495435
6.49833,263.494,-0.495457
6.5,263.51,-0.495472
6.50167,263.527,-0.4955
6.50333,263.544,-0.495526
6.505,263.56,-0.495556
6.50667,263.577,-0.49558
6.50833,263.594,-0.495601
6.51,263.61,-0.49561
6.51167,263.627,-0.495604
6.51333,263.644,-0.495599
6.515,263.66,-0.495589
6.51667,263.677,-0.495573
6.51833,263.694,-0.495559
6.52,263.711,-0.495546
6.52167,263.727,-0.495537
6.52333,263.744,-0.495531
6.525,263.761,-0.495535
6.52667,263.778,-0.495546
6.52833,263.794,-0.495555
6.53,263.811,-0.495564
6.53167,263.827,-0.495573
6.53333,263.844,-0.495582
6.535,263.861,-0.495592
6.53667,263.877,-0.495603
6.53833,263.894,-0.495612
6.54,263.911,-0.49562
6.54167,263.927,-0.495627
6.54333,263.944,-0.495629
6.545,263.961,-0.495624
6.54667,263.978,-0.495616
6.54833,263.994,-0.495602
6.55,264.011,-0.495583
6.55167,264.028,-0.495574
6.55333,264.044,-0.495569
6.555,264.061,-0.495563
6.55667,264.077,-0.495559
6.55833,264.093,-0.495557
6.56,264.11,-0.495549
6.56167,264.127,-0.495549
6.56333,264.143,-0.495556
6.565,264.16,-0.495564
6.56667,264.177,-0.495564
6.56833,264.194,-0.495565
6.57,264.21,-0.495572
6.57167,264.227,-0.495578
6.57333,264.244,-0.495589
6.575,264.261,-0.495599
6.57667,264.278,-0.495597
6.57833,264.294,-0.495596
6.58,264.311,-0.4956
6.58167,264.328,-0.495604
6.58333,264.345,-0.4956
6.585,264.361,-0.495594
6.58667,264.378,-0.495591
6.58833,264.394,-0.495585
6.59,264.411,-0.495569
6.59167,264.428,-0.495553
6.59333,264.444,-0.495546
6.595,264.461,-0.495534
6.59667,264.477,-0.495527
6.59833,264.494,-0.49553
6.6,264.511,-0.495533
6.60167,264.527,-0.495536
6.60333,264.544,-0.49554
6.605,264.561,-0.495552
6.60667,264.577,-0.495569
6.60833,264.594,-0.495576
6.61,264.611,-0.49558
6.61167,264.627,-0.495578
6.61333,264.644,-0.495572
6.615,264.661,-0.495562
6.61667,264.678,-0.495552
6.61833,264.695,-0.495547
6.62,264.711,-0.495544
6.62167,264.728,-0.495546
6.62333,264.745,-0.49555
6.625,264.762,-0.495556
6.62667,264.778,-0.495576
6.62833,264.795,-0.49559
6.63,264.811,-0.495599
6.63167,264.828,-0.495615
6.63333,264.845,-0.495632
6.635,264.861,-0.495653
6.63667,264.878,-0.495669
6.63833,264.895,-0.495678
6.64,264.912,-0.495681
6.64167,264.928,-0.495682
6.64333,264.945,-0.495677
6.645,264.962,-0.49567
6.64667,264.978,-0.495665
6.64833,264.995,-0.495658
6.65,265.011,-0.495653
6.65167,265.028,-0.49565
6.65333,265.044,-0.495646
6.655,265.061,-0.49565
6.65667,265.078,-0.495654
6.65833,265.094,-0.495658
6.66,265.111,-0.495662
6.66167,265.128,-0.495663
6.66333,265.145,-0.495651
6.665,265.161,-0.495636
6.66667,265.178,-0.49562
6.66833,265.195,-0.495606
6.67,265.211,-0.495599
6.67167,265.228,-0.495594
6.67333,265.244,-0.495601
6.675,265.261,-0.495619
6.67667,265.278,-0.495644
6.67833,265.295,-0.495671
6.68,265.312,-0.495693
6.68167,265.328,-0.495712
6.68333,265.345,-0.495724
6.685,265.362,-0.495743
6.68667,265.378,-0.495756
6.68833,265.395,-0.495766
6.69,265.412,-0.495766
6.69167,265.428,-0.495759
6.69333,265.445,-0.495756
6.695,265.461,-0.495748
6.69667,265.478,-0.495734
6.69833,265.494,-0.495717
6.7,265.511,-0.495698
6.70167,265.528,-0.495677
6.70333,265.544,-0.495664
6.705,265.561,-0.495657
6.70667,265.578,-0.495651
6.70833,265.595,-0.495646
6.71,265.611,-0.495637
6.71167,265.628,-0.495628
6.71333,265.645,-0.495613
6.715,265.662,-0.49559
6.71667,265.678,-0.495572
6.71833,265.695,-0.495552
6.72,265.711,-0.495532
6.72167,265.728,-0.495512
6.72333,265.744,-0.495489
6.725,265.761,-0.495476
6.72667,265.778,-0.495469
6.72833,265.794,-0.495465
6.73,265.811,-0.495469
6.73167,265.828,-0.495476
6.73333,265.844,-0.495488
6.735,265.861,-0.495499
6.73667,265.878,-0.495512
6.73833,265.895,-0.495517
6.74,265.911,-0.49551
6.74167,265.928,-0.495507
6.74333,265.944,-0.495505
6.745,265.961,-0.495509
6.74667,265.978,-0.495524
6.74833,265.994,-0.495536
6.75,266.011,-0.495548
6.75167,266.028,-0.495558
6.75333,266.044,-0.495579
6.755,266.061,-0.495593
6.75667,266.078,-0.495606
6.75833,266.094,-0.495603
6.76,266.111,-0.495594
6.76167,266.128,-0.495579
6.76333,266.144,-0.495561
6.765,266.161,-0.495549
6.76667,266.178,-0.495545
6.76833,266.194,-0.495535
6.77,266.211,-0.495513
6.77167,266.228,-0.495493
6.77333,266.244,-0.49548
6.775,266.261,-0.495476
6.77667,266.278,-0.495478
6.77833,266.295,-0.495476
6.78,266.311,-0.495476
6.78167,266.328,-0.495472
6.78333,266.345,-0.495466
6.785,266.361,-0.49546
6.78667,266.378,-0.495457
6.78833,266.395,-0.495447
6.79,266.412,-0.495434
6.79167,266.428,-0.495416
6.79333,266.445,-0.495403
6.795,266.462,-0.495397
6.79667,266.478,-0.495391
6.79833,266.495,-0.49538
6.8,266.511,-0.495381
6.80167,266.528,-0.495383
6.80333,266.544,-0.495392
6.805,266.561,-0.495403
6.80667,266.578,-0.495413
6.80833,266.595,-0.495426
6.81,266.611,-0.495438
6.81167,266.628,-0.495454
6.81333,266.645,-0.495467
6.815,266.662,-0.495474
6.81667,266.678,-0.495482
6.81833,266.695,-0.495486
6.82,266.712,-0.495482
6.82167,266.728,-0.495469
6.82333,266.745,-0.495448
6.825,266.761,-0.495425
6.82667,266.778,-0.495401
6.82833,266.794,-0.495376
6.83,266.811,-0.495354
6.83167,266.828,-0.495339
6.83333,266.844,-0.495327
6.835,266.861,-0.495321
6.83667,266.878,-0.495327
6.83833,266.894,-0.495336
6.84,266.91,-0.495345
6.84167,266.927,-0.495361
6.84333,266.944,-0.49538
6.845,266.961,-0.495391
6.84667,266.977,-0.495396
6.84833,266.994,-0.495395
6.85,267.011,-0.495392
6.85167,267.028,-0.495388
6.85333,267.044,-0.495378
6.855,267.061,-0.495372
6.85667,267.077,-0.495358
6.85833,267.094,-0.495342
6.86,267.11,-0.495326
6.86167,267.127,-0.495318
6.86333,267.144,-0.495317
6.865,267.16,-0.495324
6.86667,267.177,-0.495333
6.86833,267.194,-0.49534
6.87,267.21,-0.49534
6.87167,267.227,-0.495338
6.87333,267.244,-0.495332
6.875,267.26,-0.495321
6.87667,267.277,-0.495304
6.87833,267.294,-0.495281
6.88,267.311,-0.49526
6.88167,267.327,-0.495239
6.88333,267.344,-0.495232
6.885,267.361,-0.495233
6.88667,267.377,-0.49523
6.88833,267.393,-0.495225
6.89,267.41,-0.495227
6.89167,267.427,-0.495227
6.89333,267.443,-0.495229
6.895,267.46,-0.49523
6.89667,267.476,-0.495229
6.89833,267.493,-0.49522
6.9,267.51,-0.495212
6.90167,267.527,-0.495203
6.90333,267.544,-0.495192
6.905,267.56,-0.495184
6.90667,267.577,-0.495176
6.90833,267.593,-0.495169
6.91,267.61,-0.495168
6.91167,267.627,-0.495165
6.91333,267.643,-0.495154
6.915,267.66,-0.495136
6.91667,267.677,-0.495121
6.91833,267.693,-0.495107
6.92,267.71,-0.495091
6.92167,267.727,-0.495075
6.92333,267.743,-0.495061
6.925,267.76,-0.49505
6.92667,267.776,-0.495048
6.92833,267.793,-0.495052
6.93,267.81,-0.495051
6.93167,267.827,-0.495049
6.93333,267.843,-0.495043
6.935,267.86,-0.495033
6.93667,267.877,-0.495026
6.93833,267.893,-0.495012
6.94,267.91,-0.494997
6.94167,267.927,-0.494988
6.94333,267.943,-0.494986
6.945,267.96,-0.494996
6.94667,267.976,-0.495016
6.94833,267.993,-0.495043
6.95,268.009,-0.495069
6.95167,268.026,-0.495085
6.95333,268.043,-0.495092
6.955,268.059,-0.495091
6.95667,268.076,-0.495084
6.95833,268.093,-0.495071
6.96,268.11,-0.495052
6.96167,268.126,-0.495033
6.96333,268.143,-0.495017
6.965,268.159,-0.495004
6.96667,268.176,-0.494993
6.96833,268.193,-0.494986
6.97,268.209,-0.494975
6.97167,268.226,-0.494966
6.97333,268.242,-0.494953
6.975,268.259,-0.494945
6.97667,268.275,-0.494947
6.97833,268.292,-0.494961
6.98,268.309,-0.494982
6.98167,268.326,-0.495014
6.98333,268.342,-0.495053
6.985,268.359,-0.495081
6.98667,268.376,-0.495104
6.98833,268.392,-0.495122
6.99,268.409,-0.495134
6.99167,268.425,-0.495138
6.99333,268.442,-0.495138
6.995,268.459,-0.495133
6.99667,268.475,-0.49512
6.99833,268.492,-0.495107
7,268.509,-0.495086
7.00167,268.525,-0.495067
7.00333,268.542,-0.49504
7.005,268.559,-0.495006
7.00667,268.575,-0.494969
7.00833,268.592,-0.494886
7.01,268.609,-0.49478
7.01167,268.625,-0.49473
7.01333,268.641,-0.494687
7.015,268.658,-0.494642
7.01667,268.675,-0.494602
7.01833,268.691,-0.49457
7.02,268.708,-0.494555
7.02167,268.725,-0.494547
7.02333,268.742,-0.494544
7.025,268.758,-0.494543
7.02667,268.775,-0.494543
7.02833,268.792,-0.494543
7.03,268.809,-0.494545
7.03167,268.825,-0.49455
7.03333,268.842,-0.494551
7.035,268.858,-0.494545
7.03667,268.875,-0.494545
7.03833,268.891,-0.494555
7.04,268.908,-0.494556
7.04167,268.924,-0.494552
7.04333,268.941,-0.494538
7.045,268.958,-0.494519
7.04667,268.975,-0.494497
7.04833,268.992,-0.494472
7.05,269.008,-0.494449
7.05167,269.025,-0.494427
7.05333,269.041,-0.494407
7.055,269.058,-0.494393
7.05667,269.075,-0.494383
7.05833,269.092,-0.494378
7.06,269.108,-0.494371
7.06167,269.125,-0.49436
7.06333,269.142,-0.494342
7.065,269.158,-0.494322
7.06667,269.175,-0.494311
7.06833,269.192,-0.494312
7.07,269.208,-0.494309
7.07167,269.225,-0.494317
7.07333,269.242,-0.494335
7.075,269.259,-0.494359
7.07667,269.276,-0.494389
7.07833,269.293,-0.494416
7.08,269.309,-0.494446
7.08167,269.325,-0.494474
7.08333,269.342,-0.494481
7.085,269.358,-0.49448
7.08667,269.375,-0.49447
7.08833,269.391,-0.494459
7.09,269.408,-0.494447
7.09167,269.425,-0.494434
7.09333,269.442,-0.494419
7.095,269.458,-0.494402
7.09667,269.475,-0.494388
7.09833,269.492,-0.494371
7.1,269.509,-0.49436
7.10167,269.525,-0.494346
7.10333,269.542,-0.494329
7.105,269.559,-0.494316
7.10667,269.575,-0.494307
7.10833,269.592,-0.494308
7.11,269.608,-0.494311
7.11167,269.625,-0.494323
7.11333,269.642,-0.49434
7.115,269.659,-0.494363
7.11667,269.675,-0.494376
7.11833,269.692,-0.494387
7.12,269.708,-0.494397
7.12167,269.725,-0.494401
7.12333,269.741,-0.494392
7.125,269.758,-0.49438
7.12667,269.774,-0.494365
7.12833,269.791,-0.494352
7.13,269.808,-0.494342
7.13167,269.825,-0.494345
7.13333,269.842,-0.494348
7.135,269.858,-0.494356
7.13667,269.875,-0.494368
7.13833,269.891,-0.494385
7.14,269.908,-0.494399
7.14167,269.924,-0.494412
7.14333,269.941,-0.494413
7.145,269.958,-0.494419
7.14667,269.975,-0.49442
7.14833,269.991,-0.494416
7.15,270.008,-0.494412
7.15167,270.025,-0.494412
7.15333,270.041,-0.494419
7.155,270.058,-0.494421
7.15667,270.074,-0.494416
7.15833,270.091,-0.494409
7.16,270.107,-0.494397
7.16167,270.124,-0.494376
7.16333,270.141,-0.494357
7.165,270.158,-0.494337
7.16667,270.174,-0.494308
7.16833,270.191,-0.494277
7.17,270.208,-0.494253
7.17167,270.224,-0.494238
7.17333,270.241,-0.494228
7.175,270.258,-0.494212
7.17667,270.274,-0.494198
7.17833,270.291,-0.494178
7.18,270.308,-0.494149
7.18167,270.325,-0.494123
7.18333,270.341,-0.494099
7.185,270.358,-0.494082
7.18667,270.374,-0.49407
7.18833,270.391,-0.494065
7.19,270.408,-0.494067
7.19167,270.424,-0.494077
7.19333,270.441,-0.49409
7.195,270.458,-0.494098
7.19667,270.475,-0.494098
7.19833,270.491,-0.494102
7.2,270.508,-0.494114
7.20167,270.524,-0.494122
7.20333,270.541,-0.494128
7.205,270.558,-0.494134
7.20667,270.575,-0.494139
7.20833,270.592,-0.494133
7.21,270.608,-0.49413
7.21167,270.625,-0.494131
7.21333,270.642,-0.494123
7.215,270.658,-0.494109
7.21667,270.675,-0.494082
7.21833,270.691,-0.494059
7.22,270.708,-0.494038
7.22167,270.724,-0.494011
7.22333,270.741,-0.493977
7.225,270.758,-0.493946
7.22667,270.774,-0.493922
7.22833,270.791,-0.493898
7.23,270.808,-0.493895
7.23167,270.824,-0.4939
7.23333,270.841,-0.493916
7.235,270.858,-0.493934
7.23667,270.874,-0.49396
7.23833,270.891,-0.494003
7.24,270.908,-0.494081
7.24167,270.924,-0.49412
7.24333,270.941,-0.494142
7.245,270.958,-0.494152
7.24667,270.974,-0.494163
7.24833,270.991,-0.494177
7.25,271.008,-0.494183
7.25167,271.024,-0.494189
7.25333,271.041,-0.494191
7.255,271.058,-0.494203
7.25667,271.074,-0.494216
7.25833,271.091,-0.494227
7.26,271.108,-0.494236
7.26167,271.124,-0.494233
7.26333,271.141,-0.494214
7.265,271.157,-0.494186
7.26667,271.174,-0.494155
7.26833,271.19,-0.494102
7.27,271.207,-0.494002
7.27167,271.224,-0.493869
7.27333,271.24,-0.493779
7.275,271.257,-0.493726
7.27667,271.274,-0.493672
7.27833,271.291,-0.49363
7.28,271.307,-0.493578
7.28167,271.324,-0.493506
7.28333,271.341,-0.493452
7.285,271.357,-0.493398
7.28667,271.374,-0.493307
7.28833,271.391,-0.493151
7.29,271.408,-0.492804
7.29167,271.424,-0.492245
7.29333,271.441,-0.491547
7.295,271.458,-0.490802
7.29667,271.475,-0.489764
7.29833,271.492,-0.488073
7.3,271.509,-0.485292
7.30167,271.526,-0.481756
7.30333,271.542,-0.477017
7.305,271.559,-0.470303
7.30667,271.576,-0.461469
7.30833,271.593,-0.45082
7.31,271.61,-0.441005
7.31167,271.627,-0.434091
7.31333,271.644,-0.429579
7.315,271.66,-0.425662
7.31667,271.677,-0.42433
7.31833,271.695,-0.424867
7.32,271.711,-0.426699
7.32167,271.729,-0.428891
7.32333,271.745,-0.430786
7.325,271.763,-0.435049
7.32667,271.779,-0.43621
7.32833,271.797,-0.437206
7.33,271.814,-0.440107
7.33167,271.831,-0.448709
7.33333,271.848,-0.463182
7.335,271.865,-0.481135
7.33667,271.883,-0.496064
7.33833,271.899,-0.506936
7.34,271.917,-0.512157
7.34167,271.934,-0.514654
7.34333,271.951,-0.517407
7.345,271.968,-0.518843
7.34667,271.985,-0.519296
7.34833,272.002,-0.518786
7.35,272.02,-0.518118
7.35167,272.037,-0.51727
7.35333,272.054,-0.516334
7.355,272.071,-0.515318
7.35667,272.088,-0.514478
7.35833,272.105,-0.513681
7.36,272.122,-0.51301
7.36167,272.139,-0.512474
7.36333,272.157,-0.511291
7.365,272.174,-0.510451
7.36667,272.191,-0.509777
7.36833,272.208,-0.509289
7.37,272.225,-0.509005
7.37167,272.242,-0.508767
7.37333,272.259,-0.508579
7.375,272.276,-0.508443
7.37667,272.293,-0.508275
7.37833,272.31,-0.508069
7.38,272.328,-0.507831
7.38167,272.345,-0.507589
7.38333,272.361,-0.507508
7.385,272.379,-0.507426
7.38667,272.396,-0.507329
7.38833,272.413,-0.507263
7.39,272.43,-0.507277
7.39167,272.447,-0.50741
7.39333,272.464,-0.507611
7.395,272.481,-0.508001
7.39667,272.499,-0.508756
7.39833,272.516,-0.509824
7.4,272.532,-0.511168
7.40167,272.55,-0.512446
7.40333,272.567,-0.513805
7.405,272.584,-0.515205
7.40667,272.601,-0.516794
7.40833,272.618,-0.518525
7.41,272.634,-0.520012
7.41167,272.651,-0.52106
7.41333,272.669,-0.521675
7.415,272.686,-0.522217
7.41667,272.703,-0.52247
7.41833,272.72,-0.522525
7.42,272.737,-0.522491
7.42167,272.754,-0.52224
7.42333,272.771,-0.521999
7.425,272.788,-0.52178
7.42667,272.805,-0.521594
7.42833,272.822,-0.521444
7.43,272.839,-0.521295
7.43167,272.856,-0.521167
7.43333,272.872,-0.521052
7.435,272.889,-0.52095
7.43667,272.906,-0.52089
7.43833,272.923,-0.520842
7.44,272.94,-0.520789
7.44167,272.956,-0.520727
7.44333,272.973,-0.520667
7.445,272.99,-0.520614
7.44667,273.006,-0.520554
7.44833,273.023,-0.520537
7.45,273.04,-0.520543
7.45167,273.057,-0.520565
7.45333,273.074,-0.520613
7.455,273.09,-0.520696
7.45667,273.107,-0.520901
7.45833,273.124,-0.521183
7.46,273.141,-0.521438
7.46167,273.157,-0.521641
7.46333,273.174,-0.521935
7.465,273.191,-0.522154
7.46667,273.207,-0.522499
7.46833,273.224,-0.522966
7.47,273.241,-0.523362
7.47167,273.257,-0.523764
7.47333,273.274,-0.524213
7.475,273.29,-0.524804
7.47667,273.307,-0.525557
7.47833,273.324,-0.526209
7.48,273.34,-0.526923
7.48167,273.357,-0.527766
7.48333,273.374,-0.528593
7.485,273.39,-0.529466
7.48667,273.407,-0.530418
7.48833,273.423,-0.531177
7.49,273.439,-0.531863
7.49167,273.456,-0.532618
7.49333,273.472,-0.533281
7.495,273.489,-0.534025
7.49667,273.505,-0.534617
7.49833,273.522,-0.535321
7.5,273.538,-0.535987
7.50167,273.555,-0.536483
7.50333,273.571,-0.536979
7.505,273.587,-0.537505
7.50667,273.604,-0.537854
7.50833,273.62,-0.538074
7.51,273.636,-0.538124
7.51167,273.652,-0.538216
7.51333,273.669,-0.538223
7.515,273.685,-0.538208
7.51667,273.701,-0.538183
7.51833,273.717,-0.538143
7.52,273.734,-0.538082
7.52167,273.75,-0.538002
7.52333,273.767,-0.537913
7.525,273.783,-0.537809
7.52667,273.8,-0.537659
7.52833,273.816,-0.537443
7.53,273.832,-0.537027
7.53167,273.848,-0.536518
7.53333,273.864,-0.535943
7.535,273.88,-0.535102
7.53667,273.897,-0.534036
7.53833,273.913,-0.532834
7.54,273.929,-0.531569
7.54167,273.945,-0.53045
7.54333,273.962,-0.529291
7.545,273.978,-0.528026
7.54667,273.994,-0.526725
7.54833,274.01,-0.525519
7.55,274.026,-0.52428
7.55167,274.043,-0.52286
7.55333,274.059,-0.521103
7.555,274.075,-0.518961
7.55667,274.091,-0.516953
7.55833,274.107,-0.5152
7.56,274.123,-0.513431
7.56167,274.14,-0.511562
7.56333,274.156,-0.509777
7.565,274.172,-0.508115
7.56667,274.188,-0.507009
7.56833,274.204,-0.506367
7.57,274.221,-0.505854
7.57167,274.237,-0.505349
7.57333,274.253,-0.504921
7.575,274.269,-0.50444
7.57667,274.285,-0.503795
7.57833,274.301,-0.502936
7.58,274.318,-0.501972
7.58167,274.334,-0.501041
7.58333,274.35,-0.500131
7.585,274.366,-0.499249
7.58667,274.383,-0.498584
7.58833,274.398,-0.497956
7.59,274.415,-0.49742
7.59167,274.431,-0.496969
7.59333,274.447,-0.496596
7.595,274.463,-0.496242
7.59667,274.479,-0.495738
7.59833,274.496,-0.495192
7.6,274.512,-0.494492
7.60167,274.528,-0.493665
7.60333,274.544,-0.492598
7.605,274.561,-0.491449
7.60667,274.577,-0.490137
7.60833,274.593,-0.488484
7.61,274.609,-0.487011
7.61167,274.626,-0.485708
7.61333,274.642,-0.484585
7.615,274.659,-0.483739
7.61667,274.675,-0.483277
7.61833,274.691,-0.482915
7.62,274.707,-0.482678
7.62167,274.723,-0.482503
7.62333,274.74,-0.482376
7.625,274.756,-0.482254
7.62667,274.772,-0.482067
7.62833,274.788,-0.481962
7.63,274.805,-0.481886
7.63167,274.821,-0.481819
7.63333,274.837,-0.481755
7.635,274.854,-0.481725
7.63667,274.87,-0.481687
7.63833,274.887,-0.48161
7.64,274.903,-0.481475
7.64167,274.919,-0.481238
7.64333,274.935,-0.480907
7.645,274.952,-0.480551
7.64667,274.968,-0.480182
7.64833,274.984,-0.47986
7.65,275.001,-0.479625
7.65167,275.017,-0.479323
7.65333,275.034,-0.479119
7.655,275.05,-0.479017
7.65667,275.066,-0.478945
7.65833,275.083,-0.478875
7.66,275.099,-0.478772
7.66167,275.116,-0.478683
7.66333,275.132,-0.478595
7.665,275.148,-0.478521
7.66667,275.165,-0.478485
7.66833,275.181,-0.478391
7.67,275.198,-0.47831
7.67167,275.214,-0.478271
7.67333,275.231,-0.47827
7.675,275.247,-0.478277
7.67667,275.263,-0.478282
7.67833,275.28,-0.47828
7.68,275.296,-0.478266
7.68167,275.312,-0.47825
7.68333,275.329,-0.478232
7.685,275.345,-0.478205
7.68667,275.362,-0.47818
7.68833,275.378,-0.478152
7.69,275.395,-0.478129
7.69167,275.411,-0.4781
7.69333,275.427,-0.478061
7.695,275.444,-0.478027
7.69667,275.46,-0.477987
7.69833,275.477,-0.477946
7.7,275.493,-0.477903
7.70167,275.51,-0.477873
7.70333,275.526,-0.477842
7.705,275.543,-0.477813
7.70667,275.559,-0.477787
7.70833,275.576,-0.477751
7.71,275.592,-0.477732
7.71167,275.609,-0.477707
7.71333,275.625,-0.477685
7.715,275.641,-0.477653
7.71667,275.658,-0.477625
7.71833,275.675,-0.477602
7.72,275.691,-0.477594
7.72167,275.708,-0.477587
7.72333,275.724,-0.477578
7.725,275.741,-0.477575
7.72667,275.758,-0.477574
7.72833,275.774,-0.477579
7.73,275.791,-0.477581
7.73167,275.807,-0.477583
7.73333,275.824,-0.47759
7.735,275.84,-0.477597
7.73667,275.857,-0.477605
7.73833,275.873,-0.477617
7.74,275.89,-0.477625
7.74167,275.906,-0.477623
7.74333,275.922,-0.477624
7.745,275.939,-0.477613
7.74667,275.956,-0.477604
7.74833,275.972,-0.47759
7.75,275.989,-0.477569
7.75167,276.006,-0.477555
7.75333,276.022,-0.477538
7.755,276.039,-0.477525
7.75667,276.055,-0.477513
7.75833,276.072,-0.477504
7.76,276.088,-0.477492
7.76167,276.105,-0.477481
7.76333,276.121,-0.477466
7.765,276.138,-0.477459
7.76667,276.155,-0.477454
7.76833,276.171,-0.477451
7.77,276.188,-0.477451
7.77167,276.205,-0.477452
7.77333,276.221,-0.477459
7.775,276.238,-0.477473
7.77667,276.255,-0.477495
7.77833,276.271,-0.477521
7.78,276.288,-0.477551
7.78167,276.304,-0.477583
7.78333,276.321,-0.477669
7.785,276.337,-0.477732
7.78667,276.354,-0.477818
7.78833,276.37,-0.477875
7.79,276.387,-0.477905
7.79167,276.404,-0.477931
7.79333,276.42,-0.477956
7.795,276.437,-0.477982
7.79667,276.453,-0.47801
7.79833,276.47,-0.478038
7.8,276.487,-0.47806
7.80167,276.503,-0.478081
7.80333,276.52,-0.478105
7.805,276.537,-0.478127
7.80667,276.553,-0.478144
7.80833,276.57,-0.478159
7.81,276.586,-0.478167
7.81167,276.603,-0.478176
7.81333,276.62,-0.478195
7.815,276.637,-0.478222
7.81667,276.654,-0.47825
7.81833,276.67,-0.47828
7.82,276.687,-0.478305
7.82167,276.703,-0.478328
7.82333,276.72,-0.478348
7.825,276.737,-0.478364
7.82667,276.753,-0.478381
7.82833,276.77,-0.478397
7.83,276.787,-0.478405
7.83167,276.803,-0.478413
7.83333,276.82,-0.478431
7.835,276.837,-0.478451
7.83667,276.853,-0.478481
7.83833,276.87,-0.478529
7.84,276.887,-0.47858
7.84167,276.903,-0.478668
7.84333,276.92,-0.478762
7.845,276.936,-0.478831
7.84667,276.953,-0.478884
7.84833,276.97,-0.478937
7.85,276.987,-0.478994
7.85167,277.003,-0.47907
7.85333,277.02,-0.479126
7.855,277.036,-0.479175
7.85667,277.053,-0.479221
7.85833,277.07,-0.479263
7.86,277.087,-0.479312
7.86167,277.103,-0.479354
7.86333,277.12,-0.479395
7.865,277.136,-0.479425
7.86667,277.153,-0.479447
7.86833,277.17,-0.479472
7.87,277.187,-0.479488
7.87167,277.203,-0.479503
7.87333,277.22,-0.479522
7.875,277.237,-0.479542
7.87667,277.253,-0.479571
7.87833,277.27,-0.479615
7.88,277.287,-0.479676
7.88167,277.304,-0.479778
7.88333,277.32,-0.479872
7.885,277.337,-0.479979
7.88667,277.354,-0.48006
7.88833,277.371,-0.480126
7.89,277.387,-0.480186
7.89167,277.404,-0.480243
7.89333,277.421,-0.480287
7.895,277.438,-0.480328
7.89667,277.454,-0.480377
7.89833,277.471,-0.480426
7.9,277.487,-0.480482
7.90167,277.504,-0.480535
7.90333,277.521,-0.480598
7.905,277.537,-0.480668
7.90667,277.554,-0.480741
7.90833,277.571,-0.480814
7.91,277.587,-0.480881
7.91167,277.604,-0.480933
7.91333,277.621,-0.480975
7.915,277.638,-0.481013
7.91667,277.655,-0.481044
7.91833,277.671,-0.481074
7.92,277.688,-0.481107
7.92167,277.705,-0.481139
7.92333,277.721,-0.481171
7.925,277.738,-0.48121
7.92667,277.754,-0.481255
7.92833,277.771,-0.481307
7.93,277.788,-0.481358
7.93167,277.805,-0.48141
7.93333,277.821,-0.481457
7.935,277.838,-0.481503
7.93667,277.854,-0.481547
7.93833,277.871,-0.481583
7.94,277.888,-0.481616
7.94167,277.905,-0.481655
7.94333,277.921,-0.4817
7.945,277.938,-0.481755
7.94667,277.955,-0.48182
7.94833,277.972,-0.481892
7.95,277.988,-0.481966
7.95167,278.005,-0.482037
7.95333,278.022,-0.482105
7.955,278.039,-0.482176
7.95667,278.055,-0.482234
7.95833,278.072,-0.482284
7.96,278.089,-0.48234
7.96167,278.106,-0.482395
7.96333,278.122,-0.482447
7.965,278.139,-0.482513
7.96667,278.156,-0.48258
7.96833,278.173,-0.482644
7.97,278.189,-0.482707
7.97167,278.206,-0.482769
7.97333,278.223,-0.482827
7.975,278.24,-0.482883
7.97667,278.257,-0.482932
7.97833,278.273,-0.482978
7.98,278.289,-0.483017
7.98167,278.306,-0.483042
7.98333,278.323,-0.483069
7.985,278.34,-0.483094
7.98667,278.357,-0.483124
7.98833,278.373,-0.483156
7.99,278.39,-0.483183
7.99167,278.407,-0.483215
7.99333,278.424,-0.483248
7.995,278.44,-0.483278
7.99667,278.457,-0.483313
7.99833,278.474,-0.483359
8,278.49,-0.483407
8.00167,278.507,-0.483461
8.00333,278.524,-0.483519
8.005,278.541,-0.483582
8.00667,278.557,-0.483646
8.00833,278.574,-0.483715
8.01,278.591,-0.483785
8.01167,278.607,-0.483851
8.01333,278.624,-0.483915
8.015,278.641,-0.483974
8.01667,278.658,-0.484031
8.01833,278.675,-0.484089
8.02,278.691,-0.484144
8.02167,278.708,-0.4842
8.02333,278.725,-0.484262
8.025,278.741,-0.484326
8.02667,278.758,-0.484389
8.02833,278.775,-0.484451
8.03,278.792,-0.484507
8.03167,278.809,-0.484562
8.03333,278.825,-0.484613
8.035,278.842,-0.484653
8.03667,278.859,-0.484689
8.03833,278.875,-0.484723
8.04,278.892,-0.484764
8.04167,278.909,-0.484805
8.04333,278.925,-0.484859
8.045,278.942,-0.48491
8.04667,278.958,-0.484968
8.04833,278.975,-0.48503
8.05,278.992,-0.485092
8.05167,279.008,-0.485151
8.05333,279.025,-0.485194
8.055,279.042,-0.485232
8.05667,279.059,-0.485265
8.05833,279.075,-0.485301
8.06,279.092,-0.485336
8.06167,279.109,-0.485366
8.06333,279.125,-0.485393
8.065,279.142,-0.485424
8.06667,279.159,-0.485457
8.06833,279.176,-0.485496
8.07,279.193,-0.485538
8.07167,279.209,-0.485581
8.07333,279.226,-0.485631
8.075,279.243,-0.485686
8.07667,279.26,-0.485746
8.07833,279.276,-0.48581
8.08,279.293,-0.485874
8.08167,279.31,-0.485928
8.08333,279.326,-0.485973
8.085,279.343,-0.486007
8.08667,279.36,-0.486026
8.08833,279.377,-0.486037
8.09,279.393,-0.48604
8.09167,279.41,-0.486043
8.09333,279.427,-0.486052
8.095,279.443,-0.486067
8.09667,279.46,-0.486096
8.09833,279.477,-0.486158
8.1,279.494,-0.486355
8.10167,279.51,-0.487021
8.10333,279.526,-0.48936
8.105,279.543,-0.49557
8.10667,279.559,-0.507936
8.10833,279.576,-0.526461
8.11,279.592,-0.546863
8.11167,279.607,-0.55976
8.11333,279.623,-0.570373
8.115,279.638,-0.580534
8.11667,279.654,-0.590528
8.11833,279.669,-0.598133
8.12,279.685,-0.606155
8.12167,279.7,-0.61304
8.12333,279.716,-0.620263
8.125,279.732,-0.627417
8.12667,279.747,-0.635711
8.12833,279.762,-0.642974
8.13,279.778,-0.651362
8.13167,279.793,-0.660151
8.13333,279.808,-0.669193
8.135,279.823,-0.680301
8.13667,279.838,-0.689907
8.13833,279.853,-0.699997
8.14,279.867,-0.710583
8.14167,279.882,-0.719572
8.14333,279.896,-0.729242
8.145,279.911,-0.738002
8.14667,279.925,-0.743292
8.14833,279.94,-0.74734
8.15,279.954,-0.749812
8.15167,279.968,-0.750039
8.15333,279.982,-0.749609
8.155,279.996,-0.745866
8.15667,280.01,-0.741855
8.15833,280.025,-0.736189
8.16,280.039,-0.727659
8.16167,280.053,-0.717707
8.16333,280.066,-0.706995
8.165,280.08,-0.694757
8.16667,280.094,-0.683169
8.16833,280.108,-0.677278
8.17,280.122,-0.669657
8.17167,280.136,-0.655589
8.17333,280.15,-0.637229
8.175,280.164,-0.617622
8.17667,280.178,-0.59986
8.17833,280.192,-0.584094
8.18,280.206,-0.566466
8.18167,280.22,-0.548167
8.18333,280.234,-0.530031
8.185,280.248,-0.512009
8.18667,280.262,-0.492957
8.18833,280.276,-0.473585
8.19,280.29,-0.455354
8.19167,280.304,-0.436429
8.19333,280.319,-0.418069
8.195,280.333,-0.399454
8.19667,280.347,-0.382692
8.19833,280.362,-0.366678
8.2,280.377,-0.349772
8.20167,280.391,-0.333117
8.20333,280.406,-0.318413
8.205,280.421,-0.303336
8.20667,280.436,-0.289616
8.20833,280.451,-0.275229
8.21,280.465,-0.261834
8.21167,280.48,-0.24953
8.21333,280.496,-0.238181
8.215,280.511,-0.226564
8.21667,280.526,-0.216687
8.21833,280.541,-0.207677
8.22,280.557,-0.198939
8.22167,280.572,-0.192114
8.22333,280.587,-0.187121
8.225,280.603,-0.181932
8.22667,280.618,-0.174884
8.22833,280.634,-0.169593
8.23,280.65,-0.165968
8.23167,280.665,-0.161962
8.23333,280.681,-0.159389
8.235,280.697,-0.155671
8.23667,280.713,-0.153179
8.23833,280.729,-0.15181
8.24,280.746,-0.150073
8.24167,280.762,-0.147688
8.24333,280.778,-0.147739
8.245,280.794,-0.146199
8.24667,280.81,-0.144877
8.24833,280.826,-0.14322
8.25,280.843,-0.142583
8.25167,280.859,-0.142484
8.25333,280.875,-0.143169
8.255,280.892,-0.145273
8.25667,280.909,-0.14814
8.25833,280.925,-0.149948
8.26,280.942,-0.154023
8.26167,280.958,-0.158166
8.26333,280.975,-0.161439
8.265,280.992,-0.164442
8.26667,281.008,-0.166755
8.26833,281.025,-0.170041
8.27,281.042,-0.173524
8.27167,281.058,-0.176842
8.27333,281.075,-0.179628
8.275,281.092,-0.183951
8.27667,281.108,-0.187097
8.27833,281.125,-0.191267
8.28,281.142,-0.194936
8.28167,281.159,-0.198396
8.28333,281.176,-0.201631
8.285,281.193,-0.204519
8.28667,281.21,-0.208221
8.28833,281.227,-0.212706
8.29,281.244,-0.217277
8.29167,281.261,-0.223044
8.29333,281.277,-0.228771
8.295,281.294,-0.233616
8.29667,281.312,-0.238677
8.29833,281.329,-0.242732
8.3,281.346,-0.247173
8.30167,281.363,-0.251147
8.30333,281.38,-0.254308
8.305,281.397,-0.25811
8.30667,281.414,-0.259805
8.30833,281.431,-0.261751
8.31,281.448,-0.264225
8.31167,281.465,-0.266311
8.31333,281.482,-0.269043
8.315,281.499,-0.272206
8.31667,281.516,-0.274721
8.31833,281.533,-0.277821
8.32,281.551,-0.280347
8.32167,281.568,-0.28195
8.32333,281.585,-0.283857
8.325,281.602,-0.285419
8.32667,281.619,-0.285512
8.32833,281.636,-0.285311
8.33,281.653,-0.284984
8.33167,281.67,-0.284585
8.33333,281.687,-0.28372
8.335,281.704,-0.283012
8.33667,281.722,-0.282401
8.33833,281.739,-0.281774
8.34,281.756,-0.281178
8.34167,281.773,-0.280646
8.34333,281.791,-0.280216
8.345,281.808,-0.279884
8.34667,281.825,-0.279573
8.34833,281.843,-0.279294
8.35,281.86,-0.279066
8.35167,281.878,-0.278909
8.35333,281.895,-0.278815
8.355,281.912,-0.27872
8.35667,281.93,-0.278638
8.35833,281.947,-0.278551
8.36,281.965,-0.27845
8.36167,281.982,-0.278337
8.36333,282,-0.278227
8.365,282.017,-0.278108
8.36667,282.035,-0.277977
8.36833,282.052,-0.27766
8.37,282.07,-0.277311
8.37167,282.087,-0.276701
8.37333,282.105,-0.276179
8.375,282.122,-0.275646
8.37667,282.141,-0.27516
8.37833,282.158,-0.274665
8.38,282.176,-0.274239
8.38167,282.193,-0.27396
8.38333,282.211,-0.273795
8.385,282.229,-0.273658
8.38667,282.247,-0.273533
8.38833,282.265,-0.273418
8.39,282.282,-0.273315
8.39167,282.3,-0.273208
8.39333,282.318,-0.273088
8.395,282.335,-0.272978
8.39667,282.353,-0.272912
8.39833,282.37,-0.273164
8.4,282.388,-0.273866
8.40167,282.405,-0.275296
8.40333,282.423,-0.278087
8.405,282.44,-0.281273
8.40667,282.458,-0.285096
8.40833,282.475,-0.28971
8.41,282.492,-0.293845
8.41167,282.51,-0.297503
8.41333,282.528,-0.301032
8.415,282.545,-0.302929
8.41667,282.562,-0.303232
8.41833,282.579,-0.302779
8.42,282.597,-0.302029
8.42167,282.613,-0.300936
8.42333,282.63,-0.300764
8.425,282.646,-0.298621
8.42667,282.662,-0.29084
8.42833,282.678,-0.277163
8.43,282.693,-0.26113
8.43167,282.709,-0.250261
8.43333,282.725,-0.246439
8.435,282.74,-0.246515
8.43667,282.756,-0.247033
8.43833,282.77,-0.247785
8.44,282.785,-0.264531
8.44167,282.8,-0.324898
8.44333,282.815,-0.353484
8.445,282.829,-0.386184
8.44667,282.844,-0.42134
8.44833,282.858,-0.45845
8.45,282.872,-0.496694
8.45167,282.886,-0.535079
8.45333,282.9,-0.574858
8.455,282.914,-0.615753
8.45667,282.928,-0.653718
8.45833,282.941,-0.690757
8.46,282.955,-0.72488
8.46167,282.968,-0.754123
8.46333,282.982,-0.780118
8.465,282.995,-0.801769
8.46667,283.008,-0.817626
8.46833,283.021,-0.829489
8.47,283.034,-0.835642
8.47167,283.047,-0.837726
8.47333,283.06,-0.836235
8.475,283.072,-0.830167
8.47667,283.085,-0.821969
8.47833,283.098,-0.809556
8.48,283.11,-0.796164
8.48167,283.123,-0.779496
8.48333,283.136,-0.761741
8.485,283.148,-0.742297
8.48667,283.161,-0.722087
8.48833,283.174,-0.698959
8.49,283.187,-0.674217
8.49167,283.199,-0.649767
8.49333,283.212,-0.623045
8.495,283.225,-0.596828
8.49667,283.239,-0.568431
8.49833,283.252,-0.540146
8.5,283.265,-0.510604
8.50167,283.279,-0.480658
8.50333,283.293,-0.451513
8.505,283.307,-0.422846
8.50667,283.321,-0.395366
8.50833,283.336,-0.36843
8.51,283.35,-0.342795
8.51167,283.365,-0.317814
8.51333,283.38,-0.293835
8.515,283.395,-0.271218
8.51667,283.41,-0.249694
8.51833,283.425,-0.226965
8.52,283.44,-0.204788
8.52167,283.456,-0.184705
8.52333,283.471,-0.16514
8.525,283.487,-0.14646
8.52667,283.502,-0.12893
8.52833,283.519,-0.111443
8.53,283.535,-0.0951427
8.53167,283.551,-0.0805544
8.53333,283.567,-0.066279
8.535,283.584,-0.0548029
8.53667,283.6,-0.044723
8.53833,283.617,-0.0379508
8.54,283.633,-0.0319801
8.54167,283.65,-0.0282768
8.54333,283.667,-0.0264784
8.545,283.684,-0.0265095
8.54667,283.702,-0.027887
8.54833,283.719,-0.0297113
8.55,283.736,-0.0331509
8.55167,283.754,-0.0370116
8.55333,283.771,-0.0417973
8.555,283.788,-0.0483043
8.55667,283.806,-0.053989
8.55833,283.824,-0.0612002
8.56,283.842,-0.0680799
8.56167,283.86,-0.0760924
8.56333,283.878,-0.0840777
8.565,283.896,-0.0921484
8.56667,283.914,-0.0999197
8.56833,283.932,-0.109092
8.57,283.951,-0.117664
8.57167,283.969,-0.125554
8.57333,283.988,-0.133092
8.575,284.006,-0.140004
8.57667,284.025,-0.148015
8.57833,284.043,-0.154757
8.58,284.062,-0.163496
8.58167,284.08,-0.172085
8.58333,284.099,-0.180885
8.585,284.118,-0.188936
8.58667,284.137,-0.196931
8.58833,284.156,-0.205524
8.59,284.174,-0.215203
8.59167,284.194,-0.223577
8.59333,284.213,-0.231578
8.595,284.232,-0.238503
8.59667,284.251,-0.24549
8.59833,284.27,-0.254795
8.6,284.289,-0.262655
8.60167,284.307,-0.271412
8.60333,284.327,-0.279144
8.605,284.346,-0.287986
8.60667,284.365,-0.297245
8.60833,284.384,-0.306442
8.61,284.404,-0.316492
8.61167,284.422,-0.326146
8.61333,284.441,-0.334627
8.615,284.461,-0.343613
8.61667,284.48,-0.35106
8.61833,284.499,-0.359368
8.62,284.519,-0.367935
8.62167,284.538,-0.3762
8.62333,284.557,-0.3841
8.625,284.576,-0.392271
8.62667,284.596,-0.40165
8.62833,284.615,-0.411524
8.63,284.634,-0.42027
8.63167,284.653,-0.430574
8.63333,284.672,-0.442855
8.635,284.691,-0.454366
8.63667,284.711,-0.465257
8.63833,284.73,-0.47733
8.64,284.749,-0.488568
8.64167,284.768,-0.499043
8.64333,284.787,-0.508229
8.645,284.806,-0.517883
8.64667,284.825,-0.527458
8.64833,284.844,-0.536251
8.65,284.863,-0.54604
8.65167,284.882,-0.553628
8.65333,284.901,-0.561928
8.655,284.919,-0.570435
8.65667,284.938,-0.577587
8.65833,284.957,-0.58454
8.66,284.975,-0.590742
8.66167,284.994,-0.595971
8.66333,285.012,-0.601898
8.665,285.031,-0.60674
8.66667,285.05,-0.611125
8.66833,285.068,-0.615156
8.67,285.087,-0.618522
8.67167,285.106,-0.621644
8.67333,285.124,-0.624754
8.675,285.142,-0.627017
8.67667,285.161,-0.628241
8.67833,285.179,-0.62737
8.68,285.197,-0.626427
8.68167,285.216,-0.624351
8.68333,285.234,-0.620738
8.685,285.252,-0.616125
8.68667,285.27,-0.612045
8.68833,285.289,-0.606582
8.69,285.307,-0.601434
8.69167,285.324,-0.599112
8.69333,285.342,-0.596057
8.695,285.36,-0.59529
8.69667,285.378,-0.594766
8.69833,285.396,-0.593851
8.7,285.414,-0.594738
8.70167,285.431,-0.596866
8.70333,285.449,-0.597658
8.705,285.467,-0.599409
8.70667,285.485,-0.601908
8.70833,285.502,-0.604788
8.71,285.52,-0.608734
8.71167,285.538,-0.612723
8.71333,285.555,-0.617455
8.715,285.573,-0.621054
8.71667,285.59,-0.624999
8.71833,285.608,-0.627976
8.72,285.625,-0.630793
8.72167,285.642,-0.632165
8.72333,285.66,-0.634127
8.725,285.677,-0.636145
8.72667,285.694,-0.637833
8.72833,285.712,-0.637669
8.73,285.729,-0.637673
8.73167,285.746,-0.638073
8.73333,285.763,-0.638544
8.735,285.78,-0.639164
8.73667,285.797,-0.639665
8.73833,285.815,-0.639925
8.74,285.832,-0.63947
8.74167,285.849,-0.639082
8.74333,285.867,-0.638832
8.745,285.883,-0.638277
8.74667,285.901,-0.637536
8.74833,285.918,-0.63025
8.75,285.935,-0.628835
8.75167,285.952,-0.626792
8.75333,285.969,-0.624601
8.755,285.986,-0.622532
8.75667,286.003,-0.620575
8.75833,286.02,-0.618301
8.76,286.037,-0.615211
8.76167,286.054,-0.611903
8.76333,286.071,-0.608007
8.765,286.088,-0.603093
8.76667,286.105,-0.597809
8.76833,286.122,-0.591414
8.77,286.14,-0.584983
8.77167,286.157,-0.578618
8.77333,286.175,-0.572138
8.775,286.192,-0.566469
8.77667,286.209,-0.561365
8.77833,286.226,-0.55624
8.78,286.243,-0.550944
8.78167,286.261,-0.547497
8.78333,286.278,-0.543351
8.785,286.295,-0.538535
8.78667,286.312,-0.534648
8.78833,286.33,-0.531634
8.79,286.347,-0.529793
8.79167,286.365,-0.527728
8.79333,286.382,-0.527516
8.795,286.399,-0.526799
8.79667,286.416,-0.525314
8.79833,286.434,-0.524378
8.8,286.451,-0.524199
8.80167,286.469,-0.524112
8.80333,286.486,-0.523613
8.805,286.503,-0.523419
8.80667,286.521,-0.523284
8.80833,286.538,-0.523983
8.81,286.556,-0.524646
8.81167,286.573,-0.525209
8.81333,286.591,-0.525646
8.815,286.608,-0.526294
8.81667,286.626,-0.526889
8.81833,286.643,-0.527277
8.82,286.661,-0.527619
8.82167,286.678,-0.527865
8.82333,286.696,-0.527933
8.825,286.714,-0.528009
8.82667,286.731,-0.527945
8.82833,286.748,-0.527689
8.83,286.766,-0.527408
8.83167,286.783,-0.52718
8.83333,286.801,-0.527131
8.835,286.818,-0.527152
8.83667,286.836,-0.527208
8.83833,286.853,-0.527266
8.84,286.871,-0.52732
8.84167,286.889,-0.527587
8.84333,286.907,-0.527822
8.845,286.924,-0.528031
8.84667,286.941,-0.528205
8.84833,286.959,-0.528363
8.85,286.977,-0.528485
8.85167,286.994,-0.528607
8.85333,287.012,-0.528717
8.855,287.029,-0.528812
8.85667,287.047,-0.528893
8.85833,287.065,-0.528956
8.86,287.082,-0.528999
8.86167,287.1,-0.52906
8.86333,287.118,-0.529128
8.865,287.135,-0.529196
8.86667,287.153,-0.529269
8.86833,287.17,-0.529352
8.87,287.188,-0.529467
8.87167,287.206,-0.529563
8.87333,287.223,-0.529651
8.875,287.241,-0.52974
8.87667,287.259,-0.529832
8.87833,287.276,-0.529926
8.88,287.293,-0.530089
8.88167,287.311,-0.530355
8.88333,287.329,-0.530788
8.885,287.346,-0.531399
8.88667,287.364,-0.532425
8.88833,287.382,-0.533658
8.89,287.399,-0.535202
8.89167,287.417,-0.536957
8.89333,287.434,-0.538646
8.895,287.452,-0.540156
8.89667,287.469,-0.541694
8.89833,287.487,-0.543283
8.9,287.504,-0.544749
8.90167,287.521,-0.546376
8.90333,287.539,-0.547989
8.905,287.556,-0.549471
8.90667,287.574,-0.550733
8.90833,287.591,-0.552218
8.91,287.609,-0.553545
8.91167,287.626,-0.554341
8.91333,287.643,-0.555074
8.915,287.661,-0.55589
8.91667,287.678,-0.556474
8.91833,287.696,-0.557071
8.92,287.713,-0.557614
8.92167,287.731,-0.558136
8.92333,287.748,-0.55864
8.925,287.765,-0.559028
8.92667,287.783,-0.559353
8.92833,287.8,-0.559754
8.93,287.817,-0.56008
8.93167,287.834,-0.560254
8.93333,287.852,-0.56042
8.935,287.869,-0.560589
8.93667,287.886,-0.560735
8.93833,287.904,-0.560844
8.94,287.921,-0.560963
8.94167,287.938,-0.561115
8.94333,287.955,-0.561274
8.945,287.972,-0.561407
8.94667,287.99,-0.561624
8.94833,288.007,-0.561878
8.95,288.024,-0.562118
8.95167,288.042,-0.562372
8.95333,288.059,-0.562598
8.955,288.076,-0.562778
8.95667,288.093,-0.562963
8.95833,288.111,-0.563201
8.96,288.128,-0.563501
8.96167,288.145,-0.563969
8.96333,288.162,-0.564603
8.965,288.18,-0.565345
8.96667,288.197,-0.565991
8.96833,288.214,-0.56663
8.97,288.231,-0.567012
8.97167,288.249,-0.567325
8.97333,288.266,-0.567462
8.975,288.283,-0.567676
8.97667,288.3,-0.56779
8.97833,288.318,-0.567805
8.98,288.335,-0.567794
8.98167,288.352,-0.56773
8.98333,288.369,-0.567456
8.985,288.387,-0.566786
8.98667,288.405,-0.565461
8.98833,288.422,-0.56306
8.99,288.439,-0.559209
8.99167,288.457,-0.553178
8.99333,288.474,-0.545925
8.995,288.491,-0.53731
8.99667,288.509,-0.528361
8.99833,288.526,-0.521055
9,288.543,-0.514649
9.00167,288.561,-0.509925
9.00333,288.578,-0.505646
9.005,288.596,-0.501338
9.00667,288.613,-0.497634
9.00833,288.631,-0.494553
9.01,288.648,-0.492282
9.01167,288.666,-0.490767
9.01333,288.683,-0.489702
9.015,288.701,-0.488102
9.01667,288.718,-0.486607
9.01833,288.736,-0.485398
9.02,288.754,-0.484957
9.02167,288.771,-0.48488
9.02333,288.789,-0.48519
9.025,288.807,-0.485577
9.02667,288.825,-0.486487
9.02833,288.842,-0.487584
9.03,288.86,-0.488606
9.03167,288.878,-0.489345
9.03333,288.895,-0.490061
9.035,288.912,-0.492829
9.03667,288.93,-0.494613
9.03833,288.948,-0.495806
9.04,288.965,-0.4967
9.04167,288.983,-0.497477
9.04333,289,-0.498167
9.045,289.018,-0.498763
9.04667,289.035,-0.499208
9.04833,289.053,-0.499521
9.05,289.07,-0.499794
9.05167,289.088,-0.500191
9.05333,289.106,-0.500861
9.055,289.123,-0.501587
9.05667,289.14,-0.502487
9.05833,289.158,-0.503476
9.06,289.175,-0.504503
9.06167,289.193,-0.505551
9.06333,289.21,-0.506542
9.065,289.227,-0.507741
9.06667,289.245,-0.509256
9.06833,289.262,-0.510805
9.07,289.279,-0.512091
9.07167,289.297,-0.513154
9.07333,289.314,-0.514124
9.075,289.332,-0.514864
9.07667,289.349,-0.515372
9.07833,289.366,-0.515881
9.08,289.383,-0.516301
9.08167,289.401,-0.516621
9.08333,289.418,-0.516975
9.085,289.435,-0.517339
9.08667,289.452,-0.51786
9.08833,289.47,-0.518214
9.09,289.487,-0.518562
9.09167,289.504,-0.518802
9.09333,289.521,-0.519042
9.095,289.538,-0.519182
9.09667,289.555,-0.519276
9.09833,289.573,-0.519337
9.1,289.59,-0.519386
9.10167,289.607,-0.51943
9.10333,289.624,-0.519476
9.105,289.642,-0.519519
9.10667,289.658,-0.519562
9.10833,289.676,-0.519602
9.11,289.693,-0.519637
9.11167,289.71,-0.519685
9.11333,289.727,-0.519738
9.115,289.744,-0.519795
9.11667,289.761,-0.519854
9.11833,289.778,-0.519914
9.12,289.795,-0.519962
9.12167,289.812,-0.520022
9.12333,289.828,-0.520079
9.125,289.845,-0.520132
9.12667,289.862,-0.52018
9.12833,289.879,-0.520221
9.13,289.896,-0.520273
9.13167,289.913,-0.520325
9.13333,289.93,-0.520374
9.135,289.947,-0.520422
9.13667,289.964,-0.520464
9.13833,289.98,-0.520506
9.14,289.997,-0.520539
9.14167,290.014,-0.520569
9.14333,290.031,-0.520596
9.145,290.047,-0.520623
9.14667,290.064,-0.520654
9.14833,290.081,-0.520677
9.15,290.098,-0.5207
9.15167,290.115,-0.520728
9.15333,290.132,-0.520745
9.155,290.148,-0.520744
9.15667,290.165,-0.52074
9.15833,290.182,-0.520727
9.16,290.198,-0.520706
9.16167,290.215,-0.52064
9.16333,290.231,-0.520489
9.165,290.248,-0.52028
9.16667,290.265,-0.519938
9.16833,290.282,-0.519573
9.17,290.298,-0.519306
9.17167,290.315,-0.518858
9.17333,290.332,-0.51819
9.175,290.349,-0.517489
9.17667,290.365,-0.516611
9.17833,290.382,-0.515549
9.18,290.399,-0.514048
9.18167,290.415,-0.512497
9.18333,290.432,-0.510934
9.185,290.448,-0.509335
9.18667,290.465,-0.50771
9.18833,290.482,-0.505905
9.19,290.499,-0.504181
9.19167,290.515,-0.502406
9.19333,290.532,-0.499913
9.195,290.548,-0.497324
9.19667,290.565,-0.494545
9.19833,290.582,-0.491427
9.2,290.598,-0.488867
9.20167,290.615,-0.486751
9.20333,290.632,-0.484717
9.205,290.649,-0.48287
9.20667,290.666,-0.481281
9.20833,290.682,-0.480374
9.21,290.699,-0.479575
9.21167,290.715,-0.478554
9.21333,290.732,-0.477498
9.215,290.749,-0.476431
9.21667,290.766,-0.475526
9.21833,290.782,-0.474289
9.22,290.799,-0.473066
9.22167,290.816,-0.472125
9.22333,290.832,-0.471588
9.225,290.849,-0.471137
9.22667,290.866,-0.470899
9.22833,290.882,-0.47059
9.23,290.899,-0.470136
9.23167,290.916,-0.469778
9.23333,290.933,-0.469395
9.235,290.949,-0.46924
9.23667,290.966,-0.469158
9.23833,290.982,-0.469172
9.24,290.999,-0.469237
9.24167,291.016,-0.469628
9.24333,291.033,-0.469997
9.245,291.049,-0.470318
9.24667,291.066,-0.470555
9.24833,291.083,-0.470761
9.25,291.1,-0.470911
9.25167,291.116,-0.471027
9.25333,291.133,-0.471141
9.255,291.15,-0.471289
9.25667,291.166,-0.471452
9.25833,291.183,-0.471616
9.26,291.2,-0.471791
9.26167,291.216,-0.471956
9.26333,291.233,-0.472165
9.265,291.249,-0.472408
9.26667,291.266,-0.47266
9.26833,291.283,-0.472929
9.27,291.299,-0.473175
9.27167,291.316,-0.473489
9.27333,291.333,-0.473897
9.275,291.35,-0.474423
9.27667,291.366,-0.474982
9.27833,291.383,-0.475343
9.28,291.399,-0.475621
9.28167,291.415,-0.47575
9.28333,291.432,-0.475835
9.285,291.449,-0.475904
9.28667,291.465,-0.475963
9.28833,291.482,-0.476026
9.29,291.499,-0.476083
9.29167,291.515,-0.476135
9.29333,291.532,-0.476187
9.295,291.548,-0.476251
9.29667,291.565,-0.476315
9.29833,291.581,-0.476368
9.3,291.598,-0.47641
9.30167,291.615,-0.476448
9.30333,291.631,-0.476476
9.305,291.648,-0.476492
9.30667,291.665,-0.476495
9.30833,291.682,-0.476417
9.31,291.699,-0.476186
9.31167,291.715,-0.475604
9.31333,291.732,-0.47493
9.315,291.749,-0.474012
9.31667,291.766,-0.472546
9.31833,291.783,-0.47059
9.32,291.799,-0.468237
9.32167,291.816,-0.465316
9.32333,291.833,-0.462245
9.325,291.85,-0.458925
9.32667,291.867,-0.45549
9.32833,291.884,-0.451808
9.33,291.9,-0.448074
9.33167,291.918,-0.444433
9.33333,291.935,-0.44114
9.335,291.952,-0.437912
9.33667,291.968,-0.435169
9.33833,291.985,-0.433342
9.34,292.002,-0.431774
9.34167,292.019,-0.430579
9.34333,292.036,-0.429696
9.345,292.053,-0.429198
9.34667,292.07,-0.428961
9.34833,292.087,-0.428841
9.35,292.104,-0.428771
9.35167,292.121,-0.428856
9.35333,292.138,-0.428886
9.355,292.155,-0.429102
9.35667,292.173,-0.429417
9.35833,292.189,-0.429714
9.36,292.207,-0.430925
9.36167,292.224,-0.43181
9.36333,292.241,-0.432337
9.365,292.258,-0.432589
9.36667,292.275,-0.43291
9.36833,292.292,-0.433499
9.37,292.309,-0.43434
9.37167,292.327,-0.435527
9.37333,292.343,-0.438029
9.375,292.361,-0.442171
9.37667,292.378,-0.448833
9.37833,292.394,-0.457199
9.38,292.411,-0.466604
9.38167,292.429,-0.476069
9.38333,292.446,-0.485039
9.385,292.463,-0.493114
9.38667,292.48,-0.500238
9.38833,292.497,-0.505748
9.39,292.514,-0.50963
9.39167,292.531,-0.51263
9.39333,292.547,-0.515538
9.395,292.564,-0.518192
9.39667,292.581,-0.521481
9.39833,292.598,-0.525085
9.4,292.615,-0.527548
9.40167,292.632,-0.531921
9.40333,292.649,-0.534872
9.405,292.665,-0.53944
9.40667,292.682,-0.542771
9.40833,292.699,-0.546216
9.41,292.715,-0.548502
9.41167,292.732,-0.550558
9.41333,292.749,-0.552831
9.415,292.765,-0.55365
9.41667,292.782,-0.55415
9.41833,292.799,-0.554851
9.42,292.816,-0.555368
9.42167,292.833,-0.554988
9.42333,292.849,-0.554318
9.425,292.865,-0.553689
9.42667,292.882,-0.553469
9.42833,292.899,-0.553174
9.43,292.915,-0.552707
9.43167,292.932,-0.552588
9.43333,292.949,-0.552329
9.435,292.965,-0.552085
9.43667,292.981,-0.551942
9.43833,292.998,-0.551765
9.44,293.014,-0.551588
9.44167,293.031,-0.551259
9.44333,293.047,-0.551003
9.445,293.064,-0.550791
9.44667,293.08,-0.550556
9.44833,293.097,-0.549175
9.45,293.113,-0.548091
9.45167,293.129,-0.547164
9.45333,293.146,-0.546412
9.455,293.162,-0.545771
9.45667,293.179,-0.545235
9.45833,293.196,-0.544799
9.46,293.212,-0.544449
9.46167,293.228,-0.54418
9.46333,293.245,-0.54389
9.465,293.261,-0.543601
9.46667,293.277,-0.543303
9.46833,293.294,-0.543026
9.47,293.31,-0.542741
9.47167,293.326,-0.542426
9.47333,293.343,-0.542106
9.475,293.359,-0.541896
9.47667,293.375,-0.54167
9.47833,293.392,-0.54144
9.48,293.408,-0.541138
9.48167,293.424,-0.540815
9.48333,293.44,-0.540442
9.485,293.457,-0.540001
9.48667,293.473,-0.539542
9.48833,293.489,-0.539077
9.49,293.505,-0.538574
9.49167,293.522,-0.537849
9.49333,293.538,-0.537137
9.495,293.555,-0.536459
9.49667,293.571,-0.535706
9.49833,293.587,-0.534879
9.5,293.603,-0.534187
9.50167,293.619,-0.533404
9.50333,293.636,-0.532836
9.505,293.652,-0.532322
9.50667,293.668,-0.531683
9.50833,293.685,-0.531234
9.51,293.701,-0.530677
9.51167,293.717,-0.53012
9.51333,293.734,-0.529684
9.515,293.75,-0.529229
9.51667,293.766,-0.52866
9.51833,293.782,-0.528044
9.52,293.798,-0.527474
9.52167,293.814,-0.526801
9.52333,293.831,-0.526109
9.525,293.847,-0.525284
9.52667,293.864,-0.524414
9.52833,293.88,-0.523566
9.53,293.896,-0.522862
9.53167,293.913,-0.52228
9.53333,293.929,-0.521514
9.535,293.945,-0.520939
9.53667,293.961,-0.520346
9.53833,293.978,-0.519582
9.54,293.994,-0.518686
9.54167,294.01,-0.517953
9.54333,294.026,-0.517329
9.545,294.042,-0.516695
9.54667,294.058,-0.516053
9.54833,294.075,-0.515475
9.55,294.091,-0.514979
9.55167,294.107,-0.514514
9.55333,294.123,-0.514093
9.555,294.14,-0.513796
9.55667,294.156,-0.513376
9.55833,294.172,-0.513066
9.56,294.188,-0.51278
9.56167,294.204,-0.512591
9.56333,294.221,-0.51241
9.565,294.237,-0.512196
9.56667,294.254,-0.512051
9.56833,294.27,-0.511818
9.57,294.286,-0.511542
9.57167,294.302,-0.511229
9.57333,294.319,-0.510879
9.575,294.335,-0.510552
9.57667,294.351,-0.510211
9.57833,294.367,-0.509919
9.58,294.383,-0.509713
9.58167,294.4,-0.509495
9.58333,294.416,-0.509266
9.585,294.432,-0.509124
9.58667,294.449,-0.509016
9.58833,294.465,-0.508899
9.59,294.481,-0.508782
9.59167,294.497,-0.508662
9.59333,294.514,-0.508485
9.595,294.53,-0.508247
9.59667,294.547,-0.507995
9.59833,294.563,-0.507649
9.6,294.579,-0.507301
9.60167,294.595,-0.50681
9.60333,294.612,-0.506487
9.605,294.628,-0.506327
9.60667,294.645,-0.506247
9.60833,294.661,-0.506168
9.61,294.677,-0.506095
9.61167,294.694,-0.50602
9.61333,294.71,-0.505929
9.615,294.726,-0.505872
9.61667,294.742,-0.50582
9.61833,294.759,-0.50577
9.62,294.775,-0.505713
9.62167,294.792,-0.505653
9.62333,294.808,-0.505588
9.625,294.824,-0.505521
9.62667,294.841,-0.50545
9.62833,294.857,-0.50538
9.63,294.873,-0.505296
9.63167,294.889,-0.50521
9.63333,294.906,-0.50513
9.635,294.922,-0.505049
9.63667,294.938,-0.504973
9.63833,294.955,-0.504898
9.64,294.971,-0.504829
9.64167,294.988,-0.504764
9.64333,295.004,-0.504696
9.645,295.02,-0.504632
9.64667,295.037,-0.504573
9.64833,295.053,-0.504517
9.65,295.069,-0.504455
9.65167,295.086,-0.504396
9.65333,295.102,-0.504339
9.655,295.119,-0.504285
9.65667,295.135,-0.504232
9.65833,295.151,-0.504171
9.66,295.168,-0.504107
9.66167,295.184,-0.504045
9.66333,295.201,-0.503987
9.665,295.217,-0.503932
9.66667,295.234,-0.50388
9.66833,295.25,-0.503826
9.67,295.266,-0.503787
9.67167,295.282,-0.503757
9.67333,295.298,-0.50373
9.675,295.315,-0.503698
9.67667,295.331,-0.503665
9.67833,295.348,-0.50363
9.68,295.364,-0.503595
9.68167,295.381,-0.503555
9.68333,295.397,-0.503515
9.685,295.413,-0.503469
9.68667,295.43,-0.503409
9.68833,295.446,-0.503345
9.69,295.462,-0.503284
9.69167,295.479,-0.50322
9.69333,295.495,-0.503156
9.695,295.511,-0.503102
9.69667,295.528,-0.503055
9.69833,295.545,-0.503018
9.7,295.561,-0.50299
9.70167,295.578,-0.502967
9.70333,295.594,-0.502954
9.705,295.61,-0.502949
9.70667,295.626,-0.502951
9.70833,295.643,-0.502951
9.71,295.659,-0.502954
9.71167,295.676,-0.502947
9.71333,295.692,-0.502929
9.715,295.708,-0.502899
9.71667,295.724,-0.502859
9.71833,295.741,-0.50282
9.72,295.757,-0.502781
9.72167,295.774,-0.502742
9.72333,295.79,-0.502711
9.725,295.807,-0.502686
9.72667,295.823,-0.502664
9.72833,295.839,-0.502644
9.73,295.856,-0.502618
9.73167,295.872,-0.502582
9.73333,295.889,-0.50255
9.735,295.905,-0.502519
9.73667,295.922,-0.502492
9.73833,295.938,-0.502476
9.74,295.955,-0.502459
9.74167,295.971,-0.502441
9.74333,295.988,-0.502427
9.745,296.004,-0.502418
9.74667,296.021,-0.50241
9.74833,296.037,-0.502396
9.75,296.054,-0.502376
9.75167,296.07,-0.502354
9.75333,296.087,-0.502331
9.755,296.103,-0.502318
9.75667,296.119,-0.502319
9.75833,296.136,-0.502325
9.76,296.152,-0.502338
9.76167,296.169,-0.502368
9.76333,296.185,-0.502483
9.765,296.202,-0.502796
9.76667,296.218,-0.503414
9.76833,296.234,-0.504251
9.77,296.25,-0.505592
9.77167,296.267,-0.507282
9.77333,296.283,-0.509411
9.775,296.299,-0.511454
9.77667,296.316,-0.513225
9.77833,296.332,-0.514734
9.78,296.348,-0.515986
9.78167,296.364,-0.517203
9.78333,296.381,-0.518608
9.785,296.397,-0.520036
9.78667,296.413,-0.521821
9.78833,296.429,-0.52351
9.79,296.446,-0.525785
9.79167,296.462,-0.528275
9.79333,296.478,-0.530936
9.795,296.494,-0.533485
9.79667,296.51,-0.536489
9.79833,296.526,-0.539578
9.8,296.542,-0.541898
9.80167,296.558,-0.544141
9.80333,296.574,-0.545907
9.805,296.59,-0.546936
9.80667,296.606,-0.547366
9.80833,296.622,-0.547546
9.81,296.638,-0.547741
9.81167,296.654,-0.547826
9.81333,296.67,-0.54769
9.815,296.687,-0.547531
9.81667,296.702,-0.547345
9.81833,296.718,-0.546586
9.82,296.734,-0.546003
9.82167,296.75,-0.545601
9.82333,296.766,-0.545354
9.825,296.782,-0.545177
9.82667,296.798,-0.544982
9.82833,296.814,-0.544725
9.83,296.83,-0.544331
9.83167,296.845,-0.543843
9.83333,296.861,-0.543165
9.835,296.877,-0.542101
9.83667,296.893,-0.540555
9.83833,296.909,-0.538045
9.84,296.925,-0.534838
9.84167,296.941,-0.531012
9.84333,296.957,-0.526555
9.845,296.973,-0.52068
9.84667,296.989,-0.512802
9.84833,297.005,-0.504868
9.85,297.021,-0.497197
9.85167,297.038,-0.490494
9.85333,297.054,-0.48433
9.855,297.07,-0.479418
9.85667,297.086,-0.475864
9.85833,297.102,-0.473868
9.86,297.118,-0.471446
9.86167,297.134,-0.469492
9.86333,297.151,-0.467524
9.865,297.167,-0.465949
9.86667,297.183,-0.46332
9.86833,297.199,-0.461892
9.87,297.215,-0.459783
9.87167,297.231,-0.456974
9.87333,297.248,-0.454024
9.875,297.264,-0.451779
9.87667,297.28,-0.449588
9.87833,297.296,-0.447921
9.88,297.313,-0.446205
9.88167,297.329,-0.445394
9.88333,297.345,-0.445256
9.885,297.361,-0.445473
9.88667,297.378,-0.44576
9.88833,297.394,-0.446142
9.89,297.41,-0.446408
9.89167,297.426,-0.446887
9.89333,297.442,-0.447403
9.895,297.458,-0.447835
9.89667,297.475,-0.448255
9.89833,297.491,-0.448621
9.9,297.508,-0.448897
9.90167,297.524,-0.449113
9.90333,297.541,-0.44931
9.905,297.557,-0.449458
9.90667,297.573,-0.449641
9.90833,297.59,-0.450521
9.91,297.606,-0.451113
9.91167,297.622,-0.451698
9.91333,297.639,-0.452216
9.915,297.656,-0.45262
9.91667,297.672,-0.453022
9.91833,297.688,-0.45336
9.92,297.705,-0.453651
9.92167,297.721,-0.453918
9.92333,297.738,-0.454153
9.925,297.754,-0.454362
9.92667,297.771,-0.454548
9.92833,297.787,-0.454712
9.93,297.803,-0.454856
9.93167,297.82,-0.454965
9.93333,297.836,-0.455083
9.935,297.853,-0.455189
9.93667,297.869,-0.455286
9.93833,297.886,-0.455371
9.94,297.903,-0.455436
9.94167,297.919,-0.455517
9.94333,297.936,-0.455609
9.945,297.952,-0.455699
9.94667,297.969,-0.455786
9.94833,297.985,-0.455887
9.95,298.001,-0.455992
9.95167,298.018,-0.456096
9.95333,298.035,-0.45623
9.955,298.051,-0.456389
9.95667,298.068,-0.456515
9.95833,298.085,-0.456647
9.96,298.101,-0.456765
9.96167,298.118,-0.456898
9.96333,298.135,-0.457034
9.965,298.151,-0.457163
9.96667,298.168,-0.457297
9.96833,298.184,-0.457429
9.97,298.2,-0.457547
9.97167,298.217,-0.457637
9.97333,298.234,-0.457752
9.975,298.251,-0.457864
9.97667,298.267,-0.457961
9.97833,298.284,-0.458031
9.98,298.3,-0.458103
9.98167,298.317,-0.458175
9.98333,298.334,-0.458238
9.985,298.35,-0.458308
9.98667,298.367,-0.458385
9.98833,298.384,-0.458456
9.99,298.4,-0.458532
9.99167,298.417,-0.458605
9.99333,298.434,-0.458689
9.995,298.45,-0.458769
9.99667,298.467,-0.458846
9.99833,298.483,-0.458948
10,298.5,-0.459046
10.0017,298.517,-0.459198
10.0033,298.534,-0.459589
10.005,298.55,-0.460183
10.0067,298.567,-0.460944
10.0083,298.584,-0.461683
10.01,298.601,-0.462214
10.0117,298.617,-0.462746
10.0133,298.634,-0.46318
10.015,298.65,-0.463335
10.0167,298.667,-0.463416
10.0183,298.684,-0.4635
10.02,298.7,-0.463579
10.0217,298.717,-0.463652
10.0233,298.733,-0.463723
10.025,298.75,-0.463803
10.0267,298.767,-0.463883
10.0283,298.783,-0.463957
10.03,298.8,-0.464035
10.0317,298.817,-0.464115
10.0333,298.834,-0.464194
10.035,298.85,-0.46428
10.0367,298.867,-0.464376
10.0383,298.884,-0.4645
10.04,298.901,-0.464682
10.0417,298.917,-0.464877
10.0433,298.934,-0.465063
10.045,298.951,-0.465228
10.0467,298.967,-0.465356
10.0483,298.984,-0.465469
10.05,299.001,-0.465563
10.0517,299.018,-0.465657
10.0533,299.035,-0.465749
10.055,299.051,-0.465839
10.0567,299.068,-0.465938
10.0583,299.085,-0.466039
10.06,299.101,-0.466143
10.0617,299.118,-0.466245
10.0633,299.135,-0.466345
10.065,299.152,-0.466441
10.0667,299.168,-0.466529
10.0683,299.185,-0.466618
10.07,299.202,-0.466709
10.0717,299.219,-0.466801
10.0733,299.235,-0.46689
10.075,299.252,-0.466973
10.0767,299.269,-0.467047
10.0783,299.286,-0.467124
10.08,299.302,-0.467202
10.0817,299.319,-0.46728
10.0833,299.336,-0.467362
10.085,299.352,-0.467453
10.0867,299.369,-0.467546
10.0883,299.386,-0.467655
10.09,299.402,-0.467782
10.0917,299.42,-0.467962
10.0933,299.436,-0.468185
10.095,299.453,-0.46845
10.0967,299.469,-0.468684
10.0983,299.486,-0.468924
10.1,299.503,-0.469033
10.1017,299.519,-0.469142
10.1033,299.536,-0.469241
10.105,299.553,-0.469331
10.1067,299.57,-0.469433
10.1083,299.586,-0.469535
10.11,299.603,-0.469648
10.1117,299.62,-0.469816
10.1133,299.636,-0.470059
10.115,299.653,-0.47043
10.1167,299.67,-0.470689
10.1183,299.686,-0.470924
10.12,299.703,-0.471181
10.1217,299.72,-0.471342
10.1233,299.736,-0.471456
10.125,299.753,-0.471562
10.1267,299.77,-0.471667
10.1283,299.787,-0.471773
10.13,299.804,-0.471878
10.1317,299.82,-0.471977
10.1333,299.837,-0.472068
10.135,299.853,-0.47215
10.1367,299.87,-0.472237
10.1383,299.887,-0.472326
10.14,299.904,-0.47242
10.1417,299.921,-0.472514
10.1433,299.937,-0.472612
10.145,299.954,-0.47271
10.1467,299.971,-0.472803
10.1483,299.987,-0.472897
10.15,300.004,-0.472991
10.1517,300.021,-0.47309
10.1533,300.037,-0.473187
10.155,300.054,-0.473283
10.1567,300.071,-0.473376
10.1583,300.088,-0.473465
10.16,300.104,-0.473549
10.1617,300.121,-0.473639
10.1633,300.137,-0.473723
10.165,300.154,-0.473798
10.1667,300.171,-0.47387
10.1683,300.188,-0.473956
10.17,300.205,-0.474039
10.1717,300.221,-0.47412
10.1733,300.238,-0.474194
10.175,300.255,-0.474271
10.1767,300.272,-0.474358
10.1783,300.289,-0.474443
10.18,300.306,-0.474526
10.1817,300.322,-0.474607
10.1833,300.34,-0.474688
10.185,300.356,-0.47477
10.1867,300.372,-0.47486
10.1883,300.389,-0.474952
10.19,300.406,-0.47504
10.1917,300.422,-0.475133
10.1933,300.439,-0.475225
10.195,300.456,-0.475323
10.1967,300.472,-0.475417
10.1983,300.489,-0.475515
10.2,300.506,-0.475612
10.2017,300.523,-0.47571
10.2033,300.539,-0.475802
10.205,300.556,-0.475891
10.2067,300.572,-0.475977
10.2083,300.589,-0.476058
10.21,300.605,-0.476132
10.2117,300.622,-0.476202
10.2133,300.639,-0.476279
10.215,300.656,-0.47635
10.2167,300.672,-0.476426
10.2183,300.689,-0.476501
10.22,300.706,-0.476584
10.2217,300.722,-0.476674
10.2233,300.739,-0.476764
10.225,300.756,-0.476846
10.2267,300.773,-0.476933
10.2283,300.789,-0.47701
10.23,300.806,-0.477071
10.2317,300.822,-0.477127
10.2333,300.839,-0.477182
10.235,300.856,-0.477236
10.2367,300.872,-0.477276
10.2383,300.889,-0.477318
10.24,300.906,-0.477362
10.2417,300.923,-0.477406
10.2433,300.939,-0.477454
10.245,300.956,-0.477505
10.2467,300.973,-0.477545
10.2483,300.99,-0.477575
10.25,301.007,-0.477598
10.2517,301.023,-0.477624
10.2533,301.04,-0.477652
10.255,301.057,-0.47767
10.2567,301.073,-0.477692
10.2583,301.09,-0.477717
10.26,301.107,-0.477748
10.2617,301.124,-0.477789
10.2633,301.14,-0.477838
10.265,301.157,-0.477889
10.2667,301.173,-0.477943
10.2683,301.19,-0.477993
10.27,301.207,-0.478042
10.2717,301.224,-0.478076
10.2733,301.24,-0.478102
10.275,301.257,-0.478127
10.2767,301.274,-0.478153
10.2783,301.29,-0.478187
10.28,301.307,-0.478231
10.2817,301.324,-0.47828
10.2833,301.34,-0.478332
10.285,301.357,-0.478397
10.2867,301.374,-0.478463
10.2883,301.39,-0.47853
10.29,301.407,-0.478599
10.2917,301.424,-0.478664
10.2933,301.44,-0.47873
10.295,301.457,-0.478795
10.2967,301.474,-0.478863
10.2983,301.49,-0.478928
10.3,301.507,-0.478994
10.3017,301.524,-0.479063
10.3033,301.54,-0.479129
10.305,301.557,-0.479195
10.3067,301.574,-0.479257
10.3083,301.591,-0.479325
10.31,301.607,-0.479395
10.3117,301.624,-0.479489
10.3133,301.64,-0.479619
10.315,301.657,-0.479705
10.3167,301.674,-0.479785
10.3183,301.69,-0.479864
10.32,301.707,-0.479939
10.3217,301.724,-0.48001
10.3233,301.741,-0.480077
10.325,301.757,-0.48014
10.3267,301.773,-0.480198
10.3283,301.79,-0.480252
10.33,301.807,-0.480303
10.3317,301.824,-0.480356
10.3333,301.84,-0.480409
10.335,301.857,-0.480466
10.3367,301.874,-0.480524
10.3383,301.891,-0.480587
10.34,301.907,-0.480658
10.3417,301.924,-0.48073
10.3433,301.941,-0.480799
10.345,301.957,-0.480862
10.3467,301.974,-0.480924
10.3483,301.991,-0.480982
10.35,302.007,-0.481031
10.3517,302.024,-0.481081
10.3533,302.04,-0.481119
10.355,302.057,-0.481153
10.3567,302.074,-0.481191
10.3583,302.09,-0.481231
10.36,302.107,-0.481262
10.3617,302.124,-0.481287
10.3633,302.14,-0.481321
10.365,302.157,-0.481351
10.3667,302.173,-0.481373
10.3683,302.191,-0.481407
10.37,302.207,-0.481447
10.3717,302.223,-0.481483
10.3733,302.24,-0.481524
10.375,302.257,-0.481575
10.3767,302.273,-0.481629
10.3783,302.29,-0.481687
10.38,302.306,-0.481752
10.3817,302.323,-0.481825
10.3833,302.34,-0.481896
10.385,302.357,-0.48196
10.3867,302.373,-0.482026
10.3883,302.389,-0.4821
10.39,302.406,-0.482161
10.3917,302.423,-0.482211
10.3933,302.44,-0.482249
10.395,302.456,-0.48228
10.3967,302.473,-0.482304
10.3983,302.49,-0.482327
10.4,302.506,-0.482344
10.4017,302.523,-0.482374
10.4033,302.54,-0.482412
10.405,302.556,-0.482456
10.4067,302.573,-0.482511
10.4083,302.589,-0.482574
10.41,302.606,-0.482632
10.4117,302.623,-0.482685
10.4133,302.639,-0.482734
10.415,302.656,-0.482784
10.4167,302.673,-0.482828
10.4183,302.69,-0.482863
10.42,302.706,-0.482899
10.4217,302.723,-0.482929
10.4233,302.74,-0.482958
10.425,302.756,-0.482991
10.4267,302.773,-0.48303
10.4283,302.789,-0.483062
10.43,302.806,-0.48309
10.4317,302.822,-0.48311
10.4333,302.84,-0.483122
10.435,302.856,-0.483138
10.4367,302.872,-0.483151
10.4383,302.889,-0.483158
10.44,302.906,-0.483165
10.4417,302.922,-0.48318
10.4433,302.939,-0.483209
10.445,302.956,-0.483256
10.4467,302.973,-0.483308
10.4483,302.989,-0.483365
10.45,303.006,-0.483427
10.4517,303.022,-0.483503
10.4533,303.039,-0.483572
10.455,303.056,-0.483631
10.4567,303.072,-0.483684
10.4583,303.089,-0.483729
10.46,303.106,-0.483765
10.4617,303.123,-0.483795
10.4633,303.14,-0.483822
10.465,303.156,-0.483841
10.4667,303.173,-0.483861
10.4683,303.189,-0.483883
10.47,303.206,-0.483899
10.4717,303.222,-0.483918
10.4733,303.239,-0.483932
10.475,303.256,-0.483941
10.4767,303.273,-0.48396
10.4783,303.289,-0.483989
10.48,303.306,-0.484025
10.4817,303.323,-0.484054
10.4833,303.34,-0.484084
10.485,303.356,-0.484109
10.4867,303.373,-0.484133
10.4883,303.39,-0.484149
10.49,303.406,-0.484159
10.4917,303.423,-0.484165
10.4933,303.439,-0.484164
10.495,303.456,-0.484158
10.4967,303.473,-0.484155
10.4983,303.489,-0.484162
10.5,303.506,-0.484178
10.5017,303.523,-0.484204
10.5033,303.539,-0.484246
10.505,303.556,-0.484305
10.5067,303.573,-0.484445
10.5083,303.589,-0.4847
10.51,303.606,-0.484938
10.5117,303.623,-0.485099
10.5133,303.639,-0.485216
10.515,303.656,-0.485277
10.5167,303.672,-0.485339
10.5183,303.689,-0.485401
10.52,303.705,-0.485457
10.5217,303.722,-0.485516
10.5233,303.739,-0.485576
10.525,303.756,-0.485636
10.5267,303.772,-0.485703
10.5283,303.788,-0.485772
10.53,303.805,-0.485838
10.5317,303.821,-0.485898
10.5333,303.838,-0.485953
10.535,303.855,-0.486019
10.5367,303.872,-0.486081
10.5383,303.888,-0.486136
10.54,303.905,-0.486191
10.5417,303.922,-0.486251
10.5433,303.938,-0.486307
10.545,303.955,-0.486368
10.5467,303.971,-0.486431
10.5483,303.988,-0.486497
10.55,304.004,-0.486569
10.5517,304.021,-0.486645
10.5533,304.038,-0.48674
10.555,304.055,-0.486819
10.5567,304.071,-0.486893
10.5583,304.087,-0.486959
10.56,304.104,-0.487014
10.5617,304.121,-0.487064
10.5633,304.138,-0.487111
10.565,304.154,-0.487152
10.5667,304.171,-0.487191
10.5683,304.188,-0.48722
10.57,304.204,-0.487254
10.5717,304.22,-0.487295
10.5733,304.237,-0.487333
10.575,304.253,-0.487377
10.5767,304.27,-0.487421
10.5783,304.287,-0.487466
10.58,304.304,-0.48752
10.5817,304.32,-0.487575
10.5833,304.337,-0.48763
10.585,304.354,-0.487681
10.5867,304.371,-0.48773
10.5883,304.387,-0.487783
10.59,304.403,-0.487834
10.5917,304.42,-0.487884
10.5933,304.436,-0.487945
10.595,304.453,-0.487996
10.5967,304.47,-0.488046
10.5983,304.486,-0.488096
10.6,304.503,-0.488144
10.6017,304.519,-0.488182
10.6033,304.536,-0.488218
10.605,304.553,-0.488264
10.6067,304.569,-0.488314
10.6083,304.586,-0.488374
10.61,304.602,-0.488444
10.6117,304.619,-0.48852
10.6133,304.635,-0.488743
10.615,304.652,-0.489053
10.6167,304.668,-0.489437
10.6183,304.685,-0.489876
10.62,304.701,-0.490384
10.6217,304.718,-0.49086
10.6233,304.734,-0.491222
10.625,304.751,-0.49152
10.6267,304.768,-0.491746
10.6283,304.785,-0.491924
10.63,304.801,-0.492117
10.6317,304.817,-0.492295
10.6333,304.833,-0.49243
10.635,304.85,-0.49258
10.6367,304.867,-0.492696
10.6383,304.883,-0.492889
10.64,304.9,-0.493101
10.6417,304.916,-0.493297
10.6433,304.932,-0.493448
10.645,304.949,-0.493559
10.6467,304.966,-0.493651
10.6483,304.982,-0.493744
10.65,304.999,-0.493828
10.6517,305.015,-0.493899
10.6533,305.031,-0.493964
10.655,305.048,-0.494008
10.6567,305.065,-0.494044
10.6583,305.081,-0.494081
10.66,305.098,-0.494117
10.6617,305.114,-0.494147
10.6633,305.131,-0.494175
10.665,305.148,-0.494193
10.6667,305.164,-0.494209
10.6683,305.18,-0.494223
10.67,305.196,-0.494232
10.6717,305.212,-0.494246
10.6733,305.229,-0.494258
10.675,305.246,-0.494257
10.6767,305.262,-0.49425
10.6783,305.278,-0.494229
10.68,305.295,-0.494171
10.6817,305.311,-0.494029
10.6833,305.328,-0.49382
10.685,305.344,-0.493553
10.6867,305.361,-0.493278
10.6883,305.377,-0.493066
10.69,305.394,-0.492879
10.6917,305.41,-0.492684
10.6933,305.427,-0.492485
10.695,305.443,-0.492319
10.6967,305.46,-0.49212
10.6983,305.476,-0.491886
10.7,305.493,-0.491656
10.7017,305.509,-0.491396
10.7033,305.526,-0.491147
10.705,305.542,-0.490864
10.7067,305.559,-0.490497
10.7083,305.576,-0.490074
10.71,305.592,-0.489666
10.7117,305.608,-0.489137
10.7133,305.625,-0.488543
10.715,305.642,-0.487844
10.7167,305.659,-0.48725
10.7183,305.675,-0.486421
10.72,305.692,-0.485564
10.7217,305.708,-0.484858
10.7233,305.725,-0.484511
10.725,305.741,-0.484265
10.7267,305.758,-0.484094
10.7283,305.774,-0.483977
10.73,305.791,-0.483869
10.7317,305.808,-0.48378
10.7333,305.824,-0.483713
10.735,305.841,-0.483673
10.7367,305.858,-0.483624
10.7383,305.874,-0.48351
10.74,305.891,-0.48339
10.7417,305.907,-0.483287
10.7433,305.924,-0.483216
10.745,305.94,-0.48314
10.7467,305.957,-0.483101
10.7483,305.974,-0.483055
10.75,305.99,-0.48301
10.7517,306.007,-0.482966
10.7533,306.023,-0.482927
10.755,306.04,-0.482878
10.7567,306.056,-0.482819
10.7583,306.073,-0.482797
10.76,306.09,-0.482772
10.7617,306.107,-0.482749
10.7633,306.123,-0.482721
10.765,306.139,-0.482694
10.7667,306.156,-0.482661
10.7683,306.173,-0.482618
10.77,306.189,-0.482582
10.7717,306.206,-0.482548
10.7733,306.223,-0.482524
10.775,306.24,-0.482503
10.7767,306.256,-0.482493
10.7783,306.273,-0.482494
10.78,306.289,-0.482506
10.7817,306.306,-0.482525
10.7833,306.322,-0.48254
10.785,306.339,-0.482556
10.7867,306.355,-0.482569
10.7883,306.372,-0.482579
10.79,306.388,-0.482582
10.7917,306.405,-0.482589
10.7933,306.422,-0.482599
10.795,306.439,-0.482604
10.7967,306.455,-0.48261
10.7983,306.472,-0.482625
10.8,306.488,-0.482636
10.8017,306.505,-0.482646
10.8033,306.522,-0.48265
10.805,306.539,-0.482651
10.8067,306.555,-0.482653
10.8083,306.572,-0.482652
10.81,306.589,-0.482643
10.8117,306.605,-0.482634
10.8133,306.622,-0.482625
10.815,306.638,-0.48261
10.8167,306.655,-0.482598
10.8183,306.672,-0.482593
10.82,306.688,-0.48259
10.8217,306.705,-0.482594
10.8233,306.721,-0.4826
10.825,306.738,-0.482615
10.8267,306.755,-0.482631
10.8283,306.772,-0.482646
10.83,306.789,-0.482662
10.8317,306.805,-0.482678
10.8333,306.822,-0.48269
10.835,306.838,-0.482692
10.8367,306.855,-0.482684
10.8383,306.871,-0.482677
10.84,306.888,-0.482665
10.8417,306.905,-0.482654
10.8433,306.921,-0.482647
10.845,306.938,-0.482642
10.8467,306.955,-0.482631
10.8483,306.971,-0.482619
10.85,306.988,-0.482616
10.8517,307.005,-0.482618
10.8533,307.021,-0.482626
10.855,307.038,-0.482637
10.8567,307.055,-0.482649
10.8583,307.072,-0.482656
10.86,307.088,-0.482666
10.8617,307.105,-0.482685
10.8633,307.121,-0.482699
10.865,307.138,-0.482707
10.8667,307.155,-0.482715
10.8683,307.172,-0.482718
10.87,307.188,-0.482719
10.8717,307.205,-0.482714
10.8733,307.222,-0.482702
10.875,307.238,-0.482689
10.8767,307.255,-0.48268
10.8783,307.272,-0.48267
10.88,307.288,-0.482657
10.8817,307.305,-0.482632
10.8833,307.322,-0.482603
10.885,307.338,-0.482574
10.8867,307.355,-0.482539
10.8883,307.372,-0.48251
10.89,307.389,-0.482483
10.8917,307.405,-0.482468
10.8933,307.421,-0.482465
10.895,307.438,-0.482471
10.8967,307.455,-0.482493
10.8983,307.471,-0.482517
10.9,307.488,-0.482541
10.9017,307.505,-0.482584
10.9033,307.522,-0.482613
10.905,307.538,-0.482642
10.9067,307.555,-0.482673
10.9083,307.572,-0.482694
10.91,307.589,-0.482713
10.9117,307.606,-0.482727
10.9133,307.622,-0.482736
10.915,307.639,-0.482747
10.9167,307.656,-0.482759
10.9183,307.672,-0.482774
10.92,307.689,-0.482798
10.9217,307.705,-0.482824
10.9233,307.722,-0.482852
10.925,307.739,-0.482886
10.9267,307.756,-0.482924
10.9283,307.772,-0.482969
10.93,307.789,-0.483012
10.9317,307.805,-0.483048
10.9333,307.822,-0.48309
10.935,307.839,-0.483135
10.9367,307.856,-0.483185
10.9383,307.872,-0.483227
10.94,307.889,-0.483266
10.9417,307.906,-0.483298
10.9433,307.923,-0.483336
10.945,307.939,-0.483374
10.9467,307.956,-0.483409
10.9483,307.973,-0.483437
10.95,307.989,-0.483461
10.9517,308.006,-0.483486
10.9533,308.022,-0.483515
10.955,308.039,-0.48354
10.9567,308.056,-0.483565
10.9583,308.073,-0.483589
10.96,308.09,-0.483617
10.9617,308.106,-0.483648
10.9633,308.123,-0.483675
10.965,308.14,-0.483699
10.9667,308.156,-0.483728
10.9683,308.173,-0.483768
10.97,308.19,-0.483809
10.9717,308.207,-0.483853
10.9733,308.223,-0.483895
10.975,308.24,-0.483943
10.9767,308.256,-0.48399
10.9783,308.273,-0.484041
10.98,308.29,-0.48409
10.9817,308.307,-0.484139
10.9833,308.323,-0.484187
10.985,308.34,-0.48424
10.9867,308.357,-0.484293
10.9883,308.374,-0.484344
10.99,308.39,-0.484393
10.9917,308.407,-0.484436
10.9933,308.424,-0.484475
10.995,308.44,-0.484512
10.9967,308.457,-0.48455
10.9983,308.474,-0.484579
11,308.49,-0.484615
11.0017,308.507,-0.484653
11.0033,308.524,-0.484689
11.005,308.54,-0.484728
11.0067,308.557,-0.484768
11.0083,308.574,-0.484808
11.01,308.59,-0.484855
11.0117,308.607,-0.484909
11.0133,308.624,-0.484968
11.015,308.64,-0.485025
11.0167,308.657,-0.485083
11.0183,308.674,-0.485142
11.02,308.69,-0.485207
11.0217,308.707,-0.485275
11.0233,308.723,-0.485343
11.025,308.74,-0.485406
11.0267,308.757,-0.485461
11.0283,308.774,-0.485519
11.03,308.79,-0.485578
11.0317,308.807,-0.485635
11.0333,308.824,-0.485678
11.035,308.84,-0.48572
11.0367,308.857,-0.48575
11.0383,308.874,-0.485782
11.04,308.89,-0.485825
11.0417,308.907,-0.485872
11.0433,308.924,-0.48592
11.045,308.94,-0.485969
11.0467,308.957,-0.486025
11.0483,308.974,-0.486078
11.05,308.991,-0.486139
11.0517,309.007,-0.486196
11.0533,309.024,-0.48625
11.055,309.04,-0.4863
11.0567,309.057,-0.486338
11.0583,309.073,-0.486374
11.06,309.09,-0.486401
11.0617,309.107,-0.486433
11.0633,309.123,-0.486466
11.065,309.14,-0.486494
11.0667,309.156,-0.486528
11.0683,309.173,-0.486572
11.07,309.19,-0.486613
11.0717,309.207,-0.486655
11.0733,309.224,-0.486695
11.075,309.24,-0.486733
11.0767,309.257,-0.486767
11.0783,309.274,-0.486796
11.08,309.29,-0.486834
11.0817,309.307,-0.486866
11.0833,309.324,-0.486892
11.085,309.34,-0.486911
11.0867,309.357,-0.486919
11.0883,309.374,-0.486901
11.09,309.39,-0.486773
11.0917,309.406,-0.486482
11.0933,309.423,-0.486017
11.095,309.439,-0.485146
11.0967,309.456,-0.483708
11.0983,309.473,-0.481397
11.1,309.49,-0.478401
11.1017,309.507,-0.474512
11.1033,309.524,-0.470146
11.105,309.541,-0.466043
11.1067,309.558,-0.462491
11.1083,309.575,-0.459277
11.11,309.592,-0.456435
11.1117,309.609,-0.453971
11.1133,309.626,-0.452139
11.115,309.643,-0.450708
11.1167,309.66,-0.449061
11.1183,309.677,-0.447325
11.12,309.694,-0.445235
11.1217,309.712,-0.442546
11.1233,309.729,-0.44014
11.125,309.746,-0.438124
11.1267,309.763,-0.435797
11.1283,309.781,-0.43345
11.13,309.798,-0.431542
11.1317,309.815,-0.430373
11.1333,309.832,-0.429786
11.135,309.849,-0.429365
11.1367,309.867,-0.42914
11.1383,309.885,-0.4291
11.14,309.902,-0.429151
11.1417,309.92,-0.429423
11.1433,309.937,-0.429816
11.145,309.955,-0.430188
11.1467,309.973,-0.430518
11.1483,309.99,-0.431791
11.15,310.008,-0.432538
11.1517,310.026,-0.432834
11.1533,310.043,-0.433292
11.155,310.061,-0.434047
11.1567,310.079,-0.435114
11.1583,310.096,-0.436695
11.16,310.114,-0.439746
11.1617,310.131,-0.444549
11.1633,310.149,-0.450841
11.165,310.167,-0.458217
11.1667,310.184,-0.466343
11.1683,310.202,-0.474396
11.17,310.219,-0.484462
11.1717,310.237,-0.494374
11.1733,310.255,-0.502423
11.175,310.272,-0.51097
11.1767,310.29,-0.517083
11.1783,310.308,-0.5233
11.18,310.325,-0.529006
11.1817,310.342,-0.535069
11.1833,310.36,-0.540443
11.185,310.377,-0.546727
11.1867,310.394,-0.552495
11.1883,310.412,-0.558133
11.19,310.429,-0.564352
11.1917,310.446,-0.569038
11.1933,310.463,-0.574965
11.195,310.48,-0.579543
11.1967,310.498,-0.584484
11.1983,310.515,-0.588311
11.2,310.532,-0.592603
11.2017,310.549,-0.595184
11.2033,310.566,-0.596258
11.205,310.583,-0.597604
11.2067,310.6,-0.598163
11.2083,310.617,-0.599671
11.21,310.633,-0.599947
11.2117,310.65,-0.600551
11.2133,310.667,-0.600378
11.215,310.684,-0.601464
11.2167,310.701,-0.600875
11.2183,310.717,-0.601268
11.22,310.734,-0.600443
11.2217,310.751,-0.599553
11.2233,310.767,-0.598339
11.225,310.784,-0.596609
11.2267,310.801,-0.594953
11.2283,310.817,-0.588106
11.23,310.834,-0.585405
11.2317,310.85,-0.583046
11.2333,310.867,-0.580805
11.235,310.883,-0.579046
11.2367,310.9,-0.577697
11.2383,310.916,-0.576812
11.24,310.932,-0.575659
11.2417,310.949,-0.574014
11.2433,310.965,-0.572095
11.245,310.981,-0.569951
11.2467,310.998,-0.567568
11.2483,311.014,-0.564871
11.25,311.03,-0.562232
11.2517,311.046,-0.559572
11.2533,311.063,-0.556864
11.255,311.079,-0.55411
11.2567,311.095,-0.55095
11.2583,311.111,-0.547667
11.26,311.127,-0.544326
11.2617,311.144,-0.541353
11.2633,311.16,-0.537927
11.265,311.176,-0.534197
11.2667,311.192,-0.53108
11.2683,311.208,-0.527658
11.27,311.224,-0.524385
11.2717,311.241,-0.521271
11.2733,311.257,-0.518183
11.275,311.273,-0.51523
11.2767,311.289,-0.512891
11.2783,311.305,-0.511089
11.28,311.321,-0.509253
11.2817,311.337,-0.507686
11.2833,311.353,-0.506648
11.285,311.369,-0.506362
11.2867,311.385,-0.506588
11.2883,311.401,-0.506792
11.29,311.417,-0.507058
11.2917,311.433,-0.507441
11.2933,311.449,-0.507758
11.295,311.465,-0.507952
11.2967,311.481,-0.507926
11.2983,311.497,-0.5077
11.3,311.513,-0.507419
11.3017,311.53,-0.506805
11.3033,311.545,-0.506219
11.305,311.561,-0.5058
11.3067,311.577,-0.50509
11.3083,311.593,-0.504199
11.31,311.61,-0.50289
11.3117,311.625,-0.501364
11.3133,311.642,-0.500037
11.315,311.657,-0.498423
11.3167,311.673,-0.496754
11.3183,311.689,-0.495307
11.32,311.706,-0.493787
11.3217,311.722,-0.492077
11.3233,311.738,-0.490165
11.325,311.754,-0.48762
11.3267,311.77,-0.485099
11.3283,311.786,-0.482315
11.33,311.802,-0.478625
11.3317,311.818,-0.474964
11.3333,311.835,-0.470319
11.335,311.851,-0.465756
11.3367,311.867,-0.461011
11.3383,311.884,-0.455635
11.34,311.9,-0.450299
11.3417,311.916,-0.445396
11.3433,311.933,-0.441518
11.345,311.949,-0.436461
11.3467,311.966,-0.431659
11.3483,311.982,-0.427592
11.35,311.998,-0.424474
11.3517,312.015,-0.418752
11.3533,312.032,-0.412078
11.355,312.048,-0.405907
11.3567,312.065,-0.400107
11.3583,312.081,-0.394139
11.36,312.098,-0.387696
11.3617,312.114,-0.383025
11.3633,312.13,-0.379583
11.365,312.147,-0.377898
11.3667,312.163,-0.378309
11.3683,312.18,-0.381507
11.37,312.196,-0.386869
11.3717,312.212,-0.391687
11.3733,312.229,-0.395746
11.375,312.245,-0.407744
11.3767,312.262,-0.41065
11.3783,312.279,-0.415605
11.38,312.296,-0.426005
11.3817,312.313,-0.44354
11.3833,312.329,-0.468673
11.385,312.346,-0.488009
11.3867,312.362,-0.496904
11.3883,312.379,-0.503891
11.39,312.396,-0.509195
11.3917,312.412,-0.513347
11.3933,312.428,-0.519191
11.395,312.445,-0.522856
11.3967,312.461,-0.526166
11.3983,312.478,-0.528759
11.4,312.494,-0.530102
11.4017,312.511,-0.530695
11.4033,312.527,-0.531335
11.405,312.544,-0.530607
11.4067,312.56,-0.530338
11.4083,312.576,-0.53082
11.41,312.593,-0.531034
11.4117,312.609,-0.531618
11.4133,312.625,-0.531468
11.415,312.642,-0.531338
11.4167,312.658,-0.531587
11.4183,312.675,-0.531326
11.42,312.691,-0.5306
11.4217,312.707,-0.529852
11.4233,312.724,-0.529057
11.425,312.74,-0.528247
11.4267,312.757,-0.527476
11.4283,312.773,-0.526787
11.43,312.789,-0.526195
11.4317,312.806,-0.52448
11.4333,312.822,-0.523251
11.435,312.839,-0.522491
11.4367,312.855,-0.522393
11.4383,312.872,-0.522378
11.44,312.888,-0.522456
11.4417,312.904,-0.52258
11.4433,312.921,-0.522938
11.445,312.937,-0.523531
11.4467,312.953,-0.524337
11.4483,312.969,-0.525239
11.45,312.986,-0.526135
11.4517,313.002,-0.527074
11.4533,313.018,-0.528277
11.455,313.034,-0.529455
11.4567,313.051,-0.530473
11.4583,313.067,-0.53147
11.46,313.083,-0.532222
11.4617,313.1,-0.533243
11.4633,313.116,-0.53423
11.465,313.132,-0.535171
11.4667,313.148,-0.535757
11.4683,313.164,-0.536261
11.47,313.18,-0.536791
11.4717,313.196,-0.537585
11.4733,313.213,-0.53849
11.475,313.229,-0.539243
11.4767,313.245,-0.539937
11.4783,313.261,-0.540544
11.48,313.277,-0.54129
11.4817,313.294,-0.542022
11.4833,313.31,-0.542608
11.485,313.326,-0.542992
11.4867,313.342,-0.543203
11.4883,313.358,-0.543296
11.49,313.374,-0.543387
11.4917,313.39,-0.543429
11.4933,313.407,-0.543461
11.495,313.423,-0.543464
11.4967,313.439,-0.543392
11.4983,313.455,-0.543254
11.5,313.472,-0.543137
11.5017,313.488,-0.543008
11.5033,313.504,-0.54289
11.505,313.52,-0.542792
11.5067,313.537,-0.542704
11.5083,313.553,-0.542631
11.51,313.569,-0.542562
11.5117,313.585,-0.542453
11.5133,313.601,-0.542334
11.515,313.617,-0.542221
11.5167,313.634,-0.542082
11.5183,313.65,-0.54191
11.52,313.666,-0.541679
11.5217,313.682,-0.54138
11.5233,313.698,-0.541036
11.525,313.715,-0.540736
11.5267,313.731,-0.54042
11.5283,313.747,-0.540149
11.53,313.763,-0.539926
11.5317,313.779,-0.539748
11.5333,313.795,-0.539613
11.535,313.811,-0.539509
11.5367,313.828,-0.539408
11.5383,313.844,-0.5393
11.54,313.86,-0.539114
11.5417,313.876,-0.538879
11.5433,313.892,-0.538564
11.545,313.909,-0.538275
11.5467,313.925,-0.537937
11.5483,313.941,-0.537592
11.55,313.957,-0.537225
11.5517,313.973,-0.53687
11.5533,313.99,-0.536627
11.555,314.006,-0.536466
11.5567,314.022,-0.53634
11.5583,314.039,-0.536201
11.56,314.055,-0.536064
11.5617,314.071,-0.535911
11.5633,314.087,-0.535786
11.565,314.104,-0.535647
11.5667,314.12,-0.535461
11.5683,314.136,-0.535297
11.57,314.153,-0.535188
11.5717,314.169,-0.535098
11.5733,314.185,-0.535017
11.575,314.202,-0.53494
11.5767,314.218,-0.534868
11.5783,314.235,-0.534801
11.58,314.251,-0.534742
11.5817,314.268,-0.53469
11.5833,314.284,-0.534628
11.585,314.3,-0.534566
11.5867,314.316,-0.534497
11.5883,314.332,-0.534432
11.59,314.349,-0.534358
11.5917,314.365,-0.534277
11.5933,314.382,-0.534187
11.595,314.398,-0.534095
11.5967,314.414,-0.534006
11.5983,314.431,-0.53391
11.6,314.447,-0.533813
11.6017,314.463,-0.533724
11.6033,314.479,-0.533638
11.605,314.496,-0.533554
11.6067,314.513,-0.533467
11.6083,314.529,-0.533382
11.61,314.545,-0.5333
11.6117,314.562,-0.533234
11.6133,314.579,-0.533177
11.615,314.595,-0.533128
11.6167,314.611,-0.53309
11.6183,314.628,-0.533059
11.62,314.644,-0.533038
11.6217,314.661,-0.533073
11.6233,314.677,-0.533245
11.625,314.693,-0.533718
11.6267,314.709,-0.534782
11.6283,314.725,-0.536888
11.63,314.741,-0.540308
11.6317,314.757,-0.544536
11.6333,314.773,-0.548219
11.635,314.788,-0.55076
11.6367,314.803,-0.552285
11.6383,314.818,-0.552885
11.64,314.834,-0.552825
11.6417,314.849,-0.55263
11.6433,314.864,-0.552206
11.645,314.88,-0.55208
11.6467,314.895,-0.551961
11.6483,314.91,-0.551772
11.65,314.926,-0.551412
11.6517,314.941,-0.551101
11.6533,314.956,-0.550931
11.655,314.972,-0.550814
11.6567,314.987,-0.550729
11.6583,315.002,-0.550589
11.66,315.017,-0.550789
11.6617,315.032,-0.552401
11.6633,315.047,-0.557843
11.665,315.062,-0.568003
11.6667,315.076,-0.581403
11.6683,315.091,-0.591659
11.67,315.106,-0.600107
11.6717,315.121,-0.60679
11.6733,315.135,-0.612944
11.675,315.15,-0.617825
11.6767,315.164,-0.622421
11.6783,315.179,-0.625522
11.68,315.193,-0.626987
11.6817,315.208,-0.628555
11.6833,315.222,-0.628237
11.685,315.237,-0.628532
11.6867,315.251,-0.627421
11.6883,315.265,-0.626371
11.69,315.28,-0.625194
11.6917,315.294,-0.62381
11.6933,315.309,-0.622369
11.695,315.323,-0.620681
11.6967,315.337,-0.619035
11.6983,315.352,-0.613294
11.7,315.366,-0.61017
11.7017,315.381,-0.608406
11.7033,315.396,-0.607573
11.705,315.41,-0.605805
11.7067,315.425,-0.602342
11.7083,315.44,-0.596692
11.71,315.455,-0.588739
11.7117,315.469,-0.576637
11.7133,315.485,-0.562881
11.715,315.499,-0.551459
11.7167,315.514,-0.543101
11.7183,315.53,-0.536175
11.72,315.545,-0.5307
11.7217,315.56,-0.52637
11.7233,315.575,-0.522993
11.725,315.591,-0.519829
11.7267,315.606,-0.516759
11.7283,315.622,-0.516113
11.73,315.638,-0.514784
11.7317,315.653,-0.512903
11.7333,315.669,-0.511367
11.735,315.685,-0.509669
11.7367,315.701,-0.508347
11.7383,315.717,-0.506053
11.74,315.733,-0.504747
11.7417,315.749,-0.504003
11.7433,315.765,-0.504035
11.745,315.781,-0.504019
11.7467,315.797,-0.504587
11.7483,315.813,-0.504933
11.75,315.829,-0.505324
11.7517,315.845,-0.505792
11.7533,315.862,-0.506604
11.755,315.878,-0.507526
11.7567,315.895,-0.510229
11.7583,315.911,-0.511935
11.76,315.928,-0.512823
11.7617,315.945,-0.513073
11.7633,315.961,-0.513501
11.765,315.977,-0.514304
11.7667,315.994,-0.515392
11.7683,316.011,-0.517106
11.77,316.028,-0.518917
11.7717,316.045,-0.521473
11.7733,316.062,-0.524687
11.775,316.079,-0.528818
11.7767,316.095,-0.534126
11.7783,316.113,-0.539704
11.78,316.13,-0.545698
11.7817,316.147,-0.553032
11.7833,316.164,-0.560033
11.785,316.181,-0.566941
11.7867,316.198,-0.57309
11.7883,316.215,-0.577754
11.79,316.232,-0.582666
11.7917,316.249,-0.587305
11.7933,316.266,-0.591083
11.795,316.283,-0.595463
11.7967,316.301,-0.598619
11.7983,316.318,-0.602832
11.8,316.336,-0.606703
11.8017,316.353,-0.611028
11.8033,316.37,-0.615351
11.805,316.388,-0.617909
11.8067,316.405,-0.621638
11.8083,316.423,-0.624607
11.81,316.44,-0.627342
11.8117,316.457,-0.62964
11.8133,316.475,-0.631774
11.815,316.492,-0.633582
11.8167,316.509,-0.635634
11.8183,316.527,-0.638242
11.82,316.544,-0.642384
11.8217,316.562,-0.645727
11.8233,316.579,-0.647784
11.825,316.596,-0.649793
11.8267,316.614,-0.65201
11.8283,316.632,-0.655345
11.83,316.649,-0.656921
11.8317,316.667,-0.658195
11.8333,316.684,-0.660542
11.835,316.702,-0.662655
11.8367,316.719,-0.665532
11.8383,316.737,-0.66843
11.84,316.754,-0.671291
11.8417,316.772,-0.674137
11.8433,316.79,-0.676629
11.845,316.807,-0.679586
11.8467,316.824,-0.683436
11.8483,316.842,-0.687559
11.85,316.859,-0.693052
11.8517,316.877,-0.700227
11.8533,316.894,-0.707493
11.855,316.912,-0.716168
11.8567,316.93,-0.72531
11.8583,316.947,-0.735948
11.86,316.965,-0.745639
11.8617,316.983,-0.754268
11.8633,317.001,-0.761581
11.865,317.019,-0.768319
11.8667,317.037,-0.773235
11.8683,317.054,-0.775185
11.87,317.072,-0.776219
11.8717,317.091,-0.773522
11.8733,317.109,-0.767758
11.875,317.127,-0.76043
11.8767,317.145,-0.753855
11.8783,317.163,-0.748083
11.88,317.181,-0.734135
11.8817,317.2,-0.725402
11.8833,317.218,-0.721269
11.885,317.237,-0.716603
11.8867,317.255,-0.707688
11.8883,317.273,-0.694469
11.89,317.292,-0.675398
11.8917,317.311,-0.649627
11.8933,317.329,-0.637052
11.895,317.348,-0.626967
11.8967,317.367,-0.616342
11.8983,317.385,-0.607561
11.9,317.404,-0.598327
11.9017,317.423,-0.59251
11.9033,317.442,-0.586905
11.905,317.461,-0.582994
11.9067,317.48,-0.580107
11.9083,317.499,-0.575893
11.91,317.518,-0.573043
11.9117,317.537,-0.572594
11.9133,317.556,-0.571315
11.915,317.575,-0.572329
11.9167,317.594,-0.573327
11.9183,317.613,-0.576119
11.92,317.632,-0.580787
11.9217,317.651,-0.584955
11.9233,317.67,-0.588697
11.925,317.689,-0.59213
11.9267,317.708,-0.598591
11.9283,317.727,-0.601164
11.93,317.746,-0.601469
11.9317,317.765,-0.602232
11.9333,317.784,-0.606358
11.935,317.803,-0.617111
11.9367,317.822,-0.633959
11.9383,317.841,-0.652804
11.94,317.86,-0.667053
11.9417,317.879,-0.679896
11.9433,317.898,-0.690628
11.945,317.916,-0.698487
11.9467,317.935,-0.706405
11.9483,317.954,-0.713348
11.95,317.972,-0.720166
11.9517,317.991,-0.727806
11.9533,318.009,-0.736316
11.955,318.027,-0.742993
11.9567,318.046,-0.747766
11.9583,318.064,-0.751631
11.96,318.082,-0.756
11.9617,318.1,-0.761256
11.9633,318.119,-0.764948
11.965,318.137,-0.767552
11.9667,318.155,-0.770668
11.9683,318.173,-0.773207
11.97,318.192,-0.773727
11.9717,318.209,-0.775033
11.9733,318.227,-0.776948
11.975,318.245,-0.776874
11.9767,318.263,-0.778275
11.9783,318.281,-0.779235
11.98,318.298,-0.780247
11.9817,318.316,-0.780058
11.9833,318.333,-0.779011
11.985,318.351,-0.779059
11.9867,318.369,-0.779816
11.9883,318.386,-0.779792
11.99,318.404,-0.779218
11.9917,318.421,-0.778634
11.9933,318.439,-0.778036
11.995,318.456,-0.776601
11.9967,318.474,-0.775467
11.9983,318.491,-0.774385
12,318.509,-0.769134
12.0017,318.526,-0.766879
12.0033,318.543,-0.765146
12.005,318.561,-0.76396
12.0067,318.578,-0.762619
12.0083,318.595,-0.761211
12.01,318.612,-0.760028
12.0117,318.63,-0.759077
12.0133,318.647,-0.758235
12.015,318.663,-0.757017
12.0167,318.68,-0.755475
12.0183,318.698,-0.753628
12.02,318.715,-0.751361
12.0217,318.732,-0.748892
12.0233,318.749,-0.746417
12.025,318.766,-0.743854
12.0267,318.783,-0.740947
12.0283,318.8,-0.738377
12.03,318.817,-0.73623
12.0317,318.834,-0.734096
12.0333,318.851,-0.731369
12.035,318.867,-0.728604
12.0367,318.884,-0.726108
12.0383,318.901,-0.723827
12.04,318.918,-0.720954
12.0417,318.935,-0.717983
12.0433,318.951,-0.715302
12.045,318.968,-0.712376
12.0467,318.985,-0.709684
12.0483,319.002,-0.706779
12.05,319.018,-0.703669
12.0517,319.035,-0.701004
12.0533,319.051,-0.698571
12.055,319.068,-0.696826
12.0567,319.085,-0.695293
12.0583,319.101,-0.693855
12.06,319.118,-0.693087
12.0617,319.135,-0.692822
12.0633,319.152,-0.692496
12.065,319.168,-0.692092
12.0667,319.185,-0.691342
12.0683,319.202,-0.690346
12.07,319.218,-0.689118
12.0717,319.235,-0.687771
12.0733,319.252,-0.686002
12.075,319.268,-0.683979
12.0767,319.284,-0.681485
12.0783,319.301,-0.679217
12.08,319.317,-0.676846
12.0817,319.334,-0.673984
12.0833,319.351,-0.671591
12.085,319.367,-0.669911
12.0867,319.383,-0.668098
12.0883,319.4,-0.666723
12.09,319.416,-0.665881
12.0917,319.433,-0.665432
12.0933,319.449,-0.664724
12.095,319.465,-0.663495
12.0967,319.482,-0.662247
12.0983,319.498,-0.660872
12.1,319.515,-0.659304
12.1017,319.532,-0.658123
12.1033,319.548,-0.65663
12.105,319.564,-0.655027
12.1067,319.581,-0.653708
12.1083,319.597,-0.653023
12.11,319.613,-0.652395
12.1117,319.63,-0.651864
12.1133,319.647,-0.651577
12.115,319.663,-0.651313
12.1167,319.679,-0.651008
12.1183,319.696,-0.650619
12.12,319.712,-0.650016
12.1217,319.729,-0.64926
12.1233,319.745,-0.648566
12.125,319.761,-0.64802
12.1267,319.777,-0.647668
12.1283,319.794,-0.64729
12.13,319.81,-0.646563
12.1317,319.827,-0.64553
12.1333,319.843,-0.644542
12.135,319.86,-0.643787
12.1367,319.876,-0.642882
12.1383,319.892,-0.641672
12.14,319.909,-0.640293
12.1417,319.925,-0.639448
12.1433,319.942,-0.638804
12.145,319.958,-0.638038
12.1467,319.975,-0.63716
12.1483,319.991,-0.636217
12.15,320.007,-0.635485
12.1517,320.024,-0.635098
12.1533,320.04,-0.634871
12.155,320.056,-0.634829
12.1567,320.073,-0.634852
12.1583,320.089,-0.634893
12.16,320.105,-0.634938
12.1617,320.122,-0.634962
12.1633,320.138,-0.634968
12.165,320.155,-0.634879
12.1667,320.171,-0.634611
12.1683,320.188,-0.634381
12.17,320.204,-0.634128
12.1717,320.22,-0.633853
12.1733,320.237,-0.633642
12.175,320.253,-0.633523
12.1767,320.27,-0.633321
12.1783,320.286,-0.633111
12.18,320.302,-0.632912
12.1817,320.319,-0.632754
12.1833,320.335,-0.632588
12.185,320.352,-0.632399
12.1867,320.368,-0.632188
12.1883,320.385,-0.631931
12.19,320.402,-0.631719
12.1917,320.418,-0.631547
12.1933,320.434,-0.631444
12.195,320.451,-0.631294
12.1967,320.467,-0.631081
12.1983,320.483,-0.6309
12.2,320.5,-0.630728
12.2017,320.516,-0.630618
12.2033,320.532,-0.630514
12.205,320.548,-0.630416
12.2067,320.565,-0.630295
12.2083,320.581,-0.630215
12.21,320.598,-0.630156
12.2117,320.615,-0.630112
12.2133,320.631,-0.629951
12.215,320.648,-0.629923
12.2167,320.665,-0.629789
12.2183,320.682,-0.629758
12.22,320.698,-0.629731
12.2217,320.714,-0.629704
12.2233,320.731,-0.629674
12.225,320.747,-0.629557
12.2267,320.763,-0.629532
12.2283,320.78,-0.629502
12.23,320.796,-0.629414
12.2317,320.813,-0.629324
12.2333,320.829,-0.629242
12.235,320.845,-0.629219
12.2367,320.862,-0.629194
12.2383,320.879,-0.629166
12.24,320.895,-0.629132
12.2417,320.911,-0.629095
12.2433,320.928,-0.629054
12.245,320.945,-0.629013
12.2467,320.961,-0.62897
12.2483,320.978,-0.628924
12.25,320.994,-0.62887
12.2517,321.01,-0.628824
12.2533,321.027,-0.628782
12.255,321.043,-0.62874
12.2567,321.06,-0.628697
12.2583,321.076,-0.628661
12.26,321.093,-0.628619
12.2617,321.109,-0.628596
12.2633,321.126,-0.628574
12.265,321.143,-0.628555
12.2667,321.159,-0.628537
12.2683,321.175,-0.628531
12.27,321.192,-0.628522
12.2717,321.208,-0.628512
12.2733,321.225,-0.6285
12.275,321.242,-0.628487
12.2767,321.258,-0.628472
12.2783,321.274,-0.62846
12.28,321.291,-0.628451
12.2817,321.308,-0.628444
12.2833,321.325,-0.628434
12.285,321.341,-0.628422
12.2867,321.358,-0.628415
12.2883,321.374,-0.628404
12.29,321.391,-0.628398
12.2917,321.407,-0.62838
12.2933,321.424,-0.628364
12.295,321.44,-0.628339
12.2967,321.457,-0.628308
12.2983,321.473,-0.628267
12.3,321.49,-0.628224
12.3017,321.507,-0.628177
12.3033,321.523,-0.628131
12.305,321.54,-0.628084
12.3067,321.556,-0.628034
12.3083,321.572,-0.627987
12.31,321.589,-0.627941
12.3117,321.605,-0.62789
12.3133,321.621,-0.627847
12.315,321.638,-0.627818
12.3167,321.654,-0.627811
12.3183,321.671,-0.627843
12.32,321.687,-0.628187
12.3217,321.704,-0.629572
12.3233,321.721,-0.632953
12.325,321.737,-0.639359
12.3267,321.754,-0.647319
12.3283,321.771,-0.654975
12.33,321.788,-0.66104
12.3317,321.804,-0.664536
12.3333,321.821,-0.666073
12.335,321.837,-0.666456
12.3367,321.854,-0.665844
12.3383,321.87,-0.664951
12.34,321.887,-0.664362
12.3417,321.903,-0.663922
12.3433,321.92,-0.663723
12.345,321.937,-0.662248
12.3467,321.954,-0.657124
12.3483,321.971,-0.646381
12.35,321.987,-0.630867
12.3517,322.004,-0.612913
12.3533,322.021,-0.59766
12.355,322.038,-0.586092
12.3567,322.055,-0.579161
12.3583,322.071,-0.572629
12.36,322.088,-0.567107
12.3617,322.105,-0.563465
12.3633,322.122,-0.560316
12.365,322.139,-0.557616
12.3667,322.155,-0.555626
12.3683,322.172,-0.554955
12.37,322.189,-0.554583
12.3717,322.206,-0.554677
12.3733,322.223,-0.556278
12.375,322.24,-0.557856
12.3767,322.257,-0.559604
12.3783,322.274,-0.561448
12.38,322.291,-0.563289
12.3817,322.308,-0.564749
12.3833,322.324,-0.569045
12.385,322.341,-0.57138
12.3867,322.358,-0.572412
12.3883,322.374,-0.573085
12.39,322.391,-0.574518
12.3917,322.408,-0.577191
12.3933,322.425,-0.58269
12.395,322.441,-0.593159
12.3967,322.458,-0.606969
12.3983,322.474,-0.621256
12.4,322.491,-0.634343
12.4017,322.508,-0.644222
12.4033,322.525,-0.652801
12.405,322.541,-0.659162
12.4067,322.558,-0.664415
12.4083,322.575,-0.669058
12.41,322.591,-0.672968
12.4117,322.608,-0.676058
12.4133,322.625,-0.67924
12.415,322.641,-0.681967
12.4167,322.658,-0.683435
12.4183,322.675,-0.685009
12.42,322.691,-0.684646
12.4217,322.708,-0.684403
12.4233,322.725,-0.684012
12.425,322.741,-0.683383
12.4267,322.758,-0.682684
12.4283,322.774,-0.681706
12.43,322.791,-0.680372
12.4317,322.808,-0.679412
12.4333,322.824,-0.67837
12.435,322.841,-0.677446
12.4367,322.857,-0.676677
12.4383,322.874,-0.675989
12.44,322.891,-0.675404
12.4417,322.908,-0.674925
12.4433,322.924,-0.673352
12.445,322.941,-0.672235
12.4467,322.958,-0.671519
12.4483,322.975,-0.670758
12.45,322.991,-0.670158
12.4517,323.008,-0.669795
12.4533,323.024,-0.669509
12.455,323.041,-0.66919
12.4567,323.058,-0.668893
12.4583,323.074,-0.668611
12.46,323.091,-0.668364
12.4617,323.108,-0.668176
12.4633,323.125,-0.668091
12.465,323.141,-0.668123
12.4667,323.159,-0.668185
12.4683,323.175,-0.668361
12.47,323.192,-0.668743
12.4717,323.209,-0.669517
12.4733,323.226,-0.671041
12.475,323.242,-0.672676
12.4767,323.259,-0.675069
12.4783,323.276,-0.677624
12.48,323.293,-0.679941
12.4817,323.309,-0.682055
12.4833,323.326,-0.684242
12.485,323.343,-0.687056
12.4867,323.36,-0.690077
12.4883,323.377,-0.692863
12.49,323.393,-0.695491
12.4917,323.41,-0.698336
12.4933,323.427,-0.701168
12.495,323.444,-0.703666
12.4967,323.461,-0.706191
12.4983,323.477,-0.708229
12.5,323.494,-0.710151
12.5017,323.511,-0.711833
12.5033,323.528,-0.713898
12.505,323.545,-0.715764
12.5067,323.562,-0.717639
12.5083,323.579,-0.71942
12.51,323.596,-0.720778
12.5117,323.613,-0.722574
12.5133,323.63,-0.724003
12.515,323.646,-0.724498
12.5167,323.664,-0.724595
12.5183,323.681,-0.724817
12.52,323.697,-0.725151
12.5217,323.714,-0.725322
12.5233,323.731,-0.725334
12.525,323.748,-0.725405
12.5267,323.765,-0.725429
12.5283,323.782,-0.725508
12.53,323.799,-0.725672
12.5317,323.815,-0.725798
12.5333,323.832,-0.726004
12.535,323.849,-0.726135
12.5367,323.866,-0.726218
12.5383,323.883,-0.726249
12.54,323.9,-0.726234
12.5417,323.917,-0.72618
12.5433,323.934,-0.726133
12.545,323.951,-0.726071
12.5467,323.968,-0.725554
12.5483,323.984,-0.725139
12.55,324.001,-0.724817
12.5517,324.019,-0.724553
12.5533,324.035,-0.724536
12.555,324.052,-0.724556
12.5567,324.07,-0.724646
12.5583,324.087,-0.724842
12.56,324.103,-0.725215
12.5617,324.12,-0.725756
12.5633,324.137,-0.726464
12.565,324.154,-0.727057
12.5667,324.171,-0.727654
12.5683,324.187,-0.728222
12.57,324.204,-0.728743
12.5717,324.221,-0.729063
12.5733,324.238,-0.729328
12.575,324.255,-0.729662
12.5767,324.272,-0.730046
12.5783,324.289,-0.730566
12.58,324.306,-0.731405
12.5817,324.323,-0.732678
12.5833,324.34,-0.734152
12.585,324.357,-0.736313
12.5867,324.373,-0.738896
12.5883,324.391,-0.741669
12.59,324.407,-0.744006
12.5917,324.423,-0.746213
12.5933,324.44,-0.747905
12.595,324.457,-0.749637
12.5967,324.474,-0.750965
12.5983,324.491,-0.752037
12.6,324.507,-0.75306
12.6017,324.524,-0.753927
12.6033,324.541,-0.754739
12.605,324.558,-0.755278
12.6067,324.575,-0.755548
12.6083,324.592,-0.755775
12.61,324.608,-0.755938
12.6117,324.625,-0.75611
12.6133,324.642,-0.756172
12.615,324.659,-0.756209
12.6167,324.675,-0.756232
12.6183,324.692,-0.756301
12.62,324.709,-0.756377
12.6217,324.725,-0.756472
12.6233,324.742,-0.756536
12.625,324.759,-0.756575
12.6267,324.775,-0.756582
12.6283,324.792,-0.756588
12.63,324.808,-0.756602
12.6317,324.825,-0.756633
12.6333,324.842,-0.75665
12.635,324.858,-0.756687
12.6367,324.875,-0.756734
12.6383,324.892,-0.756797
12.64,324.908,-0.756888
12.6417,324.925,-0.757014
12.6433,324.942,-0.757417
12.645,324.959,-0.757975
12.6467,324.976,-0.758766
12.6483,324.992,-0.760208
12.65,325.009,-0.761616
12.6517,325.026,-0.762975
12.6533,325.042,-0.764564
12.655,325.059,-0.766133
12.6567,325.076,-0.767717
12.6583,325.093,-0.769352
12.66,325.109,-0.770376
12.6617,325.126,-0.771241
12.6633,325.143,-0.771578
12.665,325.16,-0.771717
12.6667,325.176,-0.771749
12.6683,325.193,-0.771624
12.67,325.21,-0.771457
12.6717,325.226,-0.771295
12.6733,325.243,-0.770965
12.675,325.26,-0.770383
12.6767,325.277,-0.769501
12.6783,325.293,-0.7684
12.68,325.31,-0.766257
12.6817,325.327,-0.762869
12.6833,325.343,-0.758711
12.685,325.36,-0.75449
12.6867,325.377,-0.750107
12.6883,325.394,-0.746005
12.69,325.411,-0.741946
12.6917,325.428,-0.738833
12.6933,325.445,-0.736426
12.695,325.461,-0.734727
12.6967,325.478,-0.733757
12.6983,325.495,-0.733158
12.7,325.512,-0.732978
12.7017,325.529,-0.732838
12.7033,325.545,-0.7328
12.705,325.562,-0.732863
12.7067,325.579,-0.732971
12.7083,325.596,-0.73308
12.71,325.613,-0.733177
12.7117,325.629,-0.733263
12.7133,325.646,-0.733406
12.715,325.663,-0.733467
12.7167,325.679,-0.733546
12.7183,325.696,-0.733634
12.72,325.712,-0.733743
12.7217,325.729,-0.734151
12.7233,325.745,-0.735139
12.725,325.762,-0.736773
12.7267,325.778,-0.739487
12.7283,325.795,-0.743988
12.73,325.812,-0.748928
12.7317,325.829,-0.753993
12.7333,325.845,-0.758298
12.735,325.862,-0.762277
12.7367,325.879,-0.766282
12.7383,325.896,-0.76936
12.74,325.912,-0.771726
12.7417,325.929,-0.773694
12.7433,325.946,-0.775261
12.745,325.962,-0.776719
12.7467,325.978,-0.77846
12.7483,325.994,-0.78009
12.75,326.011,-0.781407
12.7517,326.027,-0.782711
12.7533,326.043,-0.783581
12.755,326.06,-0.784344
12.7567,326.077,-0.785117
12.7583,326.093,-0.785806
12.76,326.109,-0.786234
12.7617,326.126,-0.786851
12.7633,326.142,-0.787463
12.765,326.158,-0.787942
12.7667,326.175,-0.788339
12.7683,326.191,-0.788666
12.77,326.208,-0.788819
12.7717,326.224,-0.788936
12.7733,326.241,-0.789052
12.775,326.257,-0.789084
12.7767,326.274,-0.789081
12.7783,326.29,-0.78907
12.78,326.306,-0.789068
12.7817,326.323,-0.789149
12.7833,326.339,-0.789223
12.785,326.355,-0.789298
12.7867,326.371,-0.789392
12.7883,326.388,-0.789518
12.79,326.404,-0.789675
12.7917,326.421,-0.789911
12.7933,326.437,-0.790097
12.795,326.453,-0.790229
12.7967,326.47,-0.79032
12.7983,326.486,-0.790407
12.8,326.502,-0.790522
12.8017,326.519,-0.790656
12.8033,326.535,-0.790851
12.805,326.552,-0.791023
12.8067,326.568,-0.791163
12.8083,326.584,-0.791266
12.81,326.601,-0.791403
12.8117,326.617,-0.79151
12.8133,326.633,-0.791723
12.815,326.649,-0.791924
12.8167,326.666,-0.7922
12.8183,326.682,-0.792571
12.82,326.699,-0.793087
12.8217,326.715,-0.793788
12.8233,326.731,-0.794578
12.825,326.747,-0.795352
12.8267,326.764,-0.795929
12.8283,326.78,-0.796367
12.83,326.796,-0.796801
12.8317,326.813,-0.797221
12.8333,326.829,-0.797816
12.835,326.845,-0.798435
12.8367,326.861,-0.799008
12.8383,326.878,-0.799584
12.84,326.894,-0.800381
12.8417,326.91,-0.801235
12.8433,326.927,-0.802166
12.845,326.943,-0.803215
12.8467,326.959,-0.80454
12.8483,326.976,-0.805848
12.85,326.992,-0.807776
12.8517,327.008,-0.809811
12.8533,327.024,-0.811144
12.855,327.041,-0.81257
12.8567,327.057,-0.813979
12.8583,327.073,-0.815702
12.86,327.09,-0.817373
12.8617,327.106,-0.819017
12.8633,327.122,-0.820569
12.865,327.139,-0.822503
12.8667,327.155,-0.824404
12.8683,327.171,-0.826081
12.87,327.187,-0.827834
12.8717,327.204,-0.829055
12.8733,327.22,-0.830065
12.875,327.236,-0.831154
12.8767,327.252,-0.832069
12.8783,327.268,-0.8334
12.88,327.285,-0.834797
12.8817,327.301,-0.83632
12.8833,327.317,-0.837811
12.885,327.334,-0.839908
12.8867,327.35,-0.841787
12.8883,327.366,-0.843419
12.89,327.383,-0.844904
12.8917,327.399,-0.846362
12.8933,327.416,-0.847591
12.895,327.432,-0.848808
12.8967,327.448,-0.85023
12.8983,327.465,-0.852043
12.9,327.481,-0.854186
12.9017,327.497,-0.855989
12.9033,327.513,-0.857995
12.905,327.529,-0.859707
12.9067,327.546,-0.861692
12.9083,327.562,-0.864208
12.91,327.579,-0.866609
12.9117,327.595,-0.868768
12.9133,327.611,-0.870755
12.915,327.628,-0.872927
12.9167,327.644,-0.875773
12.9183,327.66,-0.879405
12.92,327.677,-0.883303
12.9217,327.693,-0.886864
12.9233,327.71,-0.889631
12.925,327.726,-0.892143
12.9267,327.742,-0.893508
12.9283,327.759,-0.895672
12.93,327.775,-0.897573
12.9317,327.791,-0.898684
12.9333,327.808,-0.900064
12.935,327.824,-0.902493
12.9367,327.84,-0.904784
12.9383,327.857,-0.907295
12.94,327.873,-0.909944
12.9417,327.89,-0.913034
12.9433,327.906,-0.915961
12.945,327.922,-0.918925
12.9467,327.938,-0.92169
12.9483,327.954,-0.924238
12.95,327.971,-0.926698
12.9517,327.988,-0.928285
12.9533,328.004,-0.929779
12.955,328.02,-0.931676
12.9567,328.036,-0.933053
12.9583,328.053,-0.935195
12.96,328.069,-0.937622
12.9617,328.086,-0.941203
12.9633,328.102,-0.944177
12.965,328.119,-0.947064
12.9667,328.135,-0.951018
12.9683,328.151,-0.956055
12.97,328.167,-0.960506
12.9717,328.184,-0.964713
12.9733,328.2,-0.967484
12.975,328.216,-0.969506
12.9767,328.233,-0.972914
12.9783,328.25,-0.976733
12.98,328.266,-0.980256
12.9817,328.282,-0.982134
12.9833,328.298,-0.984569
12.985,328.315,-0.986463
12.9867,328.331,-0.989184
12.9883,328.348,-0.991771
12.99,328.364,-0.994823
12.9917,328.381,-0.99753
12.9933,328.397,-1.00101
12.995,328.414,-1.00292
12.9967,328.43,-1.00404
12.9983,328.446,-1.0071
13,328.463,-1.00944
13.0017,328.479,-1.01138
13.0033,328.495,-1.01485
13.005,328.512,-1.01752
13.0067,328.528,-1.01987
13.0083,328.545,-1.02335
13.01,328.561,-1.02644
13.0117,328.578,-1.02982
13.0133,328.594,-1.03426
13.015,328.611,-1.03825
13.0167,328.627,-1.04155
13.0183,328.643,-1.04514
13.02,328.66,-1.04824
13.0217,328.676,-1.05223
13.0233,328.692,-1.05571
13.025,328.709,-1.05809
13.0267,328.725,-1.06106
13.0283,328.742,-1.0644
13.03,328.758,-1.06562
13.0317,328.775,-1.06907
13.0333,328.791,-1.07169
13.035,328.808,-1.07532
13.0367,328.824,-1.07741
13.0383,328.84,-1.08066
13.04,328.857,-1.08355
13.0417,328.873,-1.08918
13.0433,328.89,-1.09391
13.045,328.906,-1.09824
13.0467,328.922,-1.10285
13.0483,328.939,-1.10667
13.05,328.955,-1.11102
13.0517,328.971,-1.11299
13.0533,328.988,-1.11603
13.055,329.004,-1.11973
13.0567,329.021,-1.12206
13.0583,329.037,-1.12471
13.06,329.053,-1.12714
13.0617,329.07,-1.12927
13.0633,329.086,-1.13116
13.065,329.103,-1.13358
13.0667,329.119,-1.13506
13.0683,329.136,-1.13702
13.07,329.152,-1.13938
13.0717,329.168,-1.14115
13.0733,329.185,-1.14408
13.075,329.201,-1.14746
13.0767,329.217,-1.15034
13.0783,329.234,-1.15433
13.08,329.25,-1.15728
13.0817,329.267,-1.16046
13.0833,329.283,-1.16344
13.085,329.3,-1.16579
13.0867,329.316,-1.16877
13.0883,329.333,-1.17062
13.09,329.349,-1.17272
13.0917,329.365,-1.17446
13.0933,329.382,-1.17685
13.095,329.398,-1.17986
13.0967,329.415,-1.18139
13.0983,329.431,-1.18202
13.1,329.447,-1.18456
13.1017,329.464,-1.18689
13.1033,329.48,-1.189
13.105,329.497,-1.19095
13.1067,329.513,-1.19256
13.1083,329.53,-1.19409
13.11,329.547,-1.19611
13.1117,329.563,-1.19767
13.1133,329.58,-1.19944
13.115,329.596,-1.19936
13.1167,329.613,-1.19943
13.1183,329.629,-1.20021
13.12,329.646,-1.20093
13.1217,329.662,-1.20191
13.1233,329.678,-1.20253
13.125,329.695,-1.20351
13.1267,329.712,-1.2043
13.1283,329.728,-1.2054
13.13,329.745,-1.20681
13.1317,329.761,-1.20816
13.1333,329.778,-1.20914
13.135,329.795,-1.21003
13.1367,329.811,-1.21069
13.1383,329.828,-1.21104
13.14,329.844,-1.21122
13.1417,329.86,-1.21087
13.1433,329.877,-1.21042
13.145,329.893,-1.21
13.1467,329.91,-1.20975
13.1483,329.926,-1.2096
13.15,329.943,-1.20942
13.1517,329.959,-1.20936
13.1533,329.976,-1.20928
13.155,329.992,-1.20931
13.1567,330.009,-1.20948
13.1583,330.026,-1.20966
13.16,330.042,-1.20966
13.1617,330.059,-1.20959
13.1633,330.076,-1.20951
13.165,330.092,-1.20841
13.1667,330.109,-1.20717
13.1683,330.126,-1.20602
13.17,330.142,-1.20506
13.1717,330.159,-1.20387
13.1733,330.175,-1.20228
13.175,330.192,-1.20067
13.1767,330.209,-1.19866
13.1783,330.225,-1.19659
13.18,330.242,-1.19478
13.1817,330.258,-1.1929
13.1833,330.275,-1.19107
13.185,330.292,-1.18934
13.1867,330.308,-1.18747
13.1883,330.325,-1.18551
13.19,330.341,-1.18327
13.1917,330.358,-1.18094
13.1933,330.375,-1.1786
13.195,330.392,-1.17567
13.1967,330.409,-1.17173
13.1983,330.425,-1.16765
13.2,330.442,-1.16315
13.2017,330.459,-1.15851
13.2033,330.476,-1.15366
13.205,330.492,-1.14825
13.2067,330.509,-1.14213
13.2083,330.525,-1.13569
13.21,330.542,-1.13043
13.2117,330.559,-1.12644
13.2133,330.575,-1.1216
13.215,330.592,-1.11868
13.2167,330.609,-1.11494
13.2183,330.626,-1.1107
13.22,330.643,-1.10799
13.2217,330.659,-1.10463
13.2233,330.676,-1.10001
13.225,330.693,-1.09563
13.2267,330.71,-1.09139
13.2283,330.727,-1.08601
13.23,330.743,-1.08036
13.2317,330.76,-1.07617
13.2333,330.777,-1.07236
13.235,330.794,-1.06821
13.2367,330.811,-1.06263
13.2383,330.828,-1.05773
13.24,330.844,-1.05324
13.2417,330.861,-1.04799
13.2433,330.878,-1.0432
13.245,330.895,-1.03881
13.2467,330.912,-1.03334
13.2483,330.929,-1.02769
13.25,330.946,-1.02194
13.2517,330.963,-1.01604
13.2533,330.98,-1.01063
13.255,330.997,-1.00623
13.2567,331.014,-1.00131
13.2583,331.03,-0.99576
13.26,331.047,-0.993762
13.2617,331.064,-0.988629
13.2633,331.081,-0.98302
13.265,331.098,-0.978655
13.2667,331.115,-0.974637
13.2683,331.131,-0.968865
13.27,331.149,-0.962745
13.2717,331.165,-0.955812
13.2733,331.183,-0.949418
13.275,331.199,-0.944195
13.2767,331.217,-0.938202
13.2783,331.233,-0.932824
13.28,331.25,-0.927954
13.2817,331.267,-0.922849
13.2833,331.284,-0.919078
13.285,331.301,-0.915252
13.2867,331.318,-0.911487
13.2883,331.335,-0.906982
13.29,331.352,-0.903223
13.2917,331.369,-0.899161
13.2933,331.386,-0.894804
13.295,331.402,-0.88957
13.2967,331.42,-0.884116
13.2983,331.436,-0.87765
13.3,331.454,-0.871121
13.3017,331.471,-0.865381
13.3033,331.488,-0.859468
13.305,331.505,-0.854991
13.3067,331.522,-0.849765
13.3083,331.539,-0.845072
13.31,331.556,-0.840709
13.3117,331.573,-0.837319
13.3133,331.59,-0.831996
13.315,331.607,-0.826138
13.3167,331.624,-0.820799
13.3183,331.641,-0.814985
13.32,331.658,-0.809844
13.3217,331.675,-0.804274
13.3233,331.691,-0.799675
13.325,331.708,-0.794422
13.3267,331.725,-0.788723
13.3283,331.743,-0.785227
13.33,331.759,-0.78039
13.3317,331.776,-0.77685
13.3333,331.794,-0.772731
13.335,331.81,-0.768669
13.3367,331.827,-0.764237
13.3383,331.844,-0.761113
13.34,331.861,-0.757645
13.3417,331.878,-0.754294
13.3433,331.895,-0.750882
13.345,331.912,-0.747776
13.3467,331.929,-0.743895
13.3483,331.946,-0.740258
13.35,331.963,-0.736172
13.3517,331.98,-0.731847
13.3533,331.997,-0.727431
13.355,332.014,-0.723174
13.3567,332.031,-0.718002
13.3583,332.048,-0.713398
13.36,332.065,-0.708611
13.3617,332.082,-0.705041
13.3633,332.099,-0.700949
13.365,332.116,-0.697879
13.3667,332.132,-0.694675
13.3683,332.15,-0.692509
13.37,332.166,-0.6895
13.3717,332.184,-0.685617
13.3733,332.2,-0.68152
13.375,332.217,-0.678737
13.3767,332.235,-0.6742
13.3783,332.252,-0.670169
13.38,332.268,-0.666489
13.3817,332.286,-0.662803
13.3833,332.302,-0.660241
13.385,332.319,-0.657389
13.3867,332.337,-0.653895
13.3883,332.353,-0.651469
13.39,332.37,-0.649945
13.3917,332.387,-0.647717
13.3933,332.404,-0.645857
13.395,332.421,-0.642278
13.3967,332.438,-0.639653
13.3983,332.455,-0.63616
13.4,332.472,-0.632647
13.4017,332.489,-0.629831
13.4033,332.505,-0.626334
13.405,332.523,-0.622048
13.4067,332.539,-0.618295
13.4083,332.556,-0.616136
13.41,332.573,-0.614321
13.4117,332.59,-0.612934
13.4133,332.607,-0.611535
13.415,332.624,-0.609362
13.4167,332.64,-0.608803
13.4183,332.657,-0.607447
13.42,332.674,-0.605152
13.4217,332.691,-0.602371
13.4233,332.708,-0.599475
13.425,332.725,-0.597805
13.4267,332.742,-0.596306
13.4283,332.759,-0.594057
13.43,332.776,-0.591057
13.4317,332.792,-0.590645
13.4333,332.809,-0.589797
13.435,332.826,-0.590072
13.4367,332.843,-0.589599
13.4383,332.86,-0.589067
13.44,332.877,-0.589165
13.4417,332.894,-0.58924
13.4433,332.911,-0.589662
13.445,332.927,-0.589764
13.4467,332.944,-0.589375
13.4483,332.961,-0.588907
13.45,332.978,-0.588218
13.4517,332.995,-0.58674
13.4533,333.012,-0.585617
13.455,333.029,-0.583606
13.4567,333.046,-0.581847
13.4583,333.062,-0.580081
13.46,333.079,-0.578606
13.4617,333.096,-0.57737
13.4633,333.113,-0.575524
13.465,333.13,-0.573491
13.4667,333.146,-0.570771
13.4683,333.163,-0.567514
13.47,333.18,-0.565439
13.4717,333.197,-0.563421
13.4733,333.214,-0.561334
13.475,333.23,-0.559259
13.4767,333.247,-0.557765
13.4783,333.264,-0.556754
13.48,333.281,-0.55585
13.4817,333.298,-0.554731
13.4833,333.314,-0.554314
13.485,333.331,-0.553906
13.4867,333.348,-0.552998
13.4883,333.365,-0.551699
13.49,333.382,-0.550462
13.4917,333.398,-0.549417
13.4933,333.415,-0.548421
13.495,333.432,-0.547557
13.4967,333.449,-0.546663
13.4983,333.466,-0.545824
13.5,333.483,-0.544834
13.5017,333.499,-0.543862
13.5033,333.516,-0.543128
13.505,333.533,-0.541966
13.5067,333.549,-0.540436
13.5083,333.566,-0.538661
13.51,333.583,-0.537498
13.5117,333.599,-0.536318
13.5133,333.616,-0.535277
13.515,333.633,-0.534264
13.5167,333.65,-0.533546
13.5183,333.667,-0.532857
13.52,333.683,-0.532266
13.5217,333.7,-0.531487
13.5233,333.717,-0.530848
13.525,333.734,-0.530176
13.5267,333.75,-0.529501
13.5283,333.767,-0.529005
13.53,333.784,-0.528325
13.5317,333.8,-0.527345
13.5333,333.817,-0.526173
13.535,333.834,-0.525405
13.5367,333.851,-0.524637
13.5383,333.868,-0.52393
13.54,333.885,-0.523129
13.5417,333.901,-0.522435
13.5433,333.918,-0.521499
13.545,333.935,-0.520231
13.5467,333.952,-0.519114
13.5483,333.968,-0.517892
13.55,333.985,-0.516564
13.5517,334.002,-0.51541
13.5533,334.018,-0.514388
13.555,334.035,-0.513443
13.5567,334.051,-0.512659
13.5583,334.068,-0.512076
13.56,334.085,-0.511803
13.5617,334.102,-0.5117
13.5633,334.118,-0.511622
13.565,334.135,-0.51142
13.5667,334.152,-0.511174
13.5683,334.169,-0.510867
13.57,334.186,-0.51036
13.5717,334.202,-0.509527
13.5733,334.219,-0.508695
13.575,334.236,-0.507689
13.5767,334.252,-0.50662
13.5783,334.269,-0.505283
13.58,334.286,-0.504156
13.5817,334.302,-0.503242
13.5833,334.319,-0.502372
13.585,334.336,-0.501603
13.5867,334.353,-0.500863
13.5883,334.369,-0.500304
13.59,334.386,-0.500011
13.5917,334.402,-0.499768
13.5933,334.419,-0.499589
13.595,334.436,-0.499426
13.5967,334.453,-0.499241
13.5983,334.47,-0.49899
13.6,334.486,-0.498827
13.6017,334.503,-0.498621
13.6033,334.52,-0.498455
13.605,334.537,-0.4982
13.6067,334.553,-0.498012
13.6083,334.57,-0.497789
13.61,334.587,-0.497451
13.6117,334.604,-0.497039
13.6133,334.62,-0.496613
13.615,334.637,-0.496107
13.6167,334.653,-0.495658
13.6183,334.67,-0.495327
13.62,334.687,-0.495001
13.6217,334.703,-0.494498
13.6233,334.72,-0.49407
13.625,334.737,-0.493731
13.6267,334.754,-0.493387
13.6283,334.77,-0.493044
13.63,334.787,-0.49268
13.6317,334.803,-0.492253
13.6333,334.82,-0.49182
13.635,334.837,-0.491531
13.6367,334.853,-0.491221
13.6383,334.87,-0.490853
13.64,334.887,-0.49063
13.6417,334.903,-0.490427
13.6433,334.92,-0.490255
13.645,334.937,-0.490129
13.6467,334.954,-0.489986
13.6483,334.97,-0.489785
13.65,334.987,-0.489584
13.6517,335.003,-0.489418
13.6533,335.02,-0.489261
13.655,335.037,-0.489044
13.6567,335.054,-0.488811
13.6583,335.071,-0.488545
13.66,335.088,-0.488245
13.6617,335.104,-0.487908
13.6633,335.121,-0.487562
13.665,335.137,-0.487132
13.6667,335.154,-0.486611
13.6683,335.17,-0.486105
13.67,335.187,-0.485621
13.6717,335.204,-0.485336
13.6733,335.221,-0.485056
13.675,335.238,-0.48479
13.6767,335.254,-0.484689
13.6783,335.27,-0.484567
13.68,335.287,-0.48445
13.6817,335.304,-0.4842
13.6833,335.32,-0.484
13.685,335.337,-0.48379
13.6867,335.354,-0.483573
13.6883,335.37,-0.483265
13.69,335.386,-0.482961
13.6917,335.403,-0.482704
13.6933,335.42,-0.482461
13.695,335.437,-0.48235
13.6967,335.454,-0.482249
13.6983,335.47,-0.482177
13.7,335.487,-0.482114
13.7017,335.504,-0.482045
13.7033,335.52,-0.48196
13.705,335.537,-0.481854
13.7067,335.554,-0.48169
13.7083,335.57,-0.481543
13.71,335.587,-0.481378
13.7117,335.604,-0.481156
13.7133,335.62,-0.480797
13.715,335.637,-0.480394
13.7167,335.654,-0.479992
13.7183,335.67,-0.47952
13.72,335.687,-0.479204
13.7217,335.703,-0.478842
13.7233,335.72,-0.478554
13.725,335.736,-0.47814
13.7267,335.753,-0.477814
13.7283,335.77,-0.47749
13.73,335.786,-0.477176
13.7317,335.803,-0.477011
13.7333,335.82,-0.476895
13.735,335.837,-0.476776
13.7367,335.853,-0.476696
13.7383,335.87,-0.476328
13.74,335.887,-0.476256
13.7417,335.903,-0.476184
13.7433,335.92,-0.476112
13.745,335.937,-0.47604
13.7467,335.953,-0.475962
13.7483,335.97,-0.475794
13.75,335.987,-0.475571
13.7517,336.003,-0.475408
13.7533,336.02,-0.47525
13.755,336.037,-0.475102
13.7567,336.053,-0.474986
13.7583,336.069,-0.4749
13.76,336.086,-0.47482
13.7617,336.103,-0.474739
13.7633,336.119,-0.474653
13.765,336.136,-0.474567
13.7667,336.153,-0.474483
13.7683,336.17,-0.474396
13.77,336.186,-0.47431
13.7717,336.203,-0.474206
13.7733,336.22,-0.47412
13.775,336.236,-0.474035
13.7767,336.253,-0.473941
13.7783,336.269,-0.473846
13.78,336.286,-0.473741
13.7817,336.303,-0.473611
13.7833,336.32,-0.473405
13.785,336.336,-0.47316
13.7867,336.353,-0.472961
13.7883,336.37,-0.47283
13.79,336.386,-0.472725
13.7917,336.402,-0.472624
13.7933,336.419,-0.472527
13.795,336.436,-0.472434
13.7967,336.452,-0.472293
13.7983,336.469,-0.472177
13.8,336.486,-0.472054
13.8017,336.502,-0.471979
13.8033,336.519,-0.471865
13.805,336.536,-0.47177
13.8067,336.552,-0.471639
13.8083,336.569,-0.471478
13.81,336.586,-0.471294
13.8117,336.602,-0.471016
13.8133,336.619,-0.470803
13.815,336.635,-0.470594
13.8167,336.652,-0.470319
13.8183,336.669,-0.470118
13.82,336.686,-0.469952
13.8217,336.703,-0.469846
13.8233,336.719,-0.469654
13.825,336.736,-0.469555
13.8267,336.752,-0.469457
13.8283,336.769,-0.469297
13.83,336.785,-0.469201
13.8317,336.802,-0.469108
13.8333,336.819,-0.46901
13.835,336.835,-0.468917
13.8367,336.852,-0.46882
13.8383,336.869,-0.468724
13.84,336.885,-0.468638
13.8417,336.902,-0.468553
13.8433,336.919,-0.468468
13.845,336.935,-0.468389
13.8467,336.952,-0.468314
13.8483,336.969,-0.468241
13.85,336.985,-0.468162
13.8517,337.002,-0.468076
13.8533,337.018,-0.467987
13.855,337.035,-0.467906
13.8567,337.052,-0.467822
13.8583,337.068,-0.467744
13.86,337.085,-0.467665
13.8617,337.101,-0.46759
13.8633,337.118,-0.467521
13.865,337.135,-0.467456
13.8667,337.151,-0.46739
13.8683,337.168,-0.467328
13.87,337.185,-0.467257
13.8717,337.201,-0.46718
13.8733,337.218,-0.467101
13.875,337.234,-0.467021
13.8767,337.251,-0.466936
13.8783,337.268,-0.466858
13.88,337.284,-0.466777
13.8817,337.301,-0.4667
13.8833,337.318,-0.466627
13.885,337.334,-0.466557
13.8867,337.351,-0.46649
13.8883,337.368,-0.466426
13.89,337.384,-0.466365
13.8917,337.401,-0.466302
13.8933,337.418,-0.466234
13.895,337.434,-0.466157
13.8967,337.451,-0.466076
13.8983,337.468,-0.465991
13.9,337.484,-0.465902
13.9017,337.501,-0.465813
13.9033,337.517,-0.465722
13.905,337.534,-0.465641
13.9067,337.551,-0.465557
13.9083,337.567,-0.465475
13.91,337.584,-0.465389
13.9117,337.601,-0.465297
13.9133,337.617,-0.465212
13.915,337.634,-0.465133
13.9167,337.65,-0.465053
13.9183,337.667,-0.464969
13.92,337.684,-0.464883
13.9217,337.701,-0.464801
13.9233,337.717,-0.464724
13.925,337.734,-0.464651
13.9267,337.75,-0.464577
13.9283,337.767,-0.464506
13.93,337.784,-0.46443
13.9317,337.801,-0.464358
13.9333,337.817,-0.464283
13.935,337.834,-0.464209
13.9367,337.85,-0.464133
13.9383,337.867,-0.464066
13.94,337.883,-0.463994
13.9417,337.901,-0.463909
13.9433,337.917,-0.463826
13.945,337.934,-0.463746
13.9467,337.95,-0.463662
13.9483,337.967,-0.46358
13.95,337.984,-0.463492
13.9517,338,-0.4634
13.9533,338.017,-0.463307
13.955,338.033,-0.463208
13.9567,338.05,-0.46311
13.9583,338.066,-0.46302
13.96,338.083,-0.462922
13.9617,338.099,-0.462821
13.9633,338.116,-0.462723
13.965,338.133,-0.462628
13.9667,338.15,-0.462538
13.9683,338.166,-0.462455
13.97,338.183,-0.46237
13.9717,338.199,-0.462282
13.9733,338.216,-0.462201
13.975,338.233,-0.462125
13.9767,338.25,-0.462051
13.9783,338.266,-0.461976
13.98,338.282,-0.461908
13.9817,338.299,-0.461841
13.9833,338.316,-0.461772
13.985,338.333,-0.4617
13.9867,338.349,-0.461629
13.9883,338.366,-0.461557
13.99,338.383,-0.461477
13.9917,338.399,-0.461398
13.9933,338.416,-0.46132
13.995,338.432,-0.461241
13.9967,338.448,-0.461157
13.9983,338.465,-0.461071
14,338.482,-0.460985
14.0017,338.499,-0.460906
14.0033,338.516,-0.460826
14.005,338.532,-0.460755
14.0067,338.549,-0.460685
14.0083,338.566,-0.460607
14.01,338.582,-0.460528
14.0117,338.599,-0.460443
14.0133,338.616,-0.460357
14.015,338.633,-0.460271
14.0167,338.649,-0.460173
14.0183,338.665,-0.460077
14.02,338.682,-0.45998
14.0217,338.699,-0.459887
14.0233,338.715,-0.459806
14.025,338.732,-0.45973
14.0267,338.749,-0.459668
14.0283,338.765,-0.459613
14.03,338.782,-0.459549
14.0317,338.799,-0.459496
14.0333,338.815,-0.459449
14.035,338.832,-0.459397
14.0367,338.849,-0.459348
14.0383,338.866,-0.459289
14.04,338.882,-0.459234
14.0417,338.899,-0.459189
14.0433,338.915,-0.459143
14.045,338.932,-0.459102
14.0467,338.949,-0.459065
14.0483,338.965,-0.459024
14.05,338.982,-0.458978
14.0517,338.999,-0.458933
14.0533,339.015,-0.458891
14.055,339.032,-0.458833
14.0567,339.049,-0.458769
14.0583,339.065,-0.458696
14.06,339.082,-0.458614
14.0617,339.098,-0.458532
14.0633,339.115,-0.458457
14.065,339.132,-0.458386
14.0667,339.148,-0.458314
14.0683,339.165,-0.45824
14.07,339.182,-0.458181
14.0717,339.199,-0.458141
14.0733,339.215,-0.458106
14.075,339.231,-0.45807
14.0767,339.248,-0.458039
14.0783,339.265,-0.458011
14.08,339.281,-0.457976
14.0817,339.298,-0.457938
14.0833,339.315,-0.457891
14.085,339.331,-0.457841
14.0867,339.348,-0.457785
14.0883,339.365,-0.457731
14.09,339.381,-0.457677
14.0917,339.398,-0.457622
14.0933,339.414,-0.457574
14.095,339.431,-0.457523
14.0967,339.448,-0.457478
14.0983,339.464,-0.45743
14.1,339.481,-0.457382
14.1017,339.497,-0.457327
14.1033,339.514,-0.457266
14.105,339.531,-0.4572
14.1067,339.547,-0.457127
14.1083,339.564,-0.45705
14.11,339.58,-0.456946
14.1117,339.597,-0.456819
14.1133,339.614,-0.456721
14.115,339.63,-0.456641
14.1167,339.647,-0.45656
14.1183,339.664,-0.456482
14.12,339.681,-0.456404
14.1217,339.697,-0.456336
14.1233,339.714,-0.456276
14.125,339.73,-0.456209
14.1267,339.747,-0.456146
14.1283,339.764,-0.456089
14.13,339.78,-0.456036
14.1317,339.797,-0.455986
14.1333,339.813,-0.455935
14.135,339.83,-0.455877
14.1367,339.847,-0.455822
14.1383,339.864,-0.45576
14.14,339.88,-0.455688
14.1417,339.897,-0.455613
14.1433,339.913,-0.455534
14.145,339.929,-0.455442
14.1467,339.946,-0.455354
14.1483,339.963,-0.455277
14.15,339.98,-0.45521
14.1517,339.996,-0.455153
14.1533,340.013,-0.455105
14.155,340.03,-0.45506
14.1567,340.046,-0.455016
14.1583,340.063,-0.454978
14.16,340.08,-0.454949
14.1617,340.096,-0.454923
14.1633,340.113,-0.454891
14.165,340.13,-0.454859
14.1667,340.146,-0.454823
14.1683,340.162,-0.45478
14.17,340.179,-0.454736
14.1717,340.196,-0.45469
14.1733,340.213,-0.454648
14.175,340.229,-0.454601
14.1767,340.245,-0.454544
14.1783,340.263,-0.454489
14.18,340.279,-0.454438
14.1817,340.296,-0.454382
14.1833,340.312,-0.45433
14.185,340.329,-0.454275
14.1867,340.346,-0.454219
14.1883,340.362,-0.454163
14.19,340.379,-0.454107
14.1917,340.396,-0.454046
14.1933,340.412,-0.453972
14.195,340.429,-0.453895
14.1967,340.445,-0.453809
14.1983,340.462,-0.45373
14.2,340.479,-0.453653
14.2017,340.495,-0.45358
14.2033,340.512,-0.453521
14.205,340.529,-0.453472
14.2067,340.545,-0.453435
14.2083,340.561,-0.453405
14.21,340.578,-0.45337
14.2117,340.595,-0.453334
14.2133,340.612,-0.453304
14.215,340.629,-0.453267
14.2167,340.645,-0.453228
14.2183,340.662,-0.453192
14.22,340.678,-0.453155
14.2217,340.695,-0.453124
14.2233,340.712,-0.453093
14.225,340.728,-0.45307
14.2267,340.745,-0.453052
14.2283,340.761,-0.453023
14.23,340.778,-0.452988
14.2317,340.794,-0.452945
14.2333,340.811,-0.452898
14.235,340.828,-0.452854
14.2367,340.844,-0.452815
14.2383,340.861,-0.452772
14.24,340.878,-0.45273
14.2417,340.895,-0.452693
14.2433,340.911,-0.452667
14.245,340.928,-0.452646
14.2467,340.945,-0.452629
14.2483,340.961,-0.452602
14.25,340.979,-0.452573
14.2517,340.995,-0.45254
14.2533,341.012,-0.452507
14.255,341.029,-0.452474
14.2567,341.045,-0.452429
14.2583,341.061,-0.452377
14.26,341.078,-0.452326
14.2617,341.095,-0.452275
14.2633,341.111,-0.452224
14.265,341.128,-0.452183
14.2667,341.144,-0.452137
14.2683,341.161,-0.4521
14.27,341.178,-0.452061
14.2717,341.195,-0.452015
14.2733,341.211,-0.451963
14.275,341.227,-0.451911
14.2767,341.244,-0.45187
14.2783,341.26,-0.451829
14.28,341.277,-0.451787
14.2817,341.294,-0.451749
14.2833,341.311,-0.451716
14.285,341.327,-0.451682
14.2867,341.344,-0.451652
14.2883,341.361,-0.451627
14.29,341.377,-0.451593
14.2917,341.394,-0.451556
14.2933,341.411,-0.451532
14.295,341.427,-0.451502
14.2967,341.444,-0.451462
14.2983,341.46,-0.451417
14.3,341.477,-0.451369
14.3017,341.494,-0.451331
14.3033,341.51,-0.451281
14.305,341.527,-0.451231
14.3067,341.543,-0.45119
14.3083,341.56,-0.451147
14.31,341.576,-0.451107
14.3117,341.593,-0.451071
14.3133,341.61,-0.451046
14.315,341.626,-0.451015
14.3167,341.643,-0.450986
14.3183,341.66,-0.450963
14.32,341.676,-0.450946
14.3217,341.693,-0.45093
14.3233,341.709,-0.450914
14.325,341.726,-0.450894
14.3267,341.743,-0.450877
14.3283,341.76,-0.450864
14.33,341.776,-0.450847
14.3317,341.792,-0.450824
14.3333,341.809,-0.450795
14.335,341.826,-0.450767
14.3367,341.842,-0.450738
14.3383,341.859,-0.450712
14.34,341.876,-0.45069
14.3417,341.892,-0.450672
14.3433,341.909,-0.450662
14.345,341.925,-0.450657
14.3467,341.942,-0.450656
14.3483,341.959,-0.450653
14.35,341.975,-0.450658
14.3517,341.992,-0.450664
14.3533,342.009,-0.450664
14.355,342.025,-0.450654
14.3567,342.042,-0.450647
14.3583,342.059,-0.450633
14.36,342.075,-0.450623
14.3617,342.092,-0.450615
14.3633,342.108,-0.450605
14.365,342.125,-0.450593
14.3667,342.142,-0.450583
14.3683,342.158,-0.450586
14.37,342.175,-0.45059
14.3717,342.191,-0.450585
14.3733,342.208,-0.450572
14.375,342.224,-0.450559
14.3767,342.241,-0.45054
14.3783,342.258,-0.45052
14.38,342.274,-0.450495
14.3817,342.291,-0.450479
14.3833,342.308,-0.450469
14.385,342.324,-0.450464
14.3867,342.341,-0.450463
14.3883,342.358,-0.450468
14.39,342.375,-0.450474
14.3917,342.391,-0.450479
14.3933,342.408,-0.450487
14.395,342.424,-0.450488
14.3967,342.441,-0.450483
14.3983,342.458,-0.45047
14.4,342.475,-0.450453
14.4017,342.491,-0.450443
14.4033,342.508,-0.450423
14.405,342.525,-0.450403
14.4067,342.541,-0.450387
14.4083,342.558,-0.450381
14.41,342.574,-0.450378
14.4117,342.591,-0.450371
14.4133,342.607,-0.450351
14.415,342.624,-0.45033
14.4167,342.641,-0.450301
14.4183,342.657,-0.450265
14.42,342.674,-0.450225
14.4217,342.69,-0.450189
14.4233,342.707,-0.450163
14.425,342.724,-0.450148
14.4267,342.741,-0.450142
14.4283,342.758,-0.450136
14.43,342.774,-0.450137
14.4317,342.791,-0.45014
14.4333,342.807,-0.450137
14.435,342.824,-0.450132
14.4367,342.841,-0.450118
14.4383,342.857,-0.450101
14.44,342.874,-0.450089
14.4417,342.89,-0.45007
14.4433,342.907,-0.450045
14.445,342.924,-0.450024
14.4467,342.94,-0.450011
14.4483,342.957,-0.450004
14.45,342.973,-0.450002
14.4517,342.99,-0.45
14.4533,343.007,-0.449998
14.455,343.024,-0.449985
14.4567,343.04,-0.449967
14.4583,343.057,-0.449942
14.46,343.073,-0.44991
14.4617,343.09,-0.449878
14.4633,343.107,-0.449843
14.465,343.123,-0.449804
14.4667,343.14,-0.449771
14.4683,343.157,-0.449737
14.47,343.173,-0.449694
14.4717,343.19,-0.449644
14.4733,343.207,-0.449595
14.475,343.223,-0.449546
14.4767,343.24,-0.449512
14.4783,343.256,-0.449481
14.48,343.273,-0.449461
14.4817,343.29,-0.449451
14.4833,343.307,-0.449453
14.485,343.324,-0.449468
14.4867,343.34,-0.449481
14.4883,343.356,-0.449485
14.49,343.373,-0.449481
14.4917,343.39,-0.449464
14.4933,343.407,-0.449436
14.495,343.423,-0.449399
14.4967,343.44,-0.449361
14.4983,343.457,-0.449325
14.5,343.473,-0.44929
14.5017,343.49,-0.449257
14.5033,343.506,-0.449232
14.505,343.523,-0.449219
14.5067,343.54,-0.449207
14.5083,343.556,-0.4492
14.51,343.573,-0.449202
14.5117,343.589,-0.449211
14.5133,343.606,-0.449216
14.515,343.623,-0.449222
14.5167,343.64,-0.449229
14.5183,343.656,-0.449233
14.52,343.673,-0.449246
14.5217,343.689,-0.449256
14.5233,343.706,-0.449265
14.525,343.723,-0.449272
14.5267,343.74,-0.449279
14.5283,343.756,-0.449292
14.53,343.773,-0.449299
14.5317,343.789,-0.449304
14.5333,343.806,-0.449317
14.535,343.823,-0.449331
14.5367,343.839,-0.449334
14.5383,343.856,-0.449327
14.54,343.872,-0.449309
14.5417,343.889,-0.44929
14.5433,343.906,-0.449269
14.545,343.922,-0.449249
14.5467,343.939,-0.449229
14.5483,343.956,-0.449207
14.55,343.972,-0.449189
14.5517,343.989,-0.449171
14.5533,344.006,-0.44916
14.555,344.023,-0.449153
14.5567,344.04,-0.449138
14.5583,344.056,-0.449126
14.56,344.072,-0.449115
14.5617,344.089,-0.449105
14.5633,344.106,-0.449095
14.565,344.122,-0.449086
14.5667,344.139,-0.449086
14.5683,344.156,-0.449082
14.57,344.173,-0.449083
14.5717,344.19,-0.44908
14.5733,344.206,-0.449076
14.575,344.223,-0.449072
14.5767,344.239,-0.449069
14.5783,344.256,-0.449063
14.58,344.273,-0.449055
14.5817,344.289,-0.449039
14.5833,344.306,-0.449012
14.585,344.322,-0.448982
14.5867,344.339,-0.448944
14.5883,344.356,-0.448906
14.59,344.372,-0.448867
14.5917,344.389,-0.448825
14.5933,344.406,-0.448788
14.595,344.422,-0.44876
14.5967,344.439,-0.448733
14.5983,344.456,-0.448711
14.6,344.472,-0.448687
14.6017,344.489,-0.448668
14.6033,344.505,-0.448657
14.605,344.522,-0.448644
14.6067,344.539,-0.448639
14.6083,344.555,-0.448629
14.61,344.572,-0.448612
14.6117,344.589,-0.448585
14.6133,344.606,-0.448548
14.615,344.622,-0.4485
14.6167,344.639,-0.448436
14.6183,344.656,-0.44828
14.62,344.672,-0.448189
14.6217,344.689,-0.448143
14.6233,344.705,-0.4481
14.625,344.722,-0.448068
14.6267,344.739,-0.448043
14.6283,344.756,-0.44802
14.63,344.772,-0.448005
14.6317,344.789,-0.447991
14.6333,344.806,-0.447975
14.635,344.822,-0.447961
14.6367,344.839,-0.447935
14.6383,344.856,-0.447908
14.64,344.873,-0.447879
14.6417,344.889,-0.447851
14.6433,344.906,-0.447827
14.645,344.922,-0.447801
14.6467,344.939,-0.447778
14.6483,344.955,-0.447752
14.65,344.972,-0.447724
14.6517,344.989,-0.447686
14.6533,345.005,-0.447638
14.655,345.022,-0.447587
14.6567,345.038,-0.4475
14.6583,345.056,-0.447338
14.66,345.072,-0.447206
14.6617,345.089,-0.447086
14.6633,345.105,-0.446969
14.665,345.122,-0.446905
14.6667,345.139,-0.446839
14.6683,345.156,-0.446778
14.67,345.172,-0.446725
14.6717,345.189,-0.446674
14.6733,345.205,-0.446625
14.675,345.222,-0.446577
14.6767,345.239,-0.446529
14.6783,345.255,-0.446489
14.68,345.272,-0.446444
14.6817,345.289,-0.446395
14.6833,345.306,-0.446346
14.685,345.322,-0.446289
14.6867,345.339,-0.446223
14.6883,345.356,-0.446156
14.69,345.372,-0.4461
14.6917,345.389,-0.446047
14.6933,345.405,-0.446
14.695,345.422,-0.44596
14.6967,345.439,-0.445929
14.6983,345.455,-0.4459
14.7,345.472,-0.445867
14.7017,345.488,-0.445827
14.7033,345.505,-0.445787
14.705,345.522,-0.44574
14.7067,345.539,-0.445695
14.7083,345.555,-0.445649
14.71,345.572,-0.445609
14.7117,345.588,-0.445575
14.7133,345.605,-0.445544
14.715,345.622,-0.445509
14.7167,345.639,-0.445476
14.7183,345.656,-0.445442
14.72,345.672,-0.44541
14.7217,345.689,-0.445367
14.7233,345.706,-0.445319
14.725,345.722,-0.445262
14.7267,345.739,-0.445198
14.7283,345.755,-0.445135
14.73,345.772,-0.445074
14.7317,345.789,-0.445017
14.7333,345.806,-0.444968
14.735,345.822,-0.444914
14.7367,345.839,-0.444866
14.7383,345.855,-0.444826
14.74,345.872,-0.44479
14.7417,345.889,-0.444753
14.7433,345.905,-0.444723
14.745,345.922,-0.444693
14.7467,345.938,-0.444668
14.7483,345.955,-0.444639
14.75,345.972,-0.444615
14.7517,345.989,-0.444583
14.7533,346.005,-0.444547
14.755,346.022,-0.44451
14.7567,346.038,-0.444464
14.7583,346.055,-0.444414
14.76,346.072,-0.444368
14.7617,346.088,-0.444328
14.7633,346.105,-0.444298
14.765,346.122,-0.444271
14.7667,346.139,-0.444248
14.7683,346.155,-0.44423
14.77,346.172,-0.444216
14.7717,346.188,-0.444202
14.7733,346.205,-0.444186
14.775,346.222,-0.444164
14.7767,346.238,-0.444138
14.7783,346.255,-0.444099
14.78,346.271,-0.444061
14.7817,346.288,-0.444029
14.7833,346.305,-0.443999
14.785,346.322,-0.443968
14.7867,346.338,-0.443941
14.7883,346.355,-0.443912
14.79,346.371,-0.443888
14.7917,346.388,-0.443864
14.7933,346.405,-0.443844
14.795,346.422,-0.443829
14.7967,346.439,-0.443807
14.7983,346.455,-0.44379
14.8,346.472,-0.443768
14.8017,346.489,-0.443741
14.8033,346.505,-0.443712
14.805,346.521,-0.44368
14.8067,346.538,-0.443645
14.8083,346.554,-0.4436
14.81,346.571,-0.44356
14.8117,346.588,-0.443527
14.8133,346.605,-0.443498
14.815,346.622,-0.443477
14.8167,346.638,-0.443464
14.8183,346.655,-0.443458
14.82,346.672,-0.443461
14.8217,346.688,-0.443467
14.8233,346.705,-0.443476
14.825,346.722,-0.443486
14.8267,346.738,-0.443491
14.8283,346.755,-0.443494
14.83,346.772,-0.443492
14.8317,346.788,-0.44348
14.8333,346.805,-0.443464
14.835,346.821,-0.443448
14.8367,346.838,-0.443433
14.8383,346.855,-0.443414
14.84,346.871,-0.44339
14.8417,346.888,-0.443374
14.8433,346.905,-0.443369
14.845,346.922,-0.443363
14.8467,346.938,-0.443367
14.8483,346.955,-0.443381
14.85,346.971,-0.443396
14.8517,346.988,-0.443417
14.8533,347.004,-0.443445
14.855,347.021,-0.443469
14.8567,347.038,-0.443492
14.8583,347.054,-0.443504
14.86,347.071,-0.443506
14.8617,347.087,-0.443502
14.8633,347.104,-0.443499
14.865,347.121,-0.443488
14.8667,347.138,-0.443479
14.8683,347.155,-0.443477
14.87,347.172,-0.443471
14.8717,347.188,-0.443466
14.8733,347.205,-0.443454
14.875,347.221,-0.443446
14.8767,347.238,-0.443432
14.8783,347.255,-0.44342
14.88,347.271,-0.443404
14.8817,347.288,-0.443387
14.8833,347.305,-0.44337
14.885,347.321,-0.443354
14.8867,347.338,-0.443338
14.8883,347.354,-0.443334
14.89,347.371,-0.443335
14.8917,347.387,-0.443345
14.8933,347.404,-0.443355
14.895,347.421,-0.443352
14.8967,347.438,-0.44335
14.8983,347.454,-0.443347
14.9,347.471,-0.443335
14.9017,347.487,-0.443327
14.9033,347.504,-0.44332
14.905,347.52,-0.443311
14.9067,347.537,-0.443306
14.9083,347.554,-0.443304
14.91,347.571,-0.443303
14.9117,347.587,-0.443305
14.9133,347.603,-0.443311
14.915,347.62,-0.443314
14.9167,347.637,-0.443308
14.9183,347.654,-0.443304
14.92,347.67,-0.443293
14.9217,347.686,-0.443281
14.9233,347.703,-0.443273
14.925,347.72,-0.443269
14.9267,347.737,-0.443266
14.9283,347.754,-0.443261
14.93,347.77,-0.443266
14.9317,347.787,-0.443282
14.9333,347.804,-0.4433
14.935,347.82,-0.443312
14.9367,347.837,-0.443322
14.9383,347.854,-0.443318
14.94,347.87,-0.443303
14.9417,347.887,-0.443291
14.9433,347.903,-0.443281
14.945,347.92,-0.443268
14.9467,347.937,-0.443254
14.9483,347.953,-0.443251
14.95,347.97,-0.443255
14.9517,347.986,-0.443263
14.9533,348.003,-0.44327
14.955,348.019,-0.443277
14.9567,348.036,-0.443289
14.9583,348.052,-0.443296
14.96,348.069,-0.443299
14.9617,348.086,-0.443294
14.9633,348.103,-0.443282
14.965,348.119,-0.443271
14.9667,348.136,-0.443259
14.9683,348.153,-0.44325
14.97,348.169,-0.443238
14.9717,348.186,-0.443221
14.9733,348.203,-0.443211
14.975,348.22,-0.44321
14.9767,348.236,-0.44321
14.9783,348.253,-0.44321
14.98,348.27,-0.443208
14.9817,348.286,-0.443203
14.9833,348.303,-0.443199
14.985,348.32,-0.443197
14.9867,348.336,-0.443192
14.9883,348.353,-0.443183
14.99,348.369,-0.443168
14.9917,348.386,-0.443162
14.9933,348.402,-0.443154
14.995,348.419,-0.443141
14.9967,348.436,-0.443135
14.9983,348.452,-0.44313
15,348.469,-0.443121
15.0017,348.486,-0.443112
15.0033,348.502,-0.4431
15.005,348.519,-0.443097
15.0067,348.535,-0.443092
15.0083,348.552,-0.443091
15.01,348.568,-0.443085
15.0117,348.585,-0.443086
15.0133,348.602,-0.443086
15.015,348.619,-0.443092
15.0167,348.635,-0.443104
15.0183,348.652,-0.44311
15.02,348.669,-0.443111
15.0217,348.685,-0.443101
15.0233,348.702,-0.443092
15.025,348.718,-0.44308
15.0267,348.735,-0.44307
15.0283,348.751,-0.443055
15.03,348.768,-0.443039
15.0317,348.785,-0.443031
15.0333,348.801,-0.443031
15.035,348.818,-0.443029
15.0367,348.834,-0.443023
15.0383,348.851,-0.443012
15.04,348.868,-0.442991
15.0417,348.885,-0.442971
15.0433,348.901,-0.442943
15.045,348.918,-0.442911
15.0467,348.934,-0.442878
15.0483,348.951,-0.442847
15.05,348.968,-0.442821
15.0517,348.984,-0.442789
15.0533,349.001,-0.442766
15.055,349.018,-0.442744
15.0567,349.034,-0.442731
15.0583,349.051,-0.442717
15.06,349.068,-0.4427
15.0617,349.084,-0.442684
15.0633,349.101,-0.442664
15.065,349.118,-0.442639
15.0667,349.134,-0.442613
15.0683,349.151,-0.442589
15.07,349.167,-0.442559
15.0717,349.184,-0.442526
15.0733,349.201,-0.442496
15.075,349.217,-0.442474
15.0767,349.234,-0.442463
15.0783,349.251,-0.442448
15.08,349.267,-0.442436
15.0817,349.284,-0.442427
15.0833,349.301,-0.442422
15.085,349.317,-0.442423
15.0867,349.334,-0.442413
15.0883,349.35,-0.442397
15.09,349.367,-0.442374
15.0917,349.383,-0.442344
15.0933,349.4,-0.442309
15.095,349.417,-0.442276
15.0967,349.433,-0.442241
15.0983,349.45,-0.442211
15.1,349.467,-0.442184
15.1017,349.483,-0.442157
15.1033,349.5,-0.442124
15.105,349.517,-0.442092
15.1067,349.533,-0.442063
15.1083,349.55,-0.442036
15.11,349.567,-0.442009
15.1117,349.583,-0.441993
15.1133,349.6,-0.441983
15.115,349.616,-0.441983
15.1167,349.633,-0.441989
15.1183,349.65,-0.441999
15.12,349.666,-0.442007
15.1217,349.683,-0.442013
15.1233,349.699,-0.442018
15.125,349.716,-0.442026
15.1267,349.733,-0.442029
15.1283,349.749,-0.442035
15.13,349.766,-0.442041
15.1317,349.782,-0.442046
15.1333,349.799,-0.442043
15.135,349.816,-0.442029
15.1367,349.833,-0.442012
15.1383,349.849,-0.44199
15.14,349.866,-0.441965
15.1417,349.883,-0.441935
15.1433,349.899,-0.441907
15.145,349.916,-0.441894
15.1467,349.932,-0.441879
15.1483,349.949,-0.441867
15.15,349.966,-0.441852
15.1517,349.982,-0.441828
15.1533,349.999,-0.441803
15.155,350.015,-0.441775
15.1567,350.032,-0.441748
15.1583,350.048,-0.441718
15.16,350.065,-0.441676
15.1617,350.082,-0.441634
15.1633,350.098,-0.441585
15.165,350.115,-0.441535
15.1667,350.131,-0.441494
15.1683,350.148,-0.441467
15.17,350.165,-0.441446
15.1717,350.182,-0.441442
15.1733,350.198,-0.441437
15.175,350.215,-0.44144
15.1767,350.231,-0.441444
15.1783,350.248,-0.441447
15.18,350.265,-0.441441
15.1817,350.281,-0.441427
15.1833,350.298,-0.441408
15.185,350.315,-0.441385
15.1867,350.331,-0.44136
15.1883,350.348,-0.441331
15.19,350.364,-0.441308
15.1917,350.381,-0.441289
15.1933,350.398,-0.441277
15.195,350.415,-0.441267
15.1967,350.431,-0.441262
15.1983,350.448,-0.441256
15.2,350.464,-0.441249
15.2017,350.481,-0.44125
15.2033,350.498,-0.441249
15.205,350.514,-0.44125
15.2067,350.531,-0.441245
15.2083,350.548,-0.441236
15.21,350.564,-0.441229
15.2117,350.581,-0.441232
15.2133,350.598,-0.441236
15.215,350.614,-0.441244
15.2167,350.63,-0.441251
15.2183,350.647,-0.441253
15.22,350.664,-0.44126
15.2217,350.68,-0.441272
15.2233,350.697,-0.441294
15.225,350.714,-0.441304
15.2267,350.73,-0.441306
15.2283,350.747,-0.441301
15.23,350.764,-0.441297
15.2317,350.78,-0.44129
15.2333,350.797,-0.441293
15.235,350.813,-0.441295
15.2367,350.83,-0.441302
15.2383,350.847,-0.441309
15.24,350.863,-0.441316
15.2417,350.88,-0.441332
15.2433,350.897,-0.441354
15.245,350.913,-0.441372
15.2467,350.93,-0.441388
15.2483,350.947,-0.441402
15.25,350.963,-0.441411
15.2517,350.98,-0.441416
15.2533,350.996,-0.44142
15.255,351.013,-0.441419
15.2567,351.03,-0.441415
15.2583,351.047,-0.44141
15.26,351.063,-0.441398
15.2617,351.079,-0.441384
15.2633,351.096,-0.441387
15.265,351.113,-0.441389
15.2667,351.129,-0.441402
15.2683,351.146,-0.441421
15.27,351.163,-0.441443
15.2717,351.179,-0.441474
15.2733,351.196,-0.441533
15.275,351.213,-0.441613
15.2767,351.23,-0.441671
15.2783,351.246,-0.441705
15.28,351.263,-0.441728
15.2817,351.279,-0.441744
15.2833,351.296,-0.441738
15.285,351.313,-0.441727
15.2867,351.329,-0.441712
15.2883,351.346,-0.441696
15.29,351.362,-0.441677
15.2917,351.379,-0.441652
15.2933,351.396,-0.441633
15.295,351.412,-0.441612
15.2967,351.429,-0.44159
15.2983,351.446,-0.441577
15.3,351.462,-0.441566
15.3017,351.479,-0.441564
15.3033,351.495,-0.441563
15.305,351.512,-0.44157
15.3067,351.529,-0.44159
15.3083,351.545,-0.441616
15.31,351.562,-0.441636
15.3117,351.579,-0.441653
15.3133,351.595,-0.441671
15.315,351.612,-0.441671
15.3167,351.629,-0.441663
15.3183,351.645,-0.441658
15.32,351.662,-0.441653
15.3217,351.679,-0.441645
15.3233,351.695,-0.441636
15.325,351.712,-0.441633
15.3267,351.729,-0.441627
15.3283,351.746,-0.441621
15.33,351.762,-0.44163
15.3317,351.778,-0.441649
15.3333,351.795,-0.441664
15.335,351.812,-0.441678
15.3367,351.829,-0.441706
15.3383,351.846,-0.441739
15.34,351.862,-0.441772
15.3417,351.879,-0.441799
15.3433,351.895,-0.441826
15.345,351.912,-0.441847
15.3467,351.929,-0.441855
15.3483,351.945,-0.441875
15.35,351.962,-0.441895
15.3517,351.979,-0.441916
15.3533,351.995,-0.441933
15.355,352.012,-0.441951
15.3567,352.029,-0.44197
15.3583,352.045,-0.441984
15.36,352.061,-0.441984
15.3617,352.078,-0.44198
15.3633,352.095,-0.441978
15.365,352.111,-0.441981
15.3667,352.128,-0.441983
15.3683,352.145,-0.441987
15.37,352.161,-0.441999
15.3717,352.178,-0.442017
15.3733,352.195,-0.442039
15.375,352.211,-0.442059
15.3767,352.228,-0.442082
15.3783,352.244,-0.442098
15.38,352.261,-0.442105
15.3817,352.278,-0.442112
15.3833,352.295,-0.442122
15.385,352.311,-0.442134
15.3867,352.328,-0.442147
15.3883,352.344,-0.442165
15.39,352.361,-0.44219
15.3917,352.378,-0.44222
15.3933,352.394,-0.442253
15.395,352.411,-0.442289
15.3967,352.428,-0.442323
15.3983,352.444,-0.442348
15.4,352.461,-0.442364
15.4017,352.478,-0.442373
15.4033,352.494,-0.442379
15.405,352.511,-0.442382
15.4067,352.527,-0.442381
15.4083,352.544,-0.442379
15.41,352.561,-0.442387
15.4117,352.577,-0.442399
15.4133,352.594,-0.442406
15.415,352.61,-0.442414
15.4167,352.627,-0.442414
15.4183,352.644,-0.442406
15.42,352.66,-0.442386
15.4217,352.677,-0.442357
15.4233,352.694,-0.442327
15.425,352.711,-0.442302
15.4267,352.727,-0.442278
15.4283,352.743,-0.442254
15.43,352.76,-0.442243
15.4317,352.777,-0.442239
15.4333,352.794,-0.442243
15.435,352.81,-0.442246
15.4367,352.827,-0.442253
15.4383,352.844,-0.442261
15.44,352.86,-0.442252
15.4417,352.877,-0.442225
15.4433,352.894,-0.442176
15.445,352.91,-0.442096
15.4467,352.927,-0.442004
15.4483,352.944,-0.441897
15.45,352.961,-0.441786
15.4517,352.977,-0.441696
15.4533,352.994,-0.44164
15.455,353.01,-0.441605
15.4567,353.027,-0.441573
15.4583,353.043,-0.441533
15.46,353.06,-0.441469
15.4617,353.077,-0.441393
15.4633,353.093,-0.441336
15.465,353.11,-0.441283
15.4667,353.127,-0.441233
15.4683,353.143,-0.441179
15.47,353.16,-0.441131
15.4717,353.177,-0.441087
15.4733,353.193,-0.441051
15.475,353.21,-0.441026
15.4767,353.227,-0.44101
15.4783,353.243,-0.440993
15.48,353.26,-0.44098
15.4817,353.276,-0.440973
15.4833,353.293,-0.440965
15.485,353.31,-0.440961
15.4867,353.326,-0.440947
15.4883,353.343,-0.440923
15.49,353.359,-0.440887
15.4917,353.376,-0.440845
15.4933,353.393,-0.440803
15.495,353.409,-0.440766
15.4967,353.426,-0.440728
15.4983,353.443,-0.440691
15.5,353.459,-0.44066
15.5017,353.476,-0.440625
15.5033,353.493,-0.440587
15.505,353.51,-0.44056
15.5067,353.526,-0.440532
15.5083,353.543,-0.440496
15.51,353.56,-0.440464
15.5117,353.577,-0.44043
15.5133,353.593,-0.440394
15.515,353.61,-0.440359
15.5167,353.627,-0.440325
15.5183,353.643,-0.440294
15.52,353.66,-0.440262
15.5217,353.676,-0.440236
15.5233,353.693,-0.440209
15.525,353.709,-0.440183
15.5267,353.726,-0.440164
15.5283,353.743,-0.440136
15.53,353.76,-0.440111
15.5317,353.776,-0.440084
15.5333,353.793,-0.440049
15.535,353.81,-0.440014
15.5367,353.826,-0.439976
15.5383,353.843,-0.43994
15.54,353.859,-0.439899
15.5417,353.876,-0.439856
15.5433,353.893,-0.439813
15.545,353.909,-0.439779
15.5467,353.926,-0.439753
15.5483,353.943,-0.439742
15.55,353.959,-0.439748
15.5517,353.976,-0.439755
15.5533,353.993,-0.439761
15.555,354.009,-0.439788
15.5567,354.026,-0.439806
15.5583,354.043,-0.439811
15.56,354.059,-0.439805
15.5617,354.076,-0.439799
15.5633,354.092,-0.439779
15.565,354.109,-0.439758
15.5667,354.126,-0.439737
15.5683,354.143,-0.439721
15.57,354.159,-0.439702
15.5717,354.176,-0.439681
15.5733,354.192,-0.439653
15.575,354.209,-0.439627
15.5767,354.226,-0.439603
15.5783,354.243,-0.439576
15.58,354.259,-0.439547
15.5817,354.276,-0.439516
15.5833,354.293,-0.439477
15.585,354.309,-0.439442
15.5867,354.326,-0.439398
15.5883,354.342,-0.439354
15.59,354.359,-0.439308
15.5917,354.376,-0.439271
15.5933,354.393,-0.439233
15.595,354.409,-0.439185
15.5967,354.426,-0.439142
15.5983,354.443,-0.439107
15.6,354.459,-0.439076
15.6017,354.476,-0.439053
15.6033,354.492,-0.439036
15.605,354.509,-0.439019
15.6067,354.526,-0.439011
15.6083,354.543,-0.438998
15.61,354.559,-0.438983
15.6117,354.576,-0.438973
15.6133,354.592,-0.438958
15.615,354.609,-0.438928
15.6167,354.626,-0.438901
15.6183,354.642,-0.438886
15.62,354.659,-0.438868
15.6217,354.675,-0.43884
15.6233,354.692,-0.438818
15.625,354.709,-0.438804
15.6267,354.725,-0.438788
15.6283,354.742,-0.438766
15.63,354.758,-0.438745
15.6317,354.775,-0.438733
15.6333,354.792,-0.438727
15.635,354.808,-0.438725
15.6367,354.825,-0.438727
15.6383,354.842,-0.438714
15.64,354.858,-0.438695
15.6417,354.875,-0.438682
15.6433,354.892,-0.438671
15.645,354.909,-0.438656
15.6467,354.925,-0.43863
15.6483,354.942,-0.438594
15.65,354.958,-0.438561
15.6517,354.975,-0.438533
15.6533,354.992,-0.438514
15.655,355.008,-0.438492
15.6567,355.025,-0.438476
15.6583,355.042,-0.438459
15.66,355.058,-0.438449
15.6617,355.075,-0.438444
15.6633,355.092,-0.438423
15.665,355.109,-0.438395
15.6667,355.125,-0.438362
15.6683,355.142,-0.438322
15.67,355.158,-0.438287
15.6717,355.175,-0.438254
15.6733,355.192,-0.438211
15.675,355.209,-0.438159
15.6767,355.225,-0.438115
15.6783,355.242,-0.438078
15.68,355.258,-0.438042
15.6817,355.275,-0.438011
15.6833,355.292,-0.437979
15.685,355.309,-0.437954
15.6867,355.326,-0.437939
15.6883,355.342,-0.437941
15.69,355.359,-0.437944
15.6917,355.375,-0.437946
15.6933,355.392,-0.437941
15.695,355.409,-0.437943
15.6967,355.426,-0.437937
15.6983,355.442,-0.437916
15.7,355.459,-0.437893
15.7017,355.476,-0.437873
15.7033,355.492,-0.437841
15.705,355.508,-0.43781
15.7067,355.525,-0.437786
15.7083,355.542,-0.437769
15.71,355.559,-0.437751
15.7117,355.575,-0.437735
15.7133,355.592,-0.437721
15.715,355.609,-0.437704
15.7167,355.626,-0.43769
15.7183,355.642,-0.437683
15.72,355.659,-0.437675
15.7217,355.676,-0.437656
15.7233,355.692,-0.437636
15.725,355.709,-0.437612
15.7267,355.726,-0.437592
15.7283,355.742,-0.437569
15.73,355.759,-0.437548
15.7317,355.775,-0.43753
15.7333,355.792,-0.437511
15.735,355.809,-0.437495
15.7367,355.825,-0.437487
15.7383,355.842,-0.437487
15.74,355.858,-0.437491
15.7417,355.875,-0.4375
15.7433,355.892,-0.43751
15.745,355.909,-0.437519
15.7467,355.925,-0.437529
15.7483,355.942,-0.437536
15.75,355.959,-0.437533
15.7517,355.975,-0.437526
15.7533,355.992,-0.437521
15.755,356.008,-0.437513
15.7567,356.025,-0.437504
15.7583,356.042,-0.437493
15.76,356.059,-0.437476
15.7617,356.075,-0.437458
15.7633,356.092,-0.437443
15.765,356.109,-0.437427
15.7667,356.126,-0.437413
15.7683,356.142,-0.437391
15.77,356.159,-0.437371
15.7717,356.176,-0.437354
15.7733,356.192,-0.437338
15.775,356.209,-0.43732
15.7767,356.226,-0.437309
15.7783,356.242,-0.437303
15.78,356.259,-0.437295
15.7817,356.276,-0.437285
15.7833,356.293,-0.437271
15.785,356.309,-0.437259
15.7867,356.326,-0.437245
15.7883,356.342,-0.437231
15.79,356.359,-0.437216
15.7917,356.376,-0.437192
15.7933,356.392,-0.437159
15.795,356.409,-0.437135
15.7967,356.426,-0.437115
15.7983,356.442,-0.437099
15.8,356.459,-0.437084
15.8017,356.476,-0.437074
15.8033,356.492,-0.437069
15.805,356.509,-0.437058
15.8067,356.526,-0.437046
15.8083,356.542,-0.437035
15.81,356.559,-0.437012
15.8117,356.576,-0.436978
15.8133,356.592,-0.43694
15.815,356.609,-0.436904
15.8167,356.626,-0.436866
15.8183,356.642,-0.436831
15.82,356.659,-0.436803
15.8217,356.675,-0.436796
15.8233,356.691,-0.436803
15.825,356.708,-0.436816
15.8267,356.725,-0.43684
15.8283,356.742,-0.436862
15.83,356.759,-0.436889
15.8317,356.776,-0.436914
15.8333,356.792,-0.436934
15.835,356.809,-0.436953
15.8367,356.825,-0.436966
15.8383,356.842,-0.436969
15.84,356.859,-0.43697
15.8417,356.875,-0.436967
15.8433,356.892,-0.436957
15.845,356.908,-0.436941
15.8467,356.925,-0.436918
15.8483,356.942,-0.436894
15.85,356.958,-0.43687
15.8517,356.975,-0.436847
15.8533,356.992,-0.436831
15.855,357.008,-0.43683
15.8567,357.025,-0.436825
15.8583,357.042,-0.436819
15.86,357.058,-0.436813
15.8617,357.075,-0.436804
15.8633,357.092,-0.436791
15.865,357.108,-0.436777
15.8667,357.125,-0.436752
15.8683,357.142,-0.436728
15.87,357.159,-0.436714
15.8717,357.175,-0.436705
15.8733,357.192,-0.436703
15.875,357.208,-0.436706
15.8767,357.225,-0.436702
15.8783,357.242,-0.436696
15.88,357.259,-0.436689
15.8817,357.275,-0.43668
15.8833,357.292,-0.436664
15.885,357.309,-0.436644
15.8867,357.325,-0.436618
15.8883,357.342,-0.436601
15.89,357.358,-0.436589
15.8917,357.375,-0.436576
15.8933,357.392,-0.43656
15.895,357.408,-0.436544
15.8967,357.425,-0.436523
15.8983,357.442,-0.436507
15.9,357.459,-0.436477
15.9017,357.475,-0.436441
15.9033,357.492,-0.436401
15.905,357.509,-0.436365
15.9067,357.525,-0.436331
15.9083,357.542,-0.436303
15.91,357.558,-0.436284
15.9117,357.575,-0.436271
15.9133,357.591,-0.436262
15.915,357.608,-0.436267
15.9167,357.625,-0.436289
15.9183,357.641,-0.436317
15.92,357.658,-0.436374
15.9217,357.675,-0.436422
15.9233,357.692,-0.436448
15.925,357.708,-0.436466
15.9267,357.725,-0.43648
15.9283,357.742,-0.43648
15.93,357.758,-0.436473
15.9317,357.775,-0.436454
15.9333,357.792,-0.436436
15.935,357.808,-0.436413
15.9367,357.825,-0.43639
15.9383,357.841,-0.436374
15.94,357.858,-0.436359
15.9417,357.875,-0.436347
15.9433,357.892,-0.436336
15.945,357.908,-0.436334
15.9467,357.925,-0.436325
15.9483,357.941,-0.436316
15.95,357.958,-0.436296
15.9517,357.975,-0.436273
15.9533,357.991,-0.436246
15.955,358.008,-0.43622
15.9567,358.024,-0.436185
15.9583,358.041,-0.436155
15.96,358.057,-0.436136
15.9617,358.074,-0.436117
15.9633,358.091,-0.436102
15.965,358.108,-0.436093
15.9667,358.124,-0.436093
15.9683,358.141,-0.436099
15.97,358.158,-0.436112
15.9717,358.174,-0.436119
15.9733,358.191,-0.436115
15.975,358.208,-0.436102
15.9767,358.225,-0.436079
15.9783,358.241,-0.436054
15.98,358.258,-0.436023
15.9817,358.275,-0.435984
15.9833,358.291,-0.435948
15.985,358.308,-0.435915
15.9867,358.325,-0.435893
15.9883,358.341,-0.435878
15.99,358.358,-0.435868
15.9917,358.375,-0.435857
15.9933,358.391,-0.435857
15.995,358.408,-0.43586
15.9967,358.425,-0.43585
15.9983,358.441,-0.435835
16,358.458,-0.435818
16.0017,358.475,-0.435803
16.0033,358.491,-0.435785
16.005,358.508,-0.435772
16.0067,358.525,-0.43576
16.0083,358.541,-0.435737
16.01,358.558,-0.435716
16.0117,358.574,-0.435683
16.0133,358.591,-0.435655
16.015,358.608,-0.435641
16.0167,358.624,-0.435636
16.0183,358.641,-0.435627
16.02,358.658,-0.435625
16.0217,358.674,-0.435624
16.0233,358.691,-0.435629
16.025,358.708,-0.435637
16.0267,358.724,-0.435647
16.0283,358.741,-0.43566
16.03,358.757,-0.435663
16.0317,358.774,-0.435662
16.0333,358.791,-0.435665
16.035,358.807,-0.435667
16.0367,358.824,-0.435667
16.0383,358.84,-0.43566
16.04,358.857,-0.43564
16.0417,358.874,-0.435616
16.0433,358.891,-0.435589
16.045,358.907,-0.435569
16.0467,358.924,-0.435546
16.0483,358.941,-0.435518
16.05,358.957,-0.435493
16.0517,358.974,-0.435469
16.0533,358.991,-0.435446
16.055,359.007,-0.435421
16.0567,359.024,-0.435387
16.0583,359.041,-0.435356
16.06,359.057,-0.435326
16.0617,359.074,-0.435303
16.0633,359.091,-0.435287
16.065,359.107,-0.435272
16.0667,359.123,-0.435264
16.0683,359.14,-0.435259
16.07,359.157,-0.435249
16.0717,359.173,-0.435231
16.0733,359.19,-0.435208
16.075,359.207,-0.435176
16.0767,359.224,-0.435151
16.0783,359.24,-0.435137
16.08,359.257,-0.435126
16.0817,359.273,-0.435115
16.0833,359.29,-0.435103
16.085,359.307,-0.435095
16.0867,359.324,-0.435095
16.0883,359.34,-0.435088
16.09,359.357,-0.435074
16.0917,359.374,-0.435058
16.0933,359.391,-0.435035
16.095,359.407,-0.43501
16.0967,359.424,-0.434987
16.0983,359.44,-0.434959
16.1,359.457,-0.434939
16.1017,359.474,-0.43493
16.1033,359.49,-0.434926
16.105,359.507,-0.43492
16.1067,359.524,-0.434914
16.1083,359.541,-0.434918
16.11,359.557,-0.434917
16.1117,359.574,-0.43491
16.1133,359.59,-0.434893
16.115,359.607,-0.43488
16.1167,359.624,-0.434873
16.1183,359.64,-0.434873
16.12,359.657,-0.43487
16.1217,359.673,-0.434872
16.1233,359.69,-0.434875
16.125,359.706,-0.434879
16.1267,359.723,-0.434891
16.1283,359.74,-0.434899
16.13,359.757,-0.434906
16.1317,359.774,-0.434902
16.1333,359.79,-0.434894
16.135,359.807,-0.434891
16.1367,359.823,-0.434884
16.1383,359.84,-0.434868
16.14,359.857,-0.434852
16.1417,359.873,-0.434835
16.1433,359.89,-0.434822
16.145,359.907,-0.434807
16.1467,359.923,-0.434797
16.1483,359.94,-0.434782
16.15,359.956,-0.434764
16.1517,359.973,-0.434746
16.1533,359.989,-0.434725
16.155,360.006,-0.434695
16.1567,360.023,-0.434654
16.1583,360.04,-0.434617
16.16,360.056,-0.43458
16.1617,360.073,-0.434546
16.1633,360.09,-0.434513
16.165,360.106,-0.434488
16.1667,360.123,-0.434469
16.1683,360.14,-0.434455
16.17,360.156,-0.434437
16.1717,360.173,-0.434422
16.1733,360.19,-0.434412
16.175,360.206,-0.434398
16.1767,360.223,-0.434377
16.1783,360.239,-0.434354
16.18,360.256,-0.43433
16.1817,360.273,-0.4343
16.1833,360.289,-0.434263
16.185,360.306,-0.434216
16.1867,360.323,-0.434176
16.1883,360.339,-0.434141
16.19,360.356,-0.434107
16.1917,360.373,-0.43407
16.1933,360.389,-0.434036
16.195,360.406,-0.434008
16.1967,360.423,-0.433985
16.1983,360.439,-0.433954
16.2,360.456,-0.433915
16.2017,360.472,-0.43388
16.2033,360.489,-0.433854
16.205,360.506,-0.433827
16.2067,360.523,-0.433805
16.2083,360.54,-0.433775
16.21,360.557,-0.433749
16.2117,360.573,-0.433724
16.2133,360.59,-0.433699
16.215,360.606,-0.433674
16.2167,360.623,-0.433654
16.2183,360.64,-0.433634
16.22,360.656,-0.433612
16.2217,360.673,-0.433591
16.2233,360.69,-0.433578
16.225,360.706,-0.43356
16.2267,360.723,-0.433537
16.2283,360.739,-0.433502
16.23,360.756,-0.433465
16.2317,360.772,-0.43342
16.2333,360.789,-0.433368
16.235,360.806,-0.433273
16.2367,360.822,-0.433205
16.2383,360.839,-0.433146
16.24,360.856,-0.433092
16.2417,360.872,-0.433049
16.2433,360.889,-0.433021
16.245,360.906,-0.433003
16.2467,360.922,-0.432987
16.2483,360.939,-0.43298
16.25,360.955,-0.432979
16.2517,360.972,-0.432989
16.2533,360.988,-0.432996
16.255,361.005,-0.433006
16.2567,361.022,-0.433014
16.2583,361.038,-0.433021
16.26,361.055,-0.433024
16.2617,361.072,-0.433018
16.2633,361.088,-0.433006
16.265,361.105,-0.432994
16.2667,361.122,-0.432977
16.2683,361.139,-0.432953
16.27,361.155,-0.432934
16.2717,361.172,-0.432909
16.2733,361.188,-0.432883
16.275,361.205,-0.432862
16.2767,361.222,-0.432833
16.2783,361.239,-0.432807
16.28,361.255,-0.432781
16.2817,361.272,-0.432754
16.2833,361.288,-0.43272
16.285,361.305,-0.43268
16.2867,361.322,-0.432635
16.2883,361.338,-0.432583
16.29,361.355,-0.432533
16.2917,361.371,-0.432485
16.2933,361.388,-0.432442
16.295,361.404,-0.432392
16.2967,361.421,-0.432348
16.2983,361.438,-0.432309
16.3,361.454,-0.432266
16.3017,361.471,-0.432217
16.3033,361.488,-0.432167
16.305,361.504,-0.432121
16.3067,361.521,-0.432072
16.3083,361.537,-0.432026
16.31,361.554,-0.431983
16.3117,361.571,-0.431946
16.3133,361.587,-0.431916
16.315,361.604,-0.431884
16.3167,361.621,-0.431861
16.3183,361.637,-0.43184
16.32,361.654,-0.431833
16.3217,361.671,-0.431823
16.3233,361.688,-0.431813
16.325,361.704,-0.431801
16.3267,361.721,-0.431785
16.3283,361.738,-0.431765
16.33,361.754,-0.431741
16.3317,361.771,-0.431712
16.3333,361.787,-0.43167
16.335,361.804,-0.431627
16.3367,361.82,-0.43158
16.3383,361.837,-0.431524
16.34,361.854,-0.431463
16.3417,361.87,-0.431412
16.3433,361.887,-0.431362
16.345,361.904,-0.431321
16.3467,361.92,-0.43128
16.3483,361.937,-0.431232
16.35,361.954,-0.431192
16.3517,361.971,-0.431157
16.3533,361.987,-0.431121
16.355,362.004,-0.43108
16.3567,362.021,-0.431035
16.3583,362.038,-0.430984
16.36,362.054,-0.430931
16.3617,362.071,-0.430873
16.3633,362.087,-0.430825
16.365,362.104,-0.430787
16.3667,362.121,-0.430748
16.3683,362.137,-0.430717
16.37,362.154,-0.430697
16.3717,362.171,-0.43068
16.3733,362.187,-0.430652
16.375,362.204,-0.430631
16.3767,362.22,-0.430611
16.3783,362.237,-0.430587
16.38,362.253,-0.430552
16.3817,362.27,-0.430513
16.3833,362.287,-0.430478
16.385,362.304,-0.430442
16.3867,362.32,-0.430412
16.3883,362.337,-0.43039
16.39,362.354,-0.430376
16.3917,362.37,-0.430363
16.3933,362.387,-0.430354
16.395,362.404,-0.430355
16.3967,362.42,-0.430358
16.3983,362.437,-0.430349
16.4,362.454,-0.430334
16.4017,362.471,-0.430318
16.4033,362.487,-0.430298
16.405,362.504,-0.430267
16.4067,362.52,-0.430224
16.4083,362.537,-0.430176
16.41,362.554,-0.430125
16.4117,362.57,-0.430085
16.4133,362.587,-0.430044
16.415,362.603,-0.430007
16.4167,362.62,-0.429967
16.4183,362.636,-0.429932
16.42,362.653,-0.42991
16.4217,362.669,-0.4299
16.4233,362.687,-0.429894
16.425,362.703,-0.42989
16.4267,362.72,-0.429887
16.4283,362.737,-0.429884
16.43,362.753,-0.429885
16.4317,362.77,-0.429887
16.4333,362.787,-0.42989
16.435,362.803,-0.429892
16.4367,362.82,-0.429881
16.4383,362.837,-0.429868
16.44,362.853,-0.429856
16.4417,362.87,-0.429832
16.4433,362.886,-0.429809
16.445,362.903,-0.429779
16.4467,362.919,-0.429746
16.4483,362.936,-0.429707
16.45,362.953,-0.429665
16.4517,362.969,-0.429629
16.4533,362.986,-0.42959
16.455,363.002,-0.429548
16.4567,363.019,-0.429499
16.4583,363.036,-0.429455
16.46,363.052,-0.429412
16.4617,363.069,-0.429373
16.4633,363.085,-0.429343
16.465,363.102,-0.429319
16.4667,363.119,-0.429307
16.4683,363.136,-0.429293
16.47,363.152,-0.42927
16.4717,363.169,-0.429242
16.4733,363.186,-0.429206
16.475,363.202,-0.429175
16.4767,363.219,-0.429134
16.4783,363.236,-0.429091
16.48,363.252,-0.429032
16.4817,363.269,-0.428979
16.4833,363.286,-0.428934
16.485,363.302,-0.428898
16.4867,363.319,-0.428872
16.4883,363.336,-0.428849
16.49,363.353,-0.428819
16.4917,363.369,-0.428794
16.4933,363.386,-0.428774
16.495,363.403,-0.428747
16.4967,363.419,-0.428725
16.4983,363.436,-0.428696
16.5,363.452,-0.428662
16.5017,363.469,-0.428623
16.5033,363.485,-0.428578
16.505,363.502,-0.42854
16.5067,363.519,-0.428513
16.5083,363.536,-0.428476
16.51,363.553,-0.428431
16.5117,363.569,-0.428391
16.5133,363.586,-0.428358
16.515,363.602,-0.428324
16.5167,363.619,-0.428281
16.5183,363.636,-0.428243
16.52,363.653,-0.428218
16.5217,363.669,-0.428196
16.5233,363.685,-0.42818
16.525,363.702,-0.428164
16.5267,363.719,-0.428148
16.5283,363.735,-0.428131
16.53,363.752,-0.42811
16.5317,363.768,-0.428087
16.5333,363.785,-0.428063
16.535,363.802,-0.428031
16.5367,363.819,-0.427996
16.5383,363.836,-0.42796
16.54,363.852,-0.427924
16.5417,363.869,-0.427898
16.5433,363.885,-0.427876
16.545,363.902,-0.427854
16.5467,363.918,-0.427842
16.5483,363.935,-0.427832
16.55,363.952,-0.427819
16.5517,363.968,-0.427812
16.5533,363.985,-0.427794
16.555,364.002,-0.427776
16.5567,364.019,-0.427759
16.5583,364.035,-0.427737
16.56,364.052,-0.4277
16.5617,364.069,-0.427658
16.5633,364.085,-0.427627
16.565,364.102,-0.427605
16.5667,364.118,-0.427583
16.5683,364.135,-0.427563
16.57,364.152,-0.427545
16.5717,364.168,-0.427525
16.5733,364.185,-0.427497
16.575,364.202,-0.427468
16.5767,364.219,-0.427436
16.5783,364.236,-0.427398
16.58,364.252,-0.427366
16.5817,364.269,-0.427332
16.5833,364.285,-0.42731
16.585,364.302,-0.427296
16.5867,364.319,-0.427285
16.5883,364.335,-0.427285
16.59,364.351,-0.427281
16.5917,364.368,-0.427269
16.5933,364.385,-0.427243
16.595,364.401,-0.427215
16.5967,364.418,-0.427177
16.5983,364.435,-0.427152
16.6,364.451,-0.427126
16.6017,364.468,-0.427103
16.6033,364.485,-0.427086
16.605,364.502,-0.427076
16.6067,364.518,-0.427071
16.6083,364.534,-0.427071
16.61,364.551,-0.427065
16.6117,364.568,-0.427058
16.6133,364.585,-0.427045
16.615,364.602,-0.427014
16.6167,364.618,-0.426978
16.6183,364.635,-0.426946
16.62,364.651,-0.426899
16.6217,364.668,-0.426858
16.6233,364.685,-0.426818
16.625,364.701,-0.426783
16.6267,364.718,-0.426753
16.6283,364.735,-0.426734
16.63,364.751,-0.426724
16.6317,364.768,-0.426717
16.6333,364.785,-0.426711
16.635,364.801,-0.426702
16.6367,364.818,-0.42669
16.6383,364.835,-0.426676
16.64,364.851,-0.426668
16.6417,364.868,-0.42666
16.6433,364.884,-0.426652
16.645,364.901,-0.426645
16.6467,364.918,-0.42664
16.6483,364.934,-0.426643
16.65,364.951,-0.426655
16.6517,364.967,-0.426662
16.6533,364.984,-0.426661
16.655,365.001,-0.426655
16.6567,365.017,-0.426647
16.6583,365.034,-0.426636
16.66,365.051,-0.426617
16.6617,365.067,-0.426578
16.6633,365.084,-0.426533
16.665,365.1,-0.426474
16.6667,365.117,-0.426376
16.6683,365.134,-0.426254
16.67,365.151,-0.426124
16.6717,365.167,-0.426004
16.6733,365.184,-0.425897
16.675,365.201,-0.425841
16.6767,365.217,-0.425792
16.6783,365.234,-0.425753
16.68,365.251,-0.425713
16.6817,365.267,-0.425682
16.6833,365.284,-0.425658
16.685,365.3,-0.425639
16.6867,365.317,-0.425621
16.6883,365.334,-0.425606
16.69,365.35,-0.42558
16.6917,365.367,-0.425549
16.6933,365.384,-0.425513
16.695,365.4,-0.42547
16.6967,365.417,-0.42543
16.6983,365.433,-0.425397
16.7,365.45,-0.425361
16.7017,365.467,-0.425322
16.7033,365.484,-0.425285
16.705,365.501,-0.425258
16.7067,365.517,-0.425238
16.7083,365.534,-0.425209
16.71,365.55,-0.425177
16.7117,365.567,-0.425143
16.7133,365.583,-0.425118
16.715,365.6,-0.425096
16.7167,365.617,-0.425074
16.7183,365.633,-0.425057
16.72,365.65,-0.425033
16.7217,365.667,-0.425009
16.7233,365.683,-0.424991
16.725,365.7,-0.42497
16.7267,365.717,-0.424943
16.7283,365.734,-0.424912
16.73,365.75,-0.424889
16.7317,365.767,-0.424855
16.7333,365.784,-0.424824
16.735,365.8,-0.424791
16.7367,365.817,-0.424756
16.7383,365.834,-0.42471
16.74,365.85,-0.424658
16.7417,365.867,-0.424602
16.7433,365.884,-0.424543
16.745,365.901,-0.424487
16.7467,365.917,-0.424432
16.7483,365.934,-0.424378
16.75,365.95,-0.424324
16.7517,365.966,-0.424283
16.7533,365.983,-0.424256
16.755,366,-0.424233
16.7567,366.017,-0.424221
16.7583,366.033,-0.424217
16.76,366.05,-0.424213
16.7617,366.067,-0.424207
16.7633,366.083,-0.424203
16.765,366.1,-0.424191
16.7667,366.116,-0.424176
16.7683,366.133,-0.424154
16.77,366.15,-0.424128
16.7717,366.166,-0.424092
16.7733,366.182,-0.424048
16.775,366.198,-0.423993
16.7767,366.215,-0.423944
16.7783,366.232,-0.42389
16.78,366.248,-0.423846
16.7817,366.265,-0.42381
16.7833,366.282,-0.423777
16.785,366.299,-0.423753
16.7867,366.315,-0.423741
16.7883,366.332,-0.423736
16.79,366.349,-0.423738
16.7917,366.366,-0.423741
16.7933,366.382,-0.423736
16.795,366.399,-0.423728
16.7967,366.416,-0.423712
16.7983,366.432,-0.423693
16.8,366.449,-0.423669
16.8017,366.465,-0.423644
16.8033,366.482,-0.42362
16.805,366.498,-0.423596
16.8067,366.515,-0.423567
16.8083,366.532,-0.423555
16.81,366.549,-0.42354
16.8117,366.565,-0.423527
16.8133,366.582,-0.423518
16.815,366.598,-0.42351
16.8167,366.615,-0.423504
16.8183,366.632,-0.423493
16.82,366.648,-0.423477
16.8217,366.665,-0.42345
16.8233,366.682,-0.423412
16.825,366.699,-0.423362
16.8267,366.715,-0.423277
16.8283,366.732,-0.423194
16.83,366.748,-0.423045
16.8317,366.765,-0.422872
16.8333,366.782,-0.422743
16.835,366.798,-0.422597
16.8367,366.815,-0.422535
16.8383,366.832,-0.422475
16.84,366.849,-0.422428
16.8417,366.865,-0.422388
16.8433,366.882,-0.422344
16.845,366.898,-0.422297
16.8467,366.915,-0.422247
16.8483,366.932,-0.422198
16.85,366.948,-0.422153
16.8517,366.965,-0.422107
16.8533,366.981,-0.422056
16.855,366.998,-0.422002
16.8567,367.015,-0.421943
16.8583,367.032,-0.421887
16.86,367.048,-0.421832
16.8617,367.065,-0.421774
16.8633,367.081,-0.421704
16.865,367.099,-0.421608
16.8667,367.115,-0.421532
16.8683,367.132,-0.421443
16.87,367.148,-0.421308
16.8717,367.165,-0.421135
16.8733,367.182,-0.420971
16.875,367.198,-0.420827
16.8767,367.215,-0.420673
16.8783,367.231,-0.420564
16.88,367.248,-0.420486
16.8817,367.265,-0.420416
16.8833,367.282,-0.420347
16.885,367.298,-0.420292
16.8867,367.315,-0.420245
16.8883,367.332,-0.420201
16.89,367.349,-0.420161
16.8917,367.365,-0.42012
16.8933,367.383,-0.420084
16.895,367.399,-0.420049
16.8967,367.415,-0.420005
16.8983,367.432,-0.419952
16.9,367.449,-0.419899
16.9017,367.466,-0.419841
16.9033,367.483,-0.419785
16.905,367.499,-0.419735
16.9067,367.516,-0.419689
16.9083,367.533,-0.419649
16.91,367.549,-0.419616
16.9117,367.566,-0.419584
16.9133,367.583,-0.419558
16.915,367.6,-0.419551
16.9167,367.616,-0.419542
16.9183,367.633,-0.419531
16.92,367.65,-0.419517
16.9217,367.667,-0.419513
16.9233,367.683,-0.419514
16.925,367.7,-0.419517
16.9267,367.717,-0.419519
16.9283,367.734,-0.419517
16.93,367.75,-0.41952
16.9317,367.767,-0.419521
16.9333,367.784,-0.419522
16.935,367.8,-0.419527
16.9367,367.817,-0.419519
16.9383,367.833,-0.419508
16.94,367.85,-0.419498
16.9417,367.867,-0.419489
16.9433,367.884,-0.419491
16.945,367.9,-0.419491
16.9467,367.917,-0.419492
16.9483,367.934,-0.419495
16.95,367.951,-0.4195
16.9517,367.968,-0.41951
16.9533,367.984,-0.41952
16.955,368.001,-0.419529
16.9567,368.017,-0.419536
16.9583,368.033,-0.419533
16.96,368.05,-0.419541
16.9617,368.067,-0.419553
16.9633,368.084,-0.419565
16.965,368.1,-0.419579
16.9667,368.117,-0.419604
16.9683,368.134,-0.419655
16.97,368.151,-0.419693
16.9717,368.167,-0.419726
16.9733,368.184,-0.419754
16.975,368.201,-0.419769
16.9767,368.218,-0.41978
16.9783,368.234,-0.419785
16.98,368.251,-0.419792
16.9817,368.267,-0.419785
16.9833,368.285,-0.419782
16.985,368.301,-0.419783
16.9867,368.318,-0.419784
16.9883,368.334,-0.419791
16.99,368.351,-0.4198
16.9917,368.368,-0.419799
16.9933,368.384,-0.419807
16.995,368.401,-0.419822
16.9967,368.418,-0.419826
16.9983,368.435,-0.419823
17,368.451,-0.419809
17.0017,368.468,-0.419792
17.0033,368.485,-0.41977
17.005,368.501,-0.419741
17.0067,368.518,-0.419707
17.0083,368.535,-0.419649
17.01,368.551,-0.419609
17.0117,368.568,-0.419574
17.0133,368.585,-0.419543
17.015,368.602,-0.419525
17.0167,368.618,-0.419517
17.0183,368.635,-0.419511
17.02,368.651,-0.419508
17.0217,368.668,-0.419504
17.0233,368.685,-0.419505
17.025,368.702,-0.419502
17.0267,368.718,-0.419498
17.0283,368.735,-0.419503
17.03,368.752,-0.419508
17.0317,368.769,-0.419504
17.0333,368.785,-0.419499
17.035,368.802,-0.41949
17.0367,368.819,-0.419472
17.0383,368.835,-0.419462
17.04,368.852,-0.41945
17.0417,368.868,-0.419427
17.0433,368.885,-0.419409
17.045,368.902,-0.419384
17.0467,368.918,-0.419359
17.0483,368.935,-0.419339
17.05,368.952,-0.419317
17.0517,368.969,-0.419289
17.0533,368.985,-0.41926
17.055,369.002,-0.419234
17.0567,369.019,-0.419218
17.0583,369.035,-0.419201
17.06,369.052,-0.419175
17.0617,369.069,-0.419152
17.0633,369.085,-0.419127
17.065,369.102,-0.419102
17.0667,369.119,-0.419072
17.0683,369.135,-0.419037
17.07,369.152,-0.418993
17.0717,369.169,-0.41895
17.0733,369.186,-0.418898
17.075,369.202,-0.41885
17.0767,369.219,-0.418806
17.0783,369.236,-0.418761
17.08,369.252,-0.418716
17.0817,369.269,-0.418672
17.0833,369.286,-0.418623
17.085,369.302,-0.418576
17.0867,369.32,-0.418529
17.0883,369.336,-0.418478
17.09,369.353,-0.418436
17.0917,369.37,-0.418393
17.0933,369.386,-0.418358
17.095,369.403,-0.418324
17.0967,369.42,-0.418297
17.0983,369.436,-0.418274
17.1,369.453,-0.418258
17.1017,369.469,-0.418246
17.1033,369.486,-0.418239
17.105,369.503,-0.41824
17.1067,369.52,-0.418238
17.1083,369.537,-0.418246
17.11,369.553,-0.418245
17.1117,369.57,-0.418241
17.1133,369.587,-0.418235
17.115,369.603,-0.418234
17.1167,369.62,-0.418224
17.1183,369.637,-0.418209
17.12,369.653,-0.418187
17.1217,369.67,-0.418171
17.1233,369.687,-0.418157
17.125,369.704,-0.418135
17.1267,369.72,-0.418119
17.1283,369.737,-0.418098
17.13,369.754,-0.418078
17.1317,369.77,-0.418068
17.1333,369.787,-0.418067
17.135,369.804,-0.418066
17.1367,369.82,-0.418074
17.1383,369.837,-0.418084
17.14,369.853,-0.418106
17.1417,369.87,-0.418134
17.1433,369.887,-0.418151
17.145,369.904,-0.418156
17.1467,369.92,-0.41816
17.1483,369.937,-0.41816
17.15,369.953,-0.41815
17.1517,369.97,-0.418135
17.1533,369.987,-0.418118
17.155,370.004,-0.418095
17.1567,370.02,-0.418077
17.1583,370.037,-0.418066
17.16,370.054,-0.418052
17.1617,370.07,-0.41804
17.1633,370.087,-0.41803
17.165,370.104,-0.418024
17.1667,370.12,-0.418021
17.1683,370.137,-0.418024
17.17,370.153,-0.418021
17.1717,370.17,-0.418024
17.1733,370.187,-0.418036
17.175,370.203,-0.418042
17.1767,370.22,-0.418055
17.1783,370.237,-0.418064
17.18,370.253,-0.41806
17.1817,370.27,-0.418047
17.1833,370.287,-0.418033
17.185,370.304,-0.418016
17.1867,370.32,-0.418004
17.1883,370.337,-0.417985
17.19,370.353,-0.417961
17.1917,370.37,-0.417939
17.1933,370.386,-0.417922
17.195,370.403,-0.417904
17.1967,370.42,-0.417887
17.1983,370.436,-0.417871
17.2,370.453,-0.417851
17.2017,370.47,-0.417828
17.2033,370.486,-0.417805
17.205,370.503,-0.41779
17.2067,370.52,-0.417766
17.2083,370.536,-0.41774
17.21,370.553,-0.417717
17.2117,370.569,-0.417691
17.2133,370.587,-0.417656
17.215,370.603,-0.417609
17.2167,370.62,-0.417544
17.2183,370.636,-0.417487
17.22,370.653,-0.417438
17.2217,370.669,-0.417392
17.2233,370.686,-0.417345
17.225,370.703,-0.417306
17.2267,370.72,-0.41728
17.2283,370.736,-0.41725
17.23,370.753,-0.41722
17.2317,370.769,-0.417193
17.2333,370.786,-0.41717
17.235,370.803,-0.417145
17.2367,370.819,-0.417119
17.2383,370.836,-0.417086
17.24,370.853,-0.417053
17.2417,370.869,-0.417015
17.2433,370.886,-0.416978
17.245,370.903,-0.416938
17.2467,370.919,-0.416896
17.2483,370.936,-0.416859
17.25,370.953,-0.416824
17.2517,370.969,-0.416792
17.2533,370.986,-0.416769
17.255,371.003,-0.416746
17.2567,371.019,-0.416727
17.2583,371.035,-0.416715
17.26,371.052,-0.416698
17.2617,371.069,-0.416689
17.2633,371.086,-0.416682
17.265,371.103,-0.416681
17.2667,371.119,-0.416676
17.2683,371.136,-0.416666
17.27,371.152,-0.416648
17.2717,371.169,-0.416619
17.2733,371.186,-0.416581
17.275,371.202,-0.416538
17.2767,371.219,-0.416497
17.2783,371.236,-0.416445
17.28,371.252,-0.416351
17.2817,371.269,-0.41628
17.2833,371.286,-0.416224
17.285,371.302,-0.41616
17.2867,371.319,-0.416105
17.2883,371.335,-0.416063
17.29,371.352,-0.416024
17.2917,371.369,-0.415981
17.2933,371.386,-0.415944
17.295,371.402,-0.415907
17.2967,371.419,-0.415875
17.2983,371.436,-0.415832
17.3,371.452,-0.41579
17.3017,371.469,-0.415747
17.3033,371.485,-0.415699
17.305,371.502,-0.415656
17.3067,371.519,-0.415623
17.3083,371.535,-0.415598
17.31,371.552,-0.415579
17.3117,371.568,-0.415563
17.3133,371.585,-0.415548
17.315,371.601,-0.415535
17.3167,371.618,-0.415517
17.3183,371.635,-0.415506
17.32,371.652,-0.41549
17.3217,371.668,-0.41547
17.3233,371.685,-0.415444
17.325,371.702,-0.415408
17.3267,371.718,-0.415367
17.3283,371.735,-0.415326
17.33,371.751,-0.415284
17.3317,371.768,-0.415245
17.3333,371.785,-0.415213
17.335,371.801,-0.415185
17.3367,371.818,-0.415168
17.3383,371.835,-0.415153
17.34,371.851,-0.415137
17.3417,371.868,-0.415127
17.3433,371.885,-0.415113
17.345,371.901,-0.415088
17.3467,371.918,-0.41506
17.3483,371.934,-0.415025
17.35,371.951,-0.414993
17.3517,371.968,-0.41496
17.3533,371.984,-0.414928
17.355,372.001,-0.414902
17.3567,372.018,-0.41488
17.3583,372.034,-0.414858
17.36,372.051,-0.414829
17.3617,372.067,-0.414801
17.3633,372.084,-0.41477
17.365,372.101,-0.414736
17.3667,372.117,-0.414703
17.3683,372.134,-0.414677
17.37,372.151,-0.414653
17.3717,372.168,-0.414622
17.3733,372.184,-0.414585
17.375,372.201,-0.414554
17.3767,372.217,-0.414524
17.3783,372.234,-0.414485
17.38,372.251,-0.414457
17.3817,372.267,-0.414427
17.3833,372.284,-0.4144
17.385,372.301,-0.414377
17.3867,372.317,-0.414348
17.3883,372.334,-0.414317
17.39,372.35,-0.414275
17.3917,372.368,-0.414227
17.3933,372.384,-0.414178
17.395,372.401,-0.414121
17.3967,372.417,-0.414026
17.3983,372.434,-0.413924
17.4,372.45,-0.413816
17.4017,372.467,-0.413753
17.4033,372.484,-0.413695
17.405,372.5,-0.413634
17.4067,372.517,-0.413582
17.4083,372.534,-0.413543
17.41,372.55,-0.413519
17.4117,372.567,-0.4135
17.4133,372.584,-0.413478
17.415,372.6,-0.413451
17.4167,372.617,-0.413427
17.4183,372.634,-0.413398
17.42,372.65,-0.413364
17.4217,372.667,-0.413325
17.4233,372.683,-0.413289
17.425,372.7,-0.413258
17.4267,372.717,-0.41323
17.4283,372.733,-0.413204
17.43,372.75,-0.413172
17.4317,372.767,-0.413137
17.4333,372.784,-0.413098
17.435,372.8,-0.413068
17.4367,372.817,-0.413036
17.4383,372.834,-0.41299
17.44,372.85,-0.412946
17.4417,372.867,-0.4129
17.4433,372.883,-0.412849
17.445,372.9,-0.412796
17.4467,372.917,-0.412742
17.4483,372.934,-0.412684
17.45,372.95,-0.412625
17.4517,372.967,-0.412572
17.4533,372.984,-0.412529
17.455,373,-0.412494
17.4567,373.017,-0.412462
17.4583,373.033,-0.412433
17.46,373.05,-0.412408
17.4617,373.066,-0.412387
17.4633,373.084,-0.412368
17.465,373.1,-0.412355
17.4667,373.117,-0.412343
17.4683,373.133,-0.412326
17.47,373.15,-0.412311
17.4717,373.166,-0.412293
17.4733,373.183,-0.412276
17.475,373.2,-0.412253
17.4767,373.216,-0.412224
17.4783,373.233,-0.412196
17.48,373.25,-0.412174
17.4817,373.266,-0.412154
17.4833,373.283,-0.412133
17.485,373.3,-0.412115
17.4867,373.316,-0.412096
17.4883,373.333,-0.412082
17.49,373.35,-0.412073
17.4917,373.366,-0.412062
17.4933,373.383,-0.412053
17.495,373.4,-0.412041
17.4967,373.416,-0.412029
17.4983,373.433,-0.412026
17.5,373.45,-0.412031
17.5017,373.466,-0.412037
17.5033,373.483,-0.412043
17.505,373.5,-0.412054
