Ramp 10.00 °C/min to 375.00 °C,,
Time,Temperature,Heat Flow (Normalized)
min,°C,W/g
5.00333,249.889,-0.179367
5.005,249.889,-0.179364
5.00667,249.888,-0.179363
5.00833,249.888,-0.179364
5.01,249.888,-0.179367
5.01167,249.888,-0.179373
5.01333,249.888,-0.179388
5.015,249.889,-0.179411
5.01667,249.889,-0.179427
5.01833,249.889,-0.179442
5.02,249.889,-0.179468
5.02167,249.889,-0.179498
5.02333,249.889,-0.179524
5.025,249.89,-0.179552
5.02667,249.89,-0.179586
5.02833,249.891,-0.179623
5.03,249.891,-0.179668
5.03167,249.892,-0.179712
5.03333,249.892,-0.179754
5.035,249.893,-0.179788
5.03667,249.894,-0.17982
5.03833,249.895,-0.179849
5.04,249.896,-0.179874
5.04167,249.898,-0.179883
5.04333,249.899,-0.179892
5.045,249.9,-0.179893
5.04667,249.901,-0.179882
5.04833,249.903,-0.179862
5.05,249.905,-0.17981
5.05167,249.907,-0.179656
5.05333,249.908,-0.179367
5.055,249.911,-0.178792
5.05667,249.913,-0.177714
5.05833,249.915,-0.175977
5.06,249.918,-0.173235
5.06167,249.92,-0.168632
5.06333,249.923,-0.162426
5.065,249.926,-0.155284
5.06667,249.929,-0.148225
5.06833,249.933,-0.141649
5.07,249.936,-0.13487
5.07167,249.94,-0.128622
5.07333,249.944,-0.122415
5.075,249.948,-0.117915
5.07667,249.952,-0.114604
5.07833,249.957,-0.111901
5.08,249.962,-0.10854
5.08167,249.966,-0.105947
5.08333,249.972,-0.103536
5.085,249.976,-0.100584
5.08667,249.982,-0.0988179
5.08833,249.988,-0.096389
5.09,249.994,-0.0951324
5.09167,250,-0.0944239
5.09333,250.006,-0.0938845
5.095,250.013,-0.0932865
5.09667,250.019,-0.0930471
5.09833,250.026,-0.0930799
5.1,250.034,-0.0938237
5.10167,250.041,-0.0945987
5.10333,250.048,-0.0955567
5.105,250.055,-0.0965153
5.10667,250.063,-0.0974225
5.10833,250.071,-0.100917
5.11,250.08,-0.103077
5.11167,250.088,-0.104231
5.11333,250.097,-0.104786
5.115,250.105,-0.105984
5.11667,250.114,-0.107749
5.11833,250.123,-0.110117
5.12,250.132,-0.113797
5.12167,250.142,-0.119636
5.12333,250.15,-0.127703
5.125,250.16,-0.138973
5.12667,250.17,-0.152169
5.12833,250.18,-0.166383
5.13,250.19,-0.178137
5.13167,250.2,-0.188144
5.13333,250.21,-0.197565
5.135,250.221,-0.205418
5.13667,250.231,-0.21384
5.13833,250.242,-0.221112
5.14,250.253,-0.229151
5.14167,250.264,-0.2371
5.14333,250.276,-0.244156
5.145,250.287,-0.251567
5.14667,250.298,-0.259524
5.14833,250.31,-0.267978
5.15,250.322,-0.27655
5.15167,250.333,-0.28476
5.15333,250.345,-0.293053
5.155,250.357,-0.300782
5.15667,250.369,-0.308486
5.15833,250.381,-0.316032
5.16,250.393,-0.323347
5.16167,250.405,-0.33021
5.16333,250.418,-0.338857
5.165,250.43,-0.346823
5.16667,250.442,-0.354692
5.16833,250.455,-0.362645
5.17,250.468,-0.370367
5.17167,250.481,-0.376487
5.17333,250.493,-0.382145
5.175,250.506,-0.389181
5.17667,250.519,-0.395148
5.17833,250.532,-0.40096
5.18,250.545,-0.406153
5.18167,250.558,-0.411768
5.18333,250.571,-0.417121
5.185,250.585,-0.422578
5.18667,250.598,-0.428676
5.18833,250.612,-0.433717
5.19,250.626,-0.439468
5.19167,250.639,-0.444856
5.19333,250.653,-0.449966
5.195,250.667,-0.457209
5.19667,250.68,-0.461764
5.19833,250.694,-0.466764
5.2,250.708,-0.47169
5.20167,250.722,-0.476725
5.20333,250.736,-0.480558
5.205,250.75,-0.484919
5.20667,250.764,-0.489589
5.20833,250.779,-0.493981
5.21,250.793,-0.498402
5.21167,250.807,-0.502034
5.21333,250.821,-0.505791
5.215,250.836,-0.509966
5.21667,250.85,-0.514723
5.21833,250.865,-0.519089
5.22,250.879,-0.523755
5.22167,250.893,-0.526908
5.22333,250.908,-0.52946
5.225,250.923,-0.534501
5.22667,250.937,-0.540221
5.22833,250.952,-0.543873
5.23,250.966,-0.547023
5.23167,250.981,-0.549365
5.23333,250.996,-0.55203
5.235,251.011,-0.555516
5.23667,251.025,-0.558518
5.23833,251.041,-0.560503
5.24,251.056,-0.561903
5.24167,251.071,-0.564403
5.24333,251.086,-0.566902
5.245,251.101,-0.570181
5.24667,251.116,-0.571933
5.24833,251.131,-0.575575
5.25,251.146,-0.577904
5.25167,251.162,-0.580923
5.25333,251.177,-0.583798
5.255,251.192,-0.586912
5.25667,251.207,-0.58979
5.25833,251.222,-0.592348
5.26,251.238,-0.595594
5.26167,251.253,-0.598409
5.26333,251.268,-0.601593
5.265,251.283,-0.604784
5.26667,251.298,-0.606992
5.26833,251.314,-0.608964
5.27,251.329,-0.611095
5.27167,251.345,-0.612963
5.27333,251.36,-0.616074
5.275,251.376,-0.617788
5.27667,251.391,-0.619386
5.27833,251.407,-0.620808
5.28,251.422,-0.622153
5.28167,251.438,-0.623299
5.28333,251.453,-0.625024
5.285,251.469,-0.626094
5.28667,251.485,-0.627734
5.28833,251.501,-0.629019
5.29,251.516,-0.630376
5.29167,251.532,-0.6323
5.29333,251.548,-0.633844
5.295,251.563,-0.63519
5.29667,251.579,-0.637029
5.29833,251.595,-0.639164
5.3,251.61,-0.642632
5.30167,251.626,-0.644549
5.30333,251.642,-0.645561
5.305,251.658,-0.646226
5.30667,251.673,-0.64668
5.30833,251.689,-0.64751
5.31,251.705,-0.648681
5.31167,251.721,-0.649077
5.31333,251.737,-0.649948
5.315,251.753,-0.651226
5.31667,251.769,-0.652296
5.31833,251.785,-0.653466
5.32,251.801,-0.65461
5.32167,251.816,-0.655869
5.32333,251.833,-0.657207
5.325,251.848,-0.658478
5.32667,251.864,-0.66006
5.32833,251.88,-0.661535
5.33,251.896,-0.663074
5.33167,251.912,-0.663987
5.33333,251.928,-0.665073
5.335,251.944,-0.665957
5.33667,251.96,-0.667041
5.33833,251.976,-0.668302
5.34,251.992,-0.669328
5.34167,252.008,-0.670132
5.34333,252.024,-0.670837
5.345,252.04,-0.671625
5.34667,252.056,-0.672257
5.34833,252.072,-0.673037
5.35,252.088,-0.673822
5.35167,252.104,-0.67466
5.35333,252.12,-0.675442
5.355,252.137,-0.676484
5.35667,252.153,-0.67768
5.35833,252.169,-0.679003
5.36,252.185,-0.680068
5.36167,252.201,-0.680772
5.36333,252.218,-0.681243
5.365,252.233,-0.681631
5.36667,252.249,-0.681875
5.36833,252.266,-0.682072
5.37,252.282,-0.682239
5.37167,252.298,-0.682393
5.37333,252.314,-0.682745
5.375,252.33,-0.683309
5.37667,252.347,-0.684059
5.37833,252.363,-0.68498
5.38,252.379,-0.68597
5.38167,252.395,-0.687084
5.38333,252.411,-0.688407
5.385,252.428,-0.689592
5.38667,252.444,-0.690824
5.38833,252.46,-0.691678
5.39,252.476,-0.692341
5.39167,252.492,-0.692844
5.39333,252.509,-0.693271
5.395,252.525,-0.693504
5.39667,252.541,-0.693629
5.39833,252.557,-0.693782
5.4,252.573,-0.693917
5.40167,252.589,-0.693993
5.40333,252.606,-0.69409
5.405,252.622,-0.694185
5.40667,252.638,-0.694233
5.40833,252.654,-0.69433
5.41,252.671,-0.694417
5.41167,252.687,-0.694502
5.41333,252.703,-0.694577
5.415,252.72,-0.6947
5.41667,252.736,-0.694936
5.41833,252.752,-0.695308
5.42,252.768,-0.69573
5.42167,252.785,-0.696342
5.42333,252.801,-0.697089
5.425,252.817,-0.697833
5.42667,252.833,-0.698686
5.42833,252.85,-0.699443
5.43,252.866,-0.700071
5.43167,252.883,-0.700515
5.43333,252.899,-0.700904
5.435,252.915,-0.701141
5.43667,252.932,-0.701353
5.43833,252.948,-0.701525
5.44,252.964,-0.701646
5.44167,252.981,-0.701755
5.44333,252.997,-0.701809
5.445,253.014,-0.701904
5.44667,253.03,-0.701994
5.44833,253.046,-0.702079
5.45,253.062,-0.702211
5.45167,253.078,-0.702378
5.45333,253.095,-0.702532
5.455,253.111,-0.702722
5.45667,253.128,-0.702865
5.45833,253.144,-0.703028
5.46,253.161,-0.703268
5.46167,253.177,-0.703481
5.46333,253.193,-0.703705
5.465,253.209,-0.703982
5.46667,253.225,-0.704359
5.46833,253.242,-0.704767
5.47,253.258,-0.705212
5.47167,253.275,-0.705645
5.47333,253.292,-0.706125
5.475,253.308,-0.706541
5.47667,253.325,-0.706853
5.47833,253.341,-0.707095
5.48,253.357,-0.707318
5.48167,253.374,-0.707467
5.48333,253.39,-0.707564
5.485,253.406,-0.707646
5.48667,253.422,-0.707705
5.48833,253.439,-0.707765
5.49,253.455,-0.707841
5.49167,253.472,-0.707935
5.49333,253.488,-0.708002
5.495,253.504,-0.708119
5.49667,253.52,-0.708287
5.49833,253.537,-0.708462
5.5,253.553,-0.708672
5.50167,253.57,-0.708831
5.50333,253.586,-0.708937
5.505,253.603,-0.70902
5.50667,253.62,-0.709135
5.50833,253.636,-0.709253
5.51,253.652,-0.709353
5.51167,253.669,-0.709437
5.51333,253.685,-0.709549
5.515,253.702,-0.709667
5.51667,253.718,-0.709783
5.51833,253.734,-0.70987
5.52,253.75,-0.709967
5.52167,253.767,-0.71004
5.52333,253.783,-0.710133
5.525,253.8,-0.710283
5.52667,253.816,-0.710425
5.52833,253.833,-0.710622
5.53,253.849,-0.710981
5.53167,253.865,-0.711327
5.53333,253.882,-0.711581
5.535,253.898,-0.711803
5.53667,253.915,-0.711994
5.53833,253.931,-0.712128
5.54,253.947,-0.712235
5.54167,253.964,-0.712353
5.54333,253.981,-0.712448
5.545,253.997,-0.712608
5.54667,254.013,-0.712775
5.54833,254.029,-0.712901
5.55,254.046,-0.713024
5.55167,254.062,-0.713115
5.55333,254.079,-0.713208
5.555,254.095,-0.713465
5.55667,254.111,-0.713633
5.55833,254.128,-0.713846
5.56,254.145,-0.713922
5.56167,254.161,-0.714096
5.56333,254.177,-0.714176
5.565,254.194,-0.714266
5.56667,254.21,-0.714422
5.56833,254.226,-0.714551
5.57,254.243,-0.714722
5.57167,254.26,-0.714964
5.57333,254.276,-0.715211
5.575,254.292,-0.715419
5.57667,254.309,-0.715629
5.57833,254.326,-0.71577
5.58,254.342,-0.715887
5.58167,254.358,-0.715982
5.58333,254.374,-0.716078
5.585,254.391,-0.716175
5.58667,254.408,-0.716269
5.58833,254.424,-0.716361
5.59,254.441,-0.716455
5.59167,254.457,-0.716544
5.59333,254.473,-0.716635
5.595,254.49,-0.716725
5.59667,254.507,-0.716814
5.59833,254.523,-0.716946
5.6,254.54,-0.717049
5.60167,254.556,-0.717125
5.60333,254.573,-0.717203
5.605,254.589,-0.717305
5.60667,254.605,-0.717401
5.60833,254.622,-0.717502
5.61,254.638,-0.717613
5.61167,254.655,-0.717719
5.61333,254.671,-0.717949
5.615,254.688,-0.718321
5.61667,254.704,-0.718618
5.61833,254.721,-0.718859
5.62,254.737,-0.719034
5.62167,254.754,-0.719162
5.62333,254.77,-0.719272
5.625,254.786,-0.719413
5.62667,254.803,-0.719541
5.62833,254.819,-0.719653
5.63,254.836,-0.719793
5.63167,254.852,-0.719979
5.63333,254.868,-0.720168
5.635,254.885,-0.720286
5.63667,254.902,-0.72039
5.63833,254.918,-0.720516
5.64,254.935,-0.720644
5.64167,254.951,-0.720738
5.64333,254.967,-0.720843
5.645,254.984,-0.720929
5.64667,255,-0.720999
5.64833,255.017,-0.721068
5.65,255.033,-0.721143
5.65167,255.05,-0.721215
5.65333,255.067,-0.721296
5.655,255.083,-0.721383
5.65667,255.099,-0.72148
5.65833,255.116,-0.721579
5.66,255.132,-0.721678
5.66167,255.149,-0.721779
5.66333,255.165,-0.721879
5.665,255.182,-0.721969
5.66667,255.198,-0.72205
5.66833,255.215,-0.722137
5.67,255.232,-0.722225
5.67167,255.248,-0.722316
5.67333,255.265,-0.722414
5.675,255.281,-0.722518
5.67667,255.297,-0.722637
5.67833,255.314,-0.722778
5.68,255.331,-0.722994
5.68167,255.347,-0.723195
5.68333,255.364,-0.723406
5.685,255.38,-0.723608
5.68667,255.397,-0.723724
5.68833,255.413,-0.72384
5.69,255.43,-0.723938
5.69167,255.446,-0.724012
5.69333,255.463,-0.724077
5.695,255.479,-0.724134
5.69667,255.496,-0.724197
5.69833,255.512,-0.724268
5.7,255.529,-0.724337
5.70167,255.545,-0.724417
5.70333,255.562,-0.724515
5.705,255.578,-0.724621
5.70667,255.594,-0.724735
5.70833,255.611,-0.724856
5.71,255.627,-0.724969
5.71167,255.644,-0.725116
5.71333,255.66,-0.725226
5.715,255.677,-0.725318
5.71667,255.694,-0.725408
5.71833,255.711,-0.725505
5.72,255.727,-0.725601
5.72167,255.743,-0.725702
5.72333,255.76,-0.725816
5.725,255.776,-0.725931
5.72667,255.793,-0.726048
5.72833,255.809,-0.72624
5.73,255.826,-0.726541
5.73167,255.842,-0.726807
5.73333,255.859,-0.726927
5.735,255.875,-0.727036
5.73667,255.892,-0.727134
5.73833,255.908,-0.727226
5.74,255.925,-0.727314
5.74167,255.942,-0.727407
5.74333,255.958,-0.727499
5.745,255.974,-0.727588
5.74667,255.991,-0.72769
5.74833,256.008,-0.727793
5.75,256.024,-0.727899
5.75167,256.041,-0.728004
5.75333,256.057,-0.728108
5.755,256.073,-0.728214
5.75667,256.09,-0.728317
5.75833,256.106,-0.72842
5.76,256.123,-0.728525
5.76167,256.139,-0.728636
5.76333,256.156,-0.728742
5.765,256.173,-0.728851
5.76667,256.189,-0.728962
5.76833,256.206,-0.729069
5.77,256.222,-0.729174
5.77167,256.239,-0.72927
5.77333,256.255,-0.729364
5.775,256.272,-0.72945
5.77667,256.288,-0.729529
5.77833,256.305,-0.729606
5.78,256.321,-0.729688
5.78167,256.338,-0.72977
5.78333,256.354,-0.729858
5.785,256.371,-0.729953
5.78667,256.388,-0.730059
5.78833,256.404,-0.730176
5.79,256.421,-0.730362
5.79167,256.437,-0.730661
5.79333,256.453,-0.730907
5.795,256.47,-0.731081
5.79667,256.487,-0.731202
5.79833,256.503,-0.731317
5.8,256.519,-0.731428
5.80167,256.536,-0.731518
5.80333,256.552,-0.731579
5.805,256.569,-0.73164
5.80667,256.586,-0.7317
5.80833,256.602,-0.731764
5.81,256.619,-0.731824
5.81167,256.635,-0.731885
5.81333,256.652,-0.73195
5.815,256.668,-0.732019
5.81667,256.685,-0.732087
5.81833,256.702,-0.732164
5.82,256.718,-0.732236
5.82167,256.734,-0.732305
5.82333,256.751,-0.732375
5.825,256.768,-0.732449
5.82667,256.784,-0.732521
5.82833,256.801,-0.732591
5.83,256.817,-0.73266
5.83167,256.833,-0.732732
5.83333,256.85,-0.732807
5.835,256.867,-0.732887
5.83667,256.883,-0.732973
5.83833,256.9,-0.73306
5.84,256.916,-0.733156
5.84167,256.933,-0.733257
5.84333,256.95,-0.733368
5.845,256.966,-0.733569
5.84667,256.983,-0.733679
5.84833,256.999,-0.733784
5.85,257.015,-0.733887
5.85167,257.032,-0.733978
5.85333,257.049,-0.734059
5.855,257.065,-0.734136
5.85667,257.082,-0.734213
5.85833,257.098,-0.734293
5.86,257.115,-0.734375
5.86167,257.131,-0.734462
5.86333,257.148,-0.734548
5.865,257.165,-0.734641
5.86667,257.181,-0.734741
5.86833,257.198,-0.734847
5.87,257.214,-0.734954
5.87167,257.231,-0.735061
5.87333,257.247,-0.735164
5.875,257.264,-0.735258
5.87667,257.28,-0.735342
5.87833,257.297,-0.735423
5.88,257.313,-0.735497
5.88167,257.33,-0.735571
5.88333,257.347,-0.735646
5.885,257.364,-0.735728
5.88667,257.38,-0.735816
5.88833,257.396,-0.735908
5.89,257.413,-0.73601
5.89167,257.43,-0.736116
5.89333,257.446,-0.736226
5.895,257.463,-0.736334
5.89667,257.479,-0.73644
5.89833,257.496,-0.736563
5.9,257.513,-0.736672
5.90167,257.529,-0.736772
5.90333,257.546,-0.736879
5.905,257.562,-0.736992
5.90667,257.579,-0.737107
5.90833,257.595,-0.737216
5.91,257.612,-0.737322
5.91167,257.628,-0.737423
5.91333,257.645,-0.737521
5.915,257.662,-0.737614
5.91667,257.678,-0.737702
5.91833,257.695,-0.737785
5.92,257.711,-0.737867
5.92167,257.728,-0.73795
5.92333,257.744,-0.738028
5.925,257.761,-0.738113
5.92667,257.777,-0.738198
5.92833,257.794,-0.738272
5.93,257.811,-0.738351
5.93167,257.828,-0.73843
5.93333,257.844,-0.738517
5.935,257.86,-0.7386
5.93667,257.877,-0.738682
5.93833,257.894,-0.738763
5.94,257.91,-0.738838
5.94167,257.927,-0.738919
5.94333,257.943,-0.739001
5.945,257.959,-0.739082
5.94667,257.976,-0.739162
5.94833,257.992,-0.739252
5.95,258.009,-0.739335
5.95167,258.026,-0.739416
5.95333,258.042,-0.739492
5.955,258.059,-0.739575
5.95667,258.076,-0.739658
5.95833,258.092,-0.73973
5.96,258.109,-0.739809
5.96167,258.125,-0.739884
5.96333,258.142,-0.739965
5.965,258.158,-0.740051
5.96667,258.175,-0.740136
5.96833,258.192,-0.740221
5.97,258.208,-0.740308
5.97167,258.225,-0.740399
5.97333,258.241,-0.740482
5.975,258.258,-0.740563
5.97667,258.274,-0.740644
5.97833,258.29,-0.740723
5.98,258.307,-0.740803
5.98167,258.324,-0.740885
5.98333,258.34,-0.740966
5.985,258.357,-0.741051
5.98667,258.374,-0.741127
5.98833,258.39,-0.741203
5.99,258.407,-0.741279
5.99167,258.423,-0.741348
5.99333,258.44,-0.741414
5.995,258.456,-0.74148
5.99667,258.473,-0.741542
5.99833,258.489,-0.741603
6,258.506,-0.741671
6.00167,258.522,-0.741739
6.00333,258.539,-0.741815
6.005,258.556,-0.741889
6.00667,258.572,-0.741969
6.00833,258.589,-0.742035
6.01,258.605,-0.742092
6.01167,258.622,-0.742141
6.01333,258.638,-0.742185
6.015,258.655,-0.74222
6.01667,258.672,-0.742262
6.01833,258.688,-0.742307
6.02,258.705,-0.742359
6.02167,258.721,-0.742424
6.02333,258.738,-0.742503
6.025,258.754,-0.742588
6.02667,258.771,-0.742673
6.02833,258.788,-0.742756
6.03,258.804,-0.742845
6.03167,258.82,-0.742931
6.03333,258.838,-0.743013
6.035,258.854,-0.743101
6.03667,258.871,-0.743185
6.03833,258.888,-0.743265
6.04,258.905,-0.743339
6.04167,258.921,-0.74342
6.04333,258.937,-0.743501
6.045,258.954,-0.743577
6.04667,258.97,-0.743653
6.04833,258.987,-0.743727
6.05,259.004,-0.74379
6.05167,259.02,-0.743854
6.05333,259.037,-0.743919
6.055,259.053,-0.74397
6.05667,259.07,-0.744015
6.05833,259.087,-0.744058
6.06,259.104,-0.744106
6.06167,259.12,-0.744161
6.06333,259.137,-0.744219
6.065,259.153,-0.744281
6.06667,259.17,-0.744343
6.06833,259.186,-0.744412
6.07,259.203,-0.744477
6.07167,259.22,-0.74454
6.07333,259.236,-0.744604
6.075,259.252,-0.744672
6.07667,259.269,-0.744744
6.07833,259.286,-0.744819
6.08,259.302,-0.744898
6.08167,259.319,-0.744981
6.08333,259.335,-0.74507
6.085,259.352,-0.745175
6.08667,259.369,-0.745266
6.08833,259.386,-0.745347
6.09,259.402,-0.745425
6.09167,259.419,-0.745499
6.09333,259.436,-0.745566
6.095,259.452,-0.74563
6.09667,259.469,-0.745688
6.09833,259.485,-0.745737
6.1,259.502,-0.745793
6.10167,259.518,-0.745844
6.10333,259.535,-0.7459
6.105,259.551,-0.745954
6.10667,259.568,-0.746005
6.10833,259.585,-0.746061
6.11,259.601,-0.746112
6.11167,259.618,-0.746168
6.11333,259.634,-0.746224
6.115,259.651,-0.746281
6.11667,259.667,-0.746326
6.11833,259.684,-0.746375
6.12,259.701,-0.746432
6.12167,259.717,-0.746488
6.12333,259.734,-0.746546
6.125,259.751,-0.746608
6.12667,259.767,-0.746678
6.12833,259.784,-0.746747
6.13,259.801,-0.74681
6.13167,259.817,-0.746865
6.13333,259.833,-0.74692
6.135,259.85,-0.746966
6.13667,259.867,-0.74701
6.13833,259.884,-0.747062
6.14,259.9,-0.747109
6.14167,259.917,-0.747152
6.14333,259.933,-0.747209
6.145,259.95,-0.747274
6.14667,259.966,-0.747345
6.14833,259.983,-0.74743
6.15,260,-0.747514
6.15167,260.016,-0.747599
6.15333,260.033,-0.747677
6.155,260.049,-0.747749
6.15667,260.066,-0.747822
6.15833,260.083,-0.747888
6.16,260.099,-0.747948
6.16167,260.116,-0.748
6.16333,260.132,-0.748056
6.165,260.149,-0.748119
6.16667,260.166,-0.74818
6.16833,260.182,-0.748238
6.17,260.199,-0.7483
6.17167,260.215,-0.748359
6.17333,260.231,-0.748416
6.175,260.248,-0.748471
6.17667,260.265,-0.748529
6.17833,260.282,-0.748587
6.18,260.298,-0.748643
6.18167,260.315,-0.748693
6.18333,260.331,-0.748747
6.185,260.348,-0.748799
6.18667,260.365,-0.748855
6.18833,260.381,-0.748918
6.19,260.398,-0.748986
6.19167,260.414,-0.749063
6.19333,260.431,-0.749143
6.195,260.448,-0.749217
6.19667,260.465,-0.749283
6.19833,260.481,-0.749352
6.2,260.497,-0.749418
6.20167,260.514,-0.749479
6.20333,260.531,-0.749527
6.205,260.547,-0.749571
6.20667,260.564,-0.749611
6.20833,260.581,-0.749653
6.21,260.597,-0.749699
6.21167,260.614,-0.749738
6.21333,260.63,-0.749778
6.215,260.647,-0.749821
6.21667,260.664,-0.749871
6.21833,260.68,-0.749934
6.22,260.697,-0.749986
6.22167,260.714,-0.750031
6.22333,260.73,-0.750083
6.225,260.747,-0.750134
6.22667,260.764,-0.750181
6.22833,260.78,-0.750221
6.23,260.797,-0.75026
6.23167,260.814,-0.750299
6.23333,260.83,-0.750331
6.235,260.847,-0.750377
6.23667,260.863,-0.750426
6.23833,260.88,-0.750475
6.24,260.896,-0.750528
6.24167,260.913,-0.750588
6.24333,260.93,-0.750658
6.245,260.946,-0.75073
6.24667,260.963,-0.750801
6.24833,260.98,-0.750855
6.25,260.996,-0.750898
6.25167,261.013,-0.750933
6.25333,261.029,-0.750964
6.255,261.046,-0.750993
6.25667,261.062,-0.75102
6.25833,261.079,-0.751065
6.26,261.095,-0.751119
6.26167,261.112,-0.751172
6.26333,261.129,-0.751224
6.265,261.146,-0.751286
6.26667,261.163,-0.751345
6.26833,261.179,-0.751397
6.27,261.196,-0.751436
6.27167,261.212,-0.751477
6.27333,261.229,-0.751517
6.275,261.246,-0.751559
6.27667,261.262,-0.751611
6.27833,261.279,-0.75167
6.28,261.295,-0.751732
6.28167,261.312,-0.751797
6.28333,261.328,-0.751915
6.285,261.345,-0.75206
6.28667,261.362,-0.752217
6.28833,261.378,-0.752294
6.29,261.395,-0.752363
6.29167,261.412,-0.752431
6.29333,261.428,-0.752496
6.295,261.444,-0.752551
6.29667,261.461,-0.752604
6.29833,261.478,-0.75265
6.3,261.494,-0.752686
6.30167,261.511,-0.752716
6.30333,261.528,-0.752742
6.305,261.545,-0.752773
6.30667,261.561,-0.752801
6.30833,261.578,-0.752825
6.31,261.594,-0.752852
6.31167,261.611,-0.752887
6.31333,261.627,-0.752916
6.315,261.644,-0.752957
6.31667,261.661,-0.753007
6.31833,261.678,-0.75306
6.32,261.694,-0.753123
6.32167,261.711,-0.753184
6.32333,261.728,-0.753246
6.325,261.745,-0.753311
6.32667,261.761,-0.753379
6.32833,261.778,-0.753437
6.33,261.794,-0.75349
6.33167,261.811,-0.75353
6.33333,261.827,-0.753571
6.335,261.844,-0.753615
6.33667,261.86,-0.75366
6.33833,261.877,-0.753703
6.34,261.894,-0.75375
6.34167,261.91,-0.753796
6.34333,261.927,-0.753837
6.345,261.943,-0.75388
6.34667,261.96,-0.753915
6.34833,261.977,-0.753949
6.35,261.994,-0.753985
6.35167,262.01,-0.75403
6.35333,262.027,-0.754076
6.355,262.044,-0.754114
6.35667,262.06,-0.754155
6.35833,262.077,-0.754204
6.36,262.093,-0.754256
6.36167,262.11,-0.754306
6.36333,262.127,-0.754347
6.365,262.143,-0.754378
6.36667,262.159,-0.754406
6.36833,262.177,-0.754435
6.37,262.193,-0.754466
6.37167,262.21,-0.754502
6.37333,262.226,-0.754534
6.375,262.243,-0.75457
6.37667,262.26,-0.754611
6.37833,262.276,-0.754657
6.38,262.292,-0.75471
6.38167,262.309,-0.754767
6.38333,262.326,-0.754822
6.385,262.343,-0.754877
6.38667,262.359,-0.754938
6.38833,262.376,-0.754989
6.39,262.393,-0.755039
6.39167,262.409,-0.75509
6.39333,262.426,-0.755135
6.395,262.443,-0.75517
6.39667,262.459,-0.755205
6.39833,262.475,-0.755235
6.4,262.492,-0.755263
6.40167,262.509,-0.75529
6.40333,262.526,-0.755313
6.405,262.542,-0.755342
6.40667,262.559,-0.755369
6.40833,262.576,-0.755388
6.41,262.592,-0.755413
6.41167,262.609,-0.755448
6.41333,262.625,-0.75549
6.415,262.642,-0.755541
6.41667,262.659,-0.75559
6.41833,262.675,-0.755637
6.42,262.692,-0.755684
6.42167,262.709,-0.75573
6.42333,262.725,-0.755782
6.425,262.742,-0.755823
6.42667,262.758,-0.755861
6.42833,262.775,-0.755895
6.43,262.791,-0.755927
6.43167,262.808,-0.755966
6.43333,262.825,-0.755998
6.435,262.841,-0.756026
6.43667,262.858,-0.756048
6.43833,262.875,-0.756068
6.44,262.891,-0.756086
6.44167,262.908,-0.756108
6.44333,262.925,-0.756138
6.445,262.941,-0.756178
6.44667,262.958,-0.756224
6.44833,262.974,-0.756274
6.45,262.991,-0.756325
6.45167,263.008,-0.756375
6.45333,263.025,-0.756422
6.455,263.042,-0.756464
6.45667,263.058,-0.756502
6.45833,263.075,-0.756535
6.46,263.091,-0.756569
6.46167,263.108,-0.756601
6.46333,263.125,-0.756637
6.465,263.141,-0.756684
6.46667,263.158,-0.756732
6.46833,263.175,-0.75678
6.47,263.191,-0.756833
6.47167,263.208,-0.756889
6.47333,263.225,-0.756939
6.475,263.242,-0.75699
6.47667,263.258,-0.757037
6.47833,263.274,-0.757082
6.48,263.291,-0.757124
6.48167,263.308,-0.757154
6.48333,263.325,-0.757184
6.485,263.341,-0.757203
6.48667,263.358,-0.757217
6.48833,263.375,-0.757237
6.49,263.391,-0.757261
6.49167,263.408,-0.757286
6.49333,263.425,-0.757319
6.495,263.441,-0.757355
6.49667,263.458,-0.757382
6.49833,263.474,-0.757418
6.5,263.491,-0.757453
6.50167,263.508,-0.757494
6.50333,263.524,-0.757528
6.505,263.541,-0.757554
6.50667,263.558,-0.757578
6.50833,263.575,-0.757605
6.51,263.591,-0.757631
6.51167,263.608,-0.757653
6.51333,263.625,-0.757677
6.515,263.641,-0.757703
6.51667,263.658,-0.757737
6.51833,263.674,-0.757773
6.52,263.691,-0.757815
6.52167,263.708,-0.757855
6.52333,263.724,-0.757896
6.525,263.741,-0.757943
6.52667,263.757,-0.758006
6.52833,263.774,-0.758064
6.53,263.791,-0.758122
6.53167,263.807,-0.758173
6.53333,263.824,-0.758217
6.535,263.841,-0.758265
6.53667,263.858,-0.758316
6.53833,263.874,-0.758353
6.54,263.891,-0.758385
6.54167,263.907,-0.758421
6.54333,263.924,-0.75846
6.545,263.94,-0.758502
6.54667,263.957,-0.758541
6.54833,263.974,-0.758577
6.55,263.99,-0.758614
6.55167,264.007,-0.758645
6.55333,264.023,-0.75867
6.555,264.04,-0.75869
6.55667,264.056,-0.758705
6.55833,264.073,-0.758717
6.56,264.089,-0.758725
6.56167,264.106,-0.758732
6.56333,264.123,-0.758741
6.565,264.139,-0.758757
6.56667,264.156,-0.758783
6.56833,264.172,-0.758816
6.57,264.189,-0.758861
6.57167,264.206,-0.758905
6.57333,264.223,-0.758956
6.575,264.239,-0.759007
6.57667,264.256,-0.759054
6.57833,264.273,-0.75909
6.58,264.289,-0.759128
6.58167,264.306,-0.759175
6.58333,264.323,-0.759232
6.585,264.339,-0.759281
6.58667,264.356,-0.759333
6.58833,264.372,-0.759385
6.59,264.389,-0.759426
6.59167,264.406,-0.759467
6.59333,264.422,-0.759501
6.595,264.439,-0.759521
6.59667,264.456,-0.759528
6.59833,264.473,-0.759519
6.6,264.489,-0.7595
6.60167,264.506,-0.759476
6.60333,264.523,-0.759454
6.605,264.539,-0.759448
6.60667,264.556,-0.759454
6.60833,264.573,-0.759466
6.61,264.589,-0.759489
6.61167,264.606,-0.759527
6.61333,264.622,-0.759568
6.615,264.639,-0.75962
6.61667,264.656,-0.759671
6.61833,264.672,-0.759721
6.62,264.689,-0.759766
6.62167,264.706,-0.759802
6.62333,264.722,-0.759834
6.625,264.738,-0.759859
6.62667,264.755,-0.759874
6.62833,264.772,-0.759888
6.63,264.789,-0.759906
6.63167,264.805,-0.759919
6.63333,264.822,-0.759942
6.635,264.839,-0.759965
6.63667,264.855,-0.759992
6.63833,264.872,-0.760017
6.64,264.889,-0.760045
6.64167,264.905,-0.76008
6.64333,264.922,-0.760116
6.645,264.939,-0.760152
6.64667,264.955,-0.760188
6.64833,264.972,-0.760229
6.65,264.988,-0.760271
6.65167,265.005,-0.760321
6.65333,265.022,-0.760368
6.655,265.038,-0.76041
6.65667,265.055,-0.760446
6.65833,265.072,-0.760481
6.66,265.088,-0.760506
6.66167,265.105,-0.760527
6.66333,265.122,-0.760544
6.665,265.138,-0.760559
6.66667,265.155,-0.760584
6.66833,265.172,-0.760604
6.67,265.188,-0.760618
6.67167,265.205,-0.76064
6.67333,265.221,-0.76066
6.675,265.238,-0.760678
6.67667,265.255,-0.760701
6.67833,265.272,-0.760728
6.68,265.288,-0.760751
6.68167,265.305,-0.760771
6.68333,265.321,-0.760793
6.685,265.338,-0.760823
6.68667,265.355,-0.760851
6.68833,265.372,-0.760875
6.69,265.388,-0.760903
6.69167,265.405,-0.760936
6.69333,265.422,-0.760977
6.695,265.439,-0.761017
6.69667,265.455,-0.761069
6.69833,265.472,-0.761124
6.7,265.489,-0.761182
6.70167,265.505,-0.761237
6.70333,265.522,-0.761296
6.705,265.538,-0.761357
6.70667,265.555,-0.76142
6.70833,265.571,-0.76147
6.71,265.588,-0.761523
6.71167,265.604,-0.761566
6.71333,265.621,-0.761604
6.715,265.638,-0.761645
6.71667,265.655,-0.761681
6.71833,265.672,-0.761713
6.72,265.688,-0.761745
6.72167,265.705,-0.761768
6.72333,265.722,-0.761788
6.725,265.738,-0.761809
6.72667,265.755,-0.761826
6.72833,265.771,-0.761842
6.73,265.788,-0.761851
6.73167,265.805,-0.761861
6.73333,265.821,-0.761886
6.735,265.838,-0.761905
6.73667,265.854,-0.761931
6.73833,265.871,-0.761955
6.74,265.888,-0.761971
6.74167,265.904,-0.761987
6.74333,265.921,-0.762003
6.745,265.937,-0.762019
6.74667,265.954,-0.762037
6.74833,265.971,-0.762052
6.75,265.988,-0.762067
6.75167,266.005,-0.76209
6.75333,266.021,-0.762117
6.755,266.038,-0.762155
6.75667,266.054,-0.762199
6.75833,266.071,-0.762236
6.76,266.087,-0.762282
6.76167,266.104,-0.762324
6.76333,266.121,-0.762366
6.765,266.138,-0.76241
6.76667,266.154,-0.762451
6.76833,266.171,-0.762481
6.77,266.187,-0.762505
6.77167,266.204,-0.762526
6.77333,266.22,-0.762545
6.775,266.237,-0.76256
6.77667,266.254,-0.762586
6.77833,266.271,-0.76261
6.78,266.287,-0.762627
6.78167,266.304,-0.762651
6.78333,266.321,-0.762683
6.785,266.337,-0.762718
6.78667,266.354,-0.762745
6.78833,266.37,-0.762768
6.79,266.387,-0.762793
6.79167,266.404,-0.76281
6.79333,266.42,-0.762828
6.795,266.437,-0.762841
6.79667,266.454,-0.762857
6.79833,266.47,-0.762873
6.8,266.487,-0.762886
6.80167,266.504,-0.762901
6.80333,266.52,-0.762916
6.805,266.537,-0.762922
6.80667,266.554,-0.762927
6.80833,266.57,-0.76294
6.81,266.587,-0.762954
6.81167,266.604,-0.762969
6.81333,266.62,-0.76298
6.815,266.637,-0.762999
6.81667,266.653,-0.763031
6.81833,266.67,-0.763067
6.82,266.686,-0.763114
6.82167,266.703,-0.763164
6.82333,266.72,-0.763216
6.825,266.737,-0.763263
6.82667,266.753,-0.76331
6.82833,266.77,-0.763364
6.83,266.787,-0.763414
6.83167,266.803,-0.763461
6.83333,266.82,-0.763502
6.835,266.837,-0.763537
6.83667,266.853,-0.76357
6.83833,266.87,-0.763602
6.84,266.887,-0.763626
6.84167,266.904,-0.763646
6.84333,266.92,-0.763657
6.845,266.937,-0.763665
6.84667,266.953,-0.763673
6.84833,266.97,-0.763673
6.85,266.986,-0.763683
6.85167,267.004,-0.763703
6.85333,267.02,-0.763729
6.855,267.037,-0.763749
6.85667,267.053,-0.763767
6.85833,267.07,-0.763786
6.86,267.087,-0.76381
6.86167,267.104,-0.763836
6.86333,267.12,-0.763859
6.865,267.137,-0.763892
6.86667,267.153,-0.763917
6.86833,267.17,-0.763944
6.87,267.187,-0.763984
6.87167,267.203,-0.764031
6.87333,267.22,-0.764071
6.875,267.236,-0.76411
6.87667,267.253,-0.764136
6.87833,267.27,-0.76416
6.88,267.286,-0.764177
6.88167,267.303,-0.764185
6.88333,267.32,-0.764196
6.885,267.336,-0.764199
6.88667,267.353,-0.764201
6.88833,267.369,-0.764209
6.89,267.386,-0.76422
6.89167,267.402,-0.764245
6.89333,267.419,-0.764284
6.895,267.436,-0.764327
6.89667,267.453,-0.76438
6.89833,267.469,-0.764427
6.9,267.486,-0.76448
6.90167,267.503,-0.764531
6.90333,267.519,-0.764578
6.905,267.536,-0.764612
6.90667,267.553,-0.764648
6.90833,267.569,-0.764681
6.91,267.586,-0.764721
6.91167,267.602,-0.764756
6.91333,267.619,-0.764783
6.915,267.636,-0.764817
6.91667,267.653,-0.764849
6.91833,267.669,-0.764884
6.92,267.686,-0.764917
6.92167,267.703,-0.764943
6.92333,267.719,-0.76496
6.925,267.736,-0.764976
6.92667,267.753,-0.764999
6.92833,267.769,-0.765023
6.93,267.786,-0.765051
6.93167,267.803,-0.765075
6.93333,267.819,-0.765099
6.935,267.836,-0.765125
6.93667,267.853,-0.765155
6.93833,267.869,-0.765184
6.94,267.886,-0.765212
6.94167,267.902,-0.765234
6.94333,267.919,-0.765259
6.945,267.936,-0.765288
6.94667,267.952,-0.765319
6.94833,267.969,-0.765357
6.95,267.986,-0.765404
6.95167,268.002,-0.765457
6.95333,268.019,-0.765505
6.955,268.036,-0.765547
6.95667,268.052,-0.765582
6.95833,268.069,-0.765612
6.96,268.086,-0.765634
6.96167,268.102,-0.765651
6.96333,268.119,-0.765662
6.965,268.135,-0.765666
6.96667,268.153,-0.765674
6.96833,268.169,-0.765679
6.97,268.186,-0.765674
6.97167,268.202,-0.765672
6.97333,268.219,-0.765665
6.975,268.236,-0.765655
6.97667,268.252,-0.765653
6.97833,268.269,-0.765651
6.98,268.286,-0.765655
6.98167,268.302,-0.765665
6.98333,268.318,-0.765679
6.985,268.335,-0.7657
6.98667,268.352,-0.765737
6.98833,268.369,-0.765775
6.99,268.386,-0.765817
6.99167,268.402,-0.765856
6.99333,268.419,-0.765906
6.995,268.435,-0.765953
6.99667,268.452,-0.765988
6.99833,268.469,-0.766023
7,268.486,-0.766056
7.00167,268.502,-0.766089
7.00333,268.519,-0.766114
7.005,268.536,-0.766138
7.00667,268.552,-0.766152
7.00833,268.569,-0.766172
7.01,268.586,-0.766195
7.01167,268.602,-0.766212
7.01333,268.619,-0.766226
7.015,268.636,-0.766245
7.01667,268.652,-0.766273
7.01833,268.669,-0.7663
7.02,268.686,-0.766328
7.02167,268.703,-0.76636
7.02333,268.719,-0.766392
7.025,268.736,-0.766416
7.02667,268.752,-0.766439
7.02833,268.769,-0.766469
7.03,268.786,-0.766494
7.03167,268.803,-0.766511
7.03333,268.82,-0.766531
7.035,268.836,-0.766555
7.03667,268.853,-0.766576
7.03833,268.869,-0.766596
7.04,268.886,-0.766614
7.04167,268.903,-0.766643
7.04333,268.919,-0.766671
7.045,268.936,-0.7667
7.04667,268.952,-0.76673
7.04833,268.969,-0.766767
7.05,268.986,-0.766806
7.05167,269.002,-0.766844
7.05333,269.019,-0.766881
7.055,269.036,-0.766919
7.05667,269.052,-0.76694
7.05833,269.069,-0.76695
7.06,269.085,-0.766967
7.06167,269.102,-0.766984
7.06333,269.119,-0.766996
7.065,269.136,-0.767
7.06667,269.152,-0.767011
7.06833,269.169,-0.767026
7.07,269.185,-0.767038
7.07167,269.202,-0.767054
7.07333,269.219,-0.767081
7.075,269.236,-0.76711
7.07667,269.253,-0.76714
7.07833,269.269,-0.767173
7.08,269.287,-0.767209
7.08167,269.303,-0.767242
7.08333,269.32,-0.767269
7.085,269.336,-0.767289
7.08667,269.352,-0.767301
7.08833,269.369,-0.767302
7.09,269.386,-0.767296
7.09167,269.402,-0.767297
7.09333,269.419,-0.767299
7.095,269.436,-0.767298
7.09667,269.452,-0.767297
7.09833,269.469,-0.767297
7.1,269.485,-0.767294
7.10167,269.502,-0.767295
7.10333,269.518,-0.767301
7.105,269.536,-0.767309
7.10667,269.552,-0.76732
7.10833,269.569,-0.767332
7.11,269.585,-0.76734
7.11167,269.602,-0.767356
7.11333,269.619,-0.767375
7.115,269.635,-0.767409
7.11667,269.652,-0.767439
7.11833,269.669,-0.767469
7.12,269.685,-0.767508
7.12167,269.702,-0.767561
7.12333,269.719,-0.767626
7.125,269.735,-0.76767
7.12667,269.752,-0.767715
7.12833,269.769,-0.76775
7.13,269.785,-0.767784
7.13167,269.802,-0.767806
7.13333,269.818,-0.767826
7.135,269.835,-0.76784
7.13667,269.852,-0.767844
7.13833,269.869,-0.767847
7.14,269.885,-0.767856
7.14167,269.902,-0.767874
7.14333,269.919,-0.767892
7.145,269.936,-0.767902
7.14667,269.952,-0.767914
7.14833,269.969,-0.767941
7.15,269.986,-0.767976
7.15167,270.002,-0.76801
7.15333,270.018,-0.768042
7.155,270.035,-0.768075
7.15667,270.052,-0.768108
7.15833,270.069,-0.768138
7.16,270.085,-0.768164
7.16167,270.102,-0.768196
7.16333,270.118,-0.768219
7.165,270.135,-0.768233
7.16667,270.152,-0.768241
7.16833,270.169,-0.768257
7.17,270.185,-0.768275
7.17167,270.202,-0.768289
7.17333,270.218,-0.768304
7.175,270.235,-0.768316
7.17667,270.252,-0.768326
7.17833,270.269,-0.768343
7.18,270.285,-0.768361
7.18167,270.302,-0.76838
7.18333,270.318,-0.768392
7.185,270.335,-0.768408
7.18667,270.352,-0.768422
7.18833,270.369,-0.768434
7.19,270.385,-0.768443
7.19167,270.401,-0.768458
7.19333,270.418,-0.768475
7.195,270.435,-0.76849
7.19667,270.452,-0.768507
7.19833,270.468,-0.768531
7.2,270.485,-0.768559
7.20167,270.502,-0.76859
7.20333,270.518,-0.768615
7.205,270.536,-0.768642
7.20667,270.552,-0.768676
7.20833,270.569,-0.768701
7.21,270.586,-0.768723
7.21167,270.602,-0.768746
7.21333,270.619,-0.768766
7.215,270.635,-0.768786
7.21667,270.652,-0.768805
7.21833,270.668,-0.76883
7.22,270.685,-0.76885
7.22167,270.702,-0.768879
7.22333,270.718,-0.768909
7.225,270.735,-0.768947
7.22667,270.752,-0.768978
7.22833,270.769,-0.769005
7.23,270.785,-0.769022
7.23167,270.802,-0.76904
7.23333,270.818,-0.76906
7.235,270.835,-0.769068
7.23667,270.852,-0.769076
7.23833,270.869,-0.769093
7.24,270.885,-0.76911
7.24167,270.902,-0.769137
7.24333,270.918,-0.769172
7.245,270.935,-0.769205
7.24667,270.952,-0.769229
7.24833,270.969,-0.769248
7.25,270.985,-0.769263
7.25167,271.002,-0.769286
7.25333,271.019,-0.769298
7.255,271.035,-0.769301
7.25667,271.051,-0.769304
7.25833,271.069,-0.769302
7.26,271.086,-0.769303
7.26167,271.102,-0.769306
7.26333,271.119,-0.76931
7.265,271.136,-0.769312
7.26667,271.152,-0.769332
7.26833,271.168,-0.769365
7.27,271.186,-0.769406
7.27167,271.202,-0.769454
7.27333,271.219,-0.76953
7.275,271.235,-0.769596
7.27667,271.252,-0.769646
7.27833,271.269,-0.769695
7.28,271.285,-0.769734
7.28167,271.302,-0.769763
7.28333,271.319,-0.769778
7.285,271.335,-0.769789
7.28667,271.352,-0.769796
7.28833,271.369,-0.769815
7.29,271.385,-0.769835
7.29167,271.402,-0.769858
7.29333,271.418,-0.769894
7.295,271.435,-0.76993
7.29667,271.452,-0.769973
7.29833,271.468,-0.770016
7.3,271.485,-0.770066
7.30167,271.502,-0.770118
7.30333,271.519,-0.770155
7.305,271.535,-0.77019
7.30667,271.552,-0.770226
7.30833,271.568,-0.77026
7.31,271.585,-0.770286
7.31167,271.602,-0.770305
7.31333,271.618,-0.770312
7.315,271.635,-0.770315
7.31667,271.652,-0.770318
7.31833,271.668,-0.770324
7.32,271.685,-0.770329
7.32167,271.702,-0.770333
7.32333,271.719,-0.770346
7.325,271.735,-0.77036
7.32667,271.752,-0.77038
7.32833,271.768,-0.770398
7.33,271.785,-0.770417
7.33167,271.802,-0.770445
7.33333,271.818,-0.770472
7.335,271.835,-0.770509
7.33667,271.852,-0.770544
7.33833,271.868,-0.77058
7.34,271.885,-0.770619
7.34167,271.902,-0.770656
7.34333,271.918,-0.770681
7.345,271.935,-0.770704
7.34667,271.952,-0.770726
7.34833,271.968,-0.770734
7.35,271.985,-0.770746
7.35167,272.002,-0.770755
7.35333,272.018,-0.770761
7.355,272.035,-0.770772
7.35667,272.052,-0.770779
7.35833,272.068,-0.770784
7.36,272.085,-0.770781
7.36167,272.102,-0.770778
7.36333,272.119,-0.770768
7.365,272.135,-0.77076
7.36667,272.152,-0.770756
7.36833,272.168,-0.770769
7.37,272.185,-0.770794
7.37167,272.202,-0.770826
7.37333,272.218,-0.770874
7.375,272.235,-0.770951
7.37667,272.252,-0.77109
7.37833,272.268,-0.771239
7.38,272.285,-0.771368
7.38167,272.302,-0.771457
7.38333,272.318,-0.771504
7.385,272.335,-0.77155
7.38667,272.352,-0.771582
7.38833,272.368,-0.771605
7.39,272.385,-0.771617
7.39167,272.401,-0.77163
7.39333,272.418,-0.771631
7.395,272.434,-0.771632
7.39667,272.451,-0.771636
7.39833,272.468,-0.771642
7.4,272.485,-0.771649
7.40167,272.501,-0.771652
7.40333,272.518,-0.77166
7.405,272.534,-0.77167
7.40667,272.551,-0.771681
7.40833,272.567,-0.771698
7.41,272.584,-0.771728
7.41167,272.601,-0.771759
7.41333,272.617,-0.771794
7.415,272.634,-0.771833
7.41667,272.651,-0.771878
7.41833,272.668,-0.771922
7.42,272.685,-0.771959
7.42167,272.701,-0.771981
7.42333,272.718,-0.771992
7.425,272.735,-0.771999
7.42667,272.751,-0.772009
7.42833,272.768,-0.772014
7.43,272.785,-0.77202
7.43167,272.801,-0.772019
7.43333,272.818,-0.772012
7.435,272.834,-0.772007
7.43667,272.851,-0.772005
7.43833,272.868,-0.772009
7.44,272.884,-0.772025
7.44167,272.901,-0.772041
7.44333,272.918,-0.772068
7.445,272.934,-0.772101
7.44667,272.951,-0.772138
7.44833,272.968,-0.772182
7.45,272.984,-0.772223
7.45167,273.001,-0.772265
7.45333,273.017,-0.7723
7.455,273.034,-0.772327
7.45667,273.051,-0.772337
7.45833,273.067,-0.772341
7.46,273.084,-0.772344
7.46167,273.101,-0.772344
7.46333,273.117,-0.772343
7.465,273.133,-0.772351
7.46667,273.151,-0.772367
7.46833,273.167,-0.772383
7.47,273.184,-0.772408
7.47167,273.201,-0.77244
7.47333,273.217,-0.772473
7.475,273.234,-0.772507
7.47667,273.251,-0.772539
7.47833,273.268,-0.772574
7.48,273.284,-0.772609
7.48167,273.301,-0.772631
7.48333,273.318,-0.77265
7.485,273.334,-0.772669
7.48667,273.351,-0.772686
7.48833,273.368,-0.772709
7.49,273.384,-0.77274
7.49167,273.401,-0.772773
7.49333,273.417,-0.772805
7.495,273.434,-0.772831
7.49667,273.45,-0.772854
7.49833,273.467,-0.772883
7.5,273.483,-0.772916
7.50167,273.5,-0.772938
7.50333,273.517,-0.772956
7.505,273.534,-0.772971
7.50667,273.55,-0.772986
7.50833,273.567,-0.773006
7.51,273.584,-0.773027
7.51167,273.6,-0.773039
7.51333,273.617,-0.77305
7.515,273.634,-0.773064
7.51667,273.65,-0.773085
7.51833,273.667,-0.773109
7.52,273.684,-0.773134
7.52167,273.7,-0.773169
7.52333,273.717,-0.773216
7.525,273.734,-0.773262
7.52667,273.75,-0.773301
7.52833,273.767,-0.773338
7.53,273.783,-0.773375
7.53167,273.8,-0.773408
7.53333,273.817,-0.773428
7.535,273.834,-0.773441
7.53667,273.85,-0.773447
7.53833,273.867,-0.773448
7.54,273.883,-0.773449
7.54167,273.9,-0.773452
7.54333,273.917,-0.773455
7.545,273.933,-0.773459
7.54667,273.95,-0.773469
7.54833,273.966,-0.773483
7.55,273.983,-0.773499
7.55167,274,-0.77351
7.55333,274.017,-0.773523
7.555,274.033,-0.773536
7.55667,274.05,-0.773549
7.55833,274.067,-0.773568
7.56,274.083,-0.773589
7.56167,274.1,-0.773604
7.56333,274.117,-0.773617
7.565,274.133,-0.77363
7.56667,274.15,-0.773649
7.56833,274.166,-0.773672
7.57,274.183,-0.773695
7.57167,274.2,-0.773718
7.57333,274.216,-0.773742
7.575,274.232,-0.773764
7.57667,274.249,-0.773785
7.57833,274.266,-0.7738
7.58,274.282,-0.773815
7.58167,274.299,-0.773841
7.58333,274.316,-0.773865
7.585,274.332,-0.773886
7.58667,274.349,-0.773916
7.58833,274.366,-0.773953
7.59,274.382,-0.774001
7.59167,274.399,-0.774039
7.59333,274.416,-0.774073
7.595,274.432,-0.774103
7.59667,274.449,-0.774122
7.59833,274.465,-0.774143
7.6,274.482,-0.774157
7.60167,274.498,-0.774162
7.60333,274.515,-0.774166
7.605,274.532,-0.774168
7.60667,274.548,-0.774172
7.60833,274.565,-0.77418
7.61,274.582,-0.77419
7.61167,274.598,-0.7742
7.61333,274.615,-0.774208
7.615,274.632,-0.774225
7.61667,274.649,-0.774249
7.61833,274.665,-0.774271
7.62,274.682,-0.774286
7.62167,274.698,-0.774303
7.62333,274.715,-0.774328
7.625,274.732,-0.774354
7.62667,274.748,-0.774368
7.62833,274.765,-0.774392
7.63,274.782,-0.774429
7.63167,274.798,-0.774455
7.63333,274.815,-0.774486
7.635,274.832,-0.77451
7.63667,274.849,-0.774538
7.63833,274.865,-0.774563
7.64,274.882,-0.774584
7.64167,274.899,-0.774604
7.64333,274.915,-0.774622
7.645,274.932,-0.774639
7.64667,274.949,-0.774657
7.64833,274.965,-0.774668
7.65,274.982,-0.774683
7.65167,274.998,-0.774706
7.65333,275.015,-0.774727
7.655,275.032,-0.774739
7.65667,275.049,-0.774746
7.65833,275.065,-0.774753
7.66,275.082,-0.774762
7.66167,275.099,-0.774775
7.66333,275.115,-0.774796
7.665,275.132,-0.774822
7.66667,275.148,-0.774833
7.66833,275.165,-0.774857
7.67,275.181,-0.774895
7.67167,275.198,-0.774938
7.67333,275.215,-0.774988
7.675,275.232,-0.775039
7.67667,275.249,-0.775105
7.67833,275.265,-0.775168
7.68,275.282,-0.775228
7.68167,275.299,-0.775281
7.68333,275.315,-0.775337
7.685,275.332,-0.77539
7.68667,275.349,-0.775437
7.68833,275.365,-0.775483
7.69,275.382,-0.77552
7.69167,275.399,-0.775547
7.69333,275.415,-0.77557
7.695,275.432,-0.775582
7.69667,275.449,-0.775596
7.69833,275.465,-0.775614
7.7,275.481,-0.775638
7.70167,275.498,-0.775659
7.70333,275.515,-0.775677
7.705,275.531,-0.7757
7.70667,275.548,-0.775735
7.70833,275.565,-0.775777
7.71,275.582,-0.77582
7.71167,275.598,-0.775861
7.71333,275.615,-0.775903
7.715,275.632,-0.775941
7.71667,275.648,-0.775982
7.71833,275.665,-0.77602
7.72,275.682,-0.776046
7.72167,275.699,-0.77606
7.72333,275.715,-0.776069
7.725,275.732,-0.776079
7.72667,275.749,-0.776093
7.72833,275.765,-0.776104
7.73,275.782,-0.776114
7.73167,275.798,-0.776125
7.73333,275.815,-0.776142
7.735,275.832,-0.776165
7.73667,275.848,-0.776189
7.73833,275.865,-0.776208
7.74,275.882,-0.776223
7.74167,275.898,-0.776244
7.74333,275.915,-0.776259
7.745,275.931,-0.776266
7.74667,275.948,-0.776285
7.74833,275.965,-0.776306
7.75,275.981,-0.776328
7.75167,275.998,-0.776357
7.75333,276.014,-0.776386
7.755,276.031,-0.77642
7.75667,276.048,-0.776456
7.75833,276.065,-0.776491
7.76,276.082,-0.776518
7.76167,276.098,-0.776539
7.76333,276.115,-0.776548
7.765,276.132,-0.776565
7.76667,276.148,-0.776588
7.76833,276.165,-0.776602
7.77,276.182,-0.776628
7.77167,276.198,-0.776651
7.77333,276.215,-0.776679
7.775,276.232,-0.776705
7.77667,276.249,-0.776734
7.77833,276.265,-0.776763
7.78,276.282,-0.776793
7.78167,276.298,-0.77683
7.78333,276.315,-0.776877
7.785,276.331,-0.776925
7.78667,276.348,-0.776974
7.78833,276.365,-0.777017
7.79,276.381,-0.77706
7.79167,276.398,-0.777097
7.79333,276.415,-0.77712
7.795,276.432,-0.777131
7.79667,276.448,-0.777137
7.79833,276.465,-0.777152
7.8,276.481,-0.777179
7.80167,276.498,-0.777211
7.80333,276.515,-0.777238
7.805,276.532,-0.777264
7.80667,276.548,-0.777287
7.80833,276.565,-0.777319
7.81,276.582,-0.777346
7.81167,276.598,-0.777375
7.81333,276.615,-0.777395
7.815,276.632,-0.777411
7.81667,276.648,-0.777428
7.81833,276.665,-0.777452
7.82,276.682,-0.777474
7.82167,276.698,-0.777497
7.82333,276.715,-0.777516
7.825,276.731,-0.777531
7.82667,276.748,-0.777549
7.82833,276.764,-0.777571
7.83,276.781,-0.777595
7.83167,276.798,-0.777621
7.83333,276.814,-0.777649
7.835,276.831,-0.777684
7.83667,276.848,-0.777719
7.83833,276.864,-0.777752
7.84,276.881,-0.777794
7.84167,276.898,-0.777837
7.84333,276.914,-0.777878
7.845,276.931,-0.777919
7.84667,276.948,-0.777958
7.84833,276.964,-0.777998
7.85,276.981,-0.778032
7.85167,276.998,-0.778065
7.85333,277.015,-0.778095
7.855,277.031,-0.778123
7.85667,277.048,-0.77815
7.85833,277.064,-0.778177
7.86,277.081,-0.7782
7.86167,277.098,-0.778227
7.86333,277.114,-0.778252
7.865,277.131,-0.778279
7.86667,277.148,-0.7783
7.86833,277.164,-0.778324
7.87,277.181,-0.778351
7.87167,277.197,-0.778375
7.87333,277.214,-0.778394
7.875,277.231,-0.778412
7.87667,277.247,-0.778428
7.87833,277.264,-0.778443
7.88,277.281,-0.778462
7.88167,277.297,-0.778485
7.88333,277.314,-0.778508
7.885,277.331,-0.778535
7.88667,277.347,-0.778558
7.88833,277.364,-0.77859
7.89,277.38,-0.778619
7.89167,277.397,-0.778644
7.89333,277.414,-0.778673
7.895,277.43,-0.778712
7.89667,277.447,-0.778752
7.89833,277.464,-0.778796
7.9,277.48,-0.778841
7.90167,277.497,-0.778884
7.90333,277.514,-0.778931
7.905,277.53,-0.778975
7.90667,277.547,-0.779019
7.90833,277.564,-0.779053
7.91,277.58,-0.779072
7.91167,277.597,-0.779087
7.91333,277.614,-0.779089
7.915,277.63,-0.779084
7.91667,277.647,-0.779077
7.91833,277.663,-0.779072
7.92,277.68,-0.779074
7.92167,277.697,-0.779083
7.92333,277.713,-0.779097
7.925,277.73,-0.779117
7.92667,277.747,-0.779144
7.92833,277.763,-0.77918
7.93,277.78,-0.779217
7.93167,277.797,-0.779255
7.93333,277.813,-0.779294
7.935,277.83,-0.779341
7.93667,277.847,-0.779396
7.93833,277.863,-0.779471
7.94,277.88,-0.779529
7.94167,277.896,-0.779577
7.94333,277.913,-0.779623
7.945,277.929,-0.779654
7.94667,277.946,-0.779678
7.94833,277.963,-0.779689
7.95,277.98,-0.779689
7.95167,277.996,-0.779685
7.95333,278.013,-0.779691
7.955,278.03,-0.779707
7.95667,278.046,-0.779725
7.95833,278.063,-0.77975
7.96,278.079,-0.779784
7.96167,278.096,-0.779825
7.96333,278.113,-0.779868
7.965,278.129,-0.77991
7.96667,278.146,-0.779954
7.96833,278.163,-0.779999
7.97,278.18,-0.78004
7.97167,278.197,-0.780076
7.97333,278.213,-0.780108
7.975,278.23,-0.780138
7.97667,278.246,-0.780172
7.97833,278.263,-0.780208
7.98,278.279,-0.780239
7.98167,278.296,-0.780274
7.98333,278.313,-0.780303
7.985,278.329,-0.780333
7.98667,278.346,-0.780365
7.98833,278.363,-0.780392
7.99,278.38,-0.780414
7.99167,278.396,-0.780419
7.99333,278.413,-0.780419
7.995,278.43,-0.780429
7.99667,278.446,-0.780436
7.99833,278.463,-0.780444
8,278.479,-0.780459
8.00167,278.496,-0.780472
8.00333,278.513,-0.780492
8.005,278.529,-0.780519
8.00667,278.547,-0.780553
8.00833,278.563,-0.780576
8.01,278.58,-0.780606
8.01167,278.596,-0.780634
8.01333,278.613,-0.780667
8.015,278.63,-0.780698
8.01667,278.646,-0.780732
8.01833,278.663,-0.78076
8.02,278.679,-0.780788
8.02167,278.696,-0.780824
8.02333,278.712,-0.780863
8.025,278.729,-0.780906
8.02667,278.746,-0.780949
8.02833,278.762,-0.780983
8.03,278.779,-0.781005
8.03167,278.796,-0.781024
8.03333,278.813,-0.781049
8.035,278.83,-0.781071
8.03667,278.846,-0.781088
8.03833,278.863,-0.78111
8.04,278.879,-0.781141
8.04167,278.896,-0.781185
8.04333,278.913,-0.781241
8.045,278.929,-0.781297
8.04667,278.946,-0.781353
8.04833,278.962,-0.781414
8.05,278.979,-0.781471
8.05167,278.996,-0.781524
8.05333,279.012,-0.781569
8.055,279.029,-0.781604
8.05667,279.046,-0.78163
8.05833,279.062,-0.78165
8.06,279.079,-0.781661
8.06167,279.095,-0.781669
8.06333,279.112,-0.781675
8.065,279.129,-0.781684
8.06667,279.146,-0.781698
8.06833,279.163,-0.781725
8.07,279.18,-0.781754
8.07167,279.196,-0.781787
8.07333,279.213,-0.781823
8.075,279.23,-0.781866
8.07667,279.246,-0.781912
8.07833,279.262,-0.781949
8.08,279.279,-0.781982
8.08167,279.296,-0.782014
8.08333,279.312,-0.782042
8.085,279.329,-0.782065
8.08667,279.345,-0.782089
8.08833,279.362,-0.782121
8.09,279.379,-0.782146
8.09167,279.395,-0.782181
8.09333,279.412,-0.782211
8.095,279.429,-0.782238
8.09667,279.445,-0.78226
8.09833,279.462,-0.782273
8.1,279.479,-0.782287
8.10167,279.495,-0.782306
8.10333,279.512,-0.782324
8.105,279.529,-0.782335
8.10667,279.545,-0.782352
8.10833,279.562,-0.782378
8.11,279.579,-0.782412
8.11167,279.595,-0.78245
8.11333,279.612,-0.782492
8.115,279.629,-0.782536
8.11667,279.645,-0.782574
8.11833,279.662,-0.782614
8.12,279.679,-0.782646
8.12167,279.695,-0.782673
8.12333,279.712,-0.782696
8.125,279.729,-0.782717
8.12667,279.745,-0.782741
8.12833,279.762,-0.782775
8.13,279.779,-0.782804
8.13167,279.795,-0.782842
8.13333,279.812,-0.782884
8.135,279.829,-0.782924
8.13667,279.845,-0.782956
8.13833,279.861,-0.782984
8.14,279.878,-0.78301
8.14167,279.895,-0.783026
8.14333,279.911,-0.783042
8.145,279.928,-0.783053
8.14667,279.945,-0.783059
8.14833,279.962,-0.783065
8.15,279.978,-0.783076
8.15167,279.995,-0.783091
8.15333,280.012,-0.783104
8.155,280.028,-0.78312
8.15667,280.045,-0.783137
8.15833,280.062,-0.783158
8.16,280.079,-0.783171
8.16167,280.095,-0.78319
8.16333,280.112,-0.783205
8.165,280.129,-0.783223
8.16667,280.145,-0.783251
8.16833,280.162,-0.783285
8.17,280.179,-0.783324
8.17167,280.195,-0.783368
8.17333,280.212,-0.783419
8.175,280.229,-0.783465
8.17667,280.245,-0.783506
8.17833,280.262,-0.783542
8.18,280.278,-0.783574
8.18167,280.295,-0.783605
8.18333,280.312,-0.783621
8.185,280.328,-0.783626
8.18667,280.345,-0.783633
8.18833,280.362,-0.783635
8.19,280.379,-0.78365
8.19167,280.395,-0.783675
8.19333,280.412,-0.783706
8.195,280.428,-0.783744
8.19667,280.445,-0.783797
8.19833,280.462,-0.783856
8.2,280.478,-0.78393
8.20167,280.495,-0.78399
8.20333,280.512,-0.784051
8.205,280.528,-0.784101
8.20667,280.545,-0.78414
8.20833,280.562,-0.784174
8.21,280.579,-0.7842
8.21167,280.595,-0.784218
8.21333,280.612,-0.784227
8.215,280.628,-0.784244
8.21667,280.645,-0.784267
8.21833,280.662,-0.784297
8.22,280.678,-0.784326
8.22167,280.695,-0.784357
8.22333,280.712,-0.784391
8.225,280.728,-0.784438
8.22667,280.745,-0.784483
8.22833,280.762,-0.784527
8.23,280.778,-0.784558
8.23167,280.795,-0.784581
8.23333,280.811,-0.784604
8.235,280.828,-0.784628
8.23667,280.845,-0.784648
8.23833,280.861,-0.784666
8.24,280.878,-0.784687
8.24167,280.895,-0.784721
8.24333,280.911,-0.784764
8.245,280.928,-0.784805
8.24667,280.945,-0.784843
8.24833,280.962,-0.784875
8.25,280.978,-0.784907
8.25167,280.995,-0.784932
8.25333,281.012,-0.784958
8.255,281.028,-0.78498
8.25667,281.045,-0.784994
8.25833,281.062,-0.785006
8.26,281.078,-0.785013
8.26167,281.095,-0.785024
8.26333,281.111,-0.785027
8.265,281.128,-0.78503
8.26667,281.145,-0.785046
8.26833,281.162,-0.785071
8.27,281.178,-0.785097
8.27167,281.195,-0.785121
8.27333,281.211,-0.785143
8.275,281.228,-0.785172
8.27667,281.245,-0.785202
8.27833,281.261,-0.78523
8.28,281.278,-0.785262
8.28167,281.295,-0.785296
8.28333,281.311,-0.785338
8.285,281.328,-0.785379
8.28667,281.345,-0.785427
8.28833,281.361,-0.78547
8.29,281.378,-0.785512
8.29167,281.395,-0.785546
8.29333,281.411,-0.785582
8.295,281.428,-0.785614
8.29667,281.444,-0.785641
8.29833,281.461,-0.785668
8.3,281.478,-0.785699
8.30167,281.495,-0.785729
8.30333,281.511,-0.785765
8.305,281.528,-0.785808
8.30667,281.545,-0.785848
8.30833,281.562,-0.785888
8.31,281.578,-0.785926
8.31167,281.595,-0.785959
8.31333,281.612,-0.785999
8.315,281.628,-0.786028
8.31667,281.645,-0.786058
8.31833,281.661,-0.786092
8.32,281.678,-0.786121
8.32167,281.694,-0.786147
8.32333,281.711,-0.786176
8.325,281.727,-0.786195
8.32667,281.744,-0.786213
8.32833,281.761,-0.786227
8.33,281.777,-0.786244
8.33167,281.794,-0.786264
8.33333,281.811,-0.786283
8.335,281.827,-0.786295
8.33667,281.844,-0.786313
8.33833,281.861,-0.786333
8.34,281.877,-0.786353
8.34167,281.894,-0.78638
8.34333,281.911,-0.786401
8.345,281.928,-0.786414
8.34667,281.944,-0.786421
8.34833,281.961,-0.786429
8.35,281.977,-0.786432
8.35167,281.994,-0.786443
8.35333,282.011,-0.78646
8.355,282.027,-0.786476
8.35667,282.044,-0.786501
8.35833,282.061,-0.786533
8.36,282.077,-0.786579
8.36167,282.094,-0.786629
8.36333,282.111,-0.786685
8.365,282.127,-0.786734
8.36667,282.144,-0.78678
8.36833,282.161,-0.786817
8.37,282.177,-0.786852
8.37167,282.194,-0.786875
8.37333,282.211,-0.786888
8.375,282.227,-0.786901
8.37667,282.244,-0.786903
8.37833,282.26,-0.786906
8.38,282.277,-0.786916
8.38167,282.294,-0.786936
8.38333,282.31,-0.786958
8.385,282.327,-0.786984
8.38667,282.344,-0.787014
8.38833,282.36,-0.787046
8.39,282.377,-0.787071
8.39167,282.393,-0.787094
8.39333,282.41,-0.78711
8.395,282.426,-0.787117
8.39667,282.443,-0.787115
8.39833,282.46,-0.787105
8.4,282.477,-0.787096
8.40167,282.493,-0.787087
8.40333,282.51,-0.787062
8.405,282.527,-0.787041
8.40667,282.543,-0.787025
8.40833,282.56,-0.787023
8.41,282.576,-0.787035
8.41167,282.593,-0.787055
8.41333,282.609,-0.787083
8.415,282.626,-0.787117
8.41667,282.643,-0.787163
8.41833,282.66,-0.787208
8.42,282.676,-0.787264
8.42167,282.693,-0.787308
8.42333,282.709,-0.787343
8.425,282.726,-0.787383
8.42667,282.743,-0.787424
8.42833,282.759,-0.787462
8.43,282.776,-0.7875
8.43167,282.793,-0.787529
8.43333,282.809,-0.787553
8.435,282.826,-0.787582
8.43667,282.843,-0.78761
8.43833,282.859,-0.787632
8.44,282.876,-0.787642
8.44167,282.893,-0.787648
8.44333,282.909,-0.787653
8.445,282.926,-0.787656
8.44667,282.943,-0.787664
8.44833,282.959,-0.787668
8.45,282.976,-0.787676
8.45167,282.993,-0.787684
8.45333,283.009,-0.78771
8.455,283.026,-0.787739
8.45667,283.042,-0.787775
8.45833,283.059,-0.787814
8.46,283.076,-0.787866
8.46167,283.093,-0.787923
8.46333,283.109,-0.788002
8.465,283.126,-0.788071
8.46667,283.142,-0.788119
8.46833,283.159,-0.788159
8.47,283.176,-0.788196
8.47167,283.193,-0.788228
8.47333,283.209,-0.788261
8.475,283.226,-0.788286
8.47667,283.243,-0.788303
8.47833,283.259,-0.788315
8.48,283.276,-0.788327
8.48167,283.292,-0.788336
8.48333,283.309,-0.788352
8.485,283.326,-0.788371
8.48667,283.343,-0.78839
8.48833,283.359,-0.788412
8.49,283.376,-0.788438
8.49167,283.392,-0.788461
8.49333,283.409,-0.788485
8.495,283.426,-0.788507
8.49667,283.442,-0.788529
8.49833,283.459,-0.788558
8.5,283.476,-0.788597
8.50167,283.492,-0.78863
8.50333,283.509,-0.788664
8.505,283.526,-0.788699
8.50667,283.542,-0.788738
8.50833,283.559,-0.788772
8.51,283.576,-0.788806
8.51167,283.592,-0.788841
8.51333,283.609,-0.788882
8.515,283.625,-0.788921
8.51667,283.642,-0.788961
8.51833,283.659,-0.789013
8.52,283.676,-0.789066
8.52167,283.692,-0.789118
8.52333,283.709,-0.789175
8.525,283.726,-0.789228
8.52667,283.742,-0.789269
8.52833,283.759,-0.789308
8.53,283.776,-0.789338
8.53167,283.793,-0.789366
8.53333,283.809,-0.789385
8.535,283.825,-0.789405
8.53667,283.842,-0.78942
8.53833,283.859,-0.789441
8.54,283.875,-0.789468
8.54167,283.892,-0.789498
8.54333,283.908,-0.789527
8.545,283.925,-0.789557
8.54667,283.942,-0.78958
8.54833,283.958,-0.789609
8.55,283.975,-0.789637
8.55167,283.992,-0.789661
8.55333,284.008,-0.789686
8.555,284.025,-0.789706
8.55667,284.042,-0.789726
8.55833,284.059,-0.789756
8.56,284.075,-0.789794
8.56167,284.092,-0.789842
8.56333,284.109,-0.7899
8.565,284.125,-0.789958
8.56667,284.142,-0.790001
8.56833,284.158,-0.790048
8.57,284.175,-0.790084
8.57167,284.192,-0.790109
8.57333,284.209,-0.79013
8.575,284.225,-0.790147
8.57667,284.242,-0.790165
8.57833,284.258,-0.790187
8.58,284.275,-0.790216
8.58167,284.292,-0.790247
8.58333,284.309,-0.790283
8.585,284.325,-0.790323
8.58667,284.342,-0.79037
8.58833,284.359,-0.790411
8.59,284.375,-0.790444
8.59167,284.392,-0.790476
8.59333,284.408,-0.7905
8.595,284.425,-0.790522
8.59667,284.442,-0.79054
8.59833,284.458,-0.790551
8.6,284.475,-0.79057
8.60167,284.492,-0.790588
8.60333,284.509,-0.790612
8.605,284.525,-0.790648
8.60667,284.542,-0.790684
8.60833,284.559,-0.790723
8.61,284.575,-0.790763
8.61167,284.592,-0.790801
8.61333,284.609,-0.790845
8.615,284.625,-0.79089
8.61667,284.642,-0.790929
8.61833,284.659,-0.790965
8.62,284.675,-0.791002
8.62167,284.691,-0.791044
8.62333,284.708,-0.791086
8.625,284.725,-0.791113
8.62667,284.742,-0.791136
8.62833,284.758,-0.791163
8.63,284.775,-0.79119
8.63167,284.792,-0.791216
8.63333,284.809,-0.791235
8.635,284.826,-0.791255
8.63667,284.842,-0.791287
8.63833,284.859,-0.791327
8.64,284.876,-0.791376
8.64167,284.892,-0.791427
8.64333,284.909,-0.791482
8.645,284.926,-0.79154
8.64667,284.942,-0.791605
8.64833,284.959,-0.791672
8.65,284.975,-0.791754
8.65167,284.991,-0.791822
8.65333,285.008,-0.791877
8.655,285.025,-0.791942
8.65667,285.042,-0.792007
8.65833,285.058,-0.792065
8.66,285.075,-0.792116
8.66167,285.092,-0.792164
8.66333,285.108,-0.792218
8.665,285.125,-0.792271
8.66667,285.141,-0.792321
8.66833,285.158,-0.792365
8.67,285.175,-0.792409
8.67167,285.192,-0.792448
8.67333,285.208,-0.792479
8.675,285.225,-0.792515
8.67667,285.241,-0.79255
8.67833,285.258,-0.792587
8.68,285.275,-0.792619
8.68167,285.291,-0.792658
8.68333,285.308,-0.792701
8.685,285.325,-0.792751
8.68667,285.341,-0.792802
8.68833,285.358,-0.792858
8.69,285.375,-0.792908
8.69167,285.392,-0.792945
8.69333,285.408,-0.792978
8.695,285.425,-0.793006
8.69667,285.441,-0.793021
8.69833,285.458,-0.793031
8.7,285.474,-0.793032
8.70167,285.491,-0.793029
8.70333,285.508,-0.793023
8.705,285.524,-0.793014
8.70667,285.541,-0.793006
8.70833,285.558,-0.793009
8.71,285.575,-0.793019
8.71167,285.591,-0.793034
8.71333,285.608,-0.793055
8.715,285.625,-0.793084
8.71667,285.642,-0.793114
8.71833,285.658,-0.79315
8.72,285.674,-0.793182
8.72167,285.691,-0.79321
8.72333,285.707,-0.793247
8.725,285.724,-0.793292
8.72667,285.741,-0.793334
8.72833,285.758,-0.793376
8.73,285.774,-0.793424
8.73167,285.791,-0.793473
8.73333,285.807,-0.793525
8.735,285.824,-0.793573
8.73667,285.841,-0.79362
8.73833,285.858,-0.793667
8.74,285.874,-0.793699
8.74167,285.891,-0.793723
8.74333,285.908,-0.793744
8.745,285.924,-0.793762
8.74667,285.941,-0.79378
8.74833,285.958,-0.793805
8.75,285.974,-0.793835
8.75167,285.99,-0.793873
8.75333,286.007,-0.793911
8.755,286.024,-0.793952
8.75667,286.041,-0.793988
8.75833,286.057,-0.794028
8.76,286.074,-0.794062
8.76167,286.091,-0.794096
8.76333,286.108,-0.794131
8.765,286.124,-0.794166
8.76667,286.141,-0.794205
8.76833,286.158,-0.794249
8.77,286.174,-0.794289
8.77167,286.191,-0.794328
8.77333,286.208,-0.794377
8.775,286.224,-0.794424
8.77667,286.241,-0.794469
8.77833,286.258,-0.794518
8.78,286.274,-0.794574
8.78167,286.291,-0.794631
8.78333,286.308,-0.794682
8.785,286.324,-0.794735
8.78667,286.341,-0.794787
8.78833,286.357,-0.794833
8.79,286.374,-0.79487
8.79167,286.391,-0.794906
8.79333,286.408,-0.794941
8.795,286.424,-0.794976
8.79667,286.441,-0.795013
8.79833,286.457,-0.79506
8.8,286.474,-0.795118
8.80167,286.49,-0.795178
8.80333,286.507,-0.795244
8.805,286.523,-0.795312
8.80667,286.54,-0.79537
8.80833,286.557,-0.795422
8.81,286.573,-0.795467
8.81167,286.59,-0.795506
8.81333,286.607,-0.795539
8.815,286.624,-0.795561
8.81667,286.64,-0.795585
8.81833,286.657,-0.795607
8.82,286.673,-0.795629
8.82167,286.69,-0.795652
8.82333,286.707,-0.79568
8.825,286.723,-0.795711
8.82667,286.74,-0.795743
8.82833,286.757,-0.795785
8.83,286.773,-0.795838
8.83167,286.79,-0.795899
8.83333,286.807,-0.795956
8.835,286.823,-0.796018
8.83667,286.84,-0.796085
8.83833,286.857,-0.796144
8.84,286.873,-0.796202
8.84167,286.89,-0.796256
8.84333,286.906,-0.796312
8.845,286.923,-0.796363
8.84667,286.94,-0.796413
8.84833,286.956,-0.796459
8.85,286.973,-0.796504
8.85167,286.99,-0.796551
8.85333,287.007,-0.796592
8.855,287.023,-0.79663
8.85667,287.04,-0.796664
8.85833,287.057,-0.796696
8.86,287.073,-0.796721
8.86167,287.09,-0.796747
8.86333,287.107,-0.796779
8.865,287.124,-0.796818
8.86667,287.14,-0.79687
8.86833,287.157,-0.79693
8.87,287.173,-0.796998
8.87167,287.19,-0.797069
8.87333,287.207,-0.797136
8.875,287.223,-0.797195
8.87667,287.24,-0.797242
8.87833,287.256,-0.797287
8.88,287.273,-0.797334
8.88167,287.289,-0.797382
8.88333,287.306,-0.797424
8.885,287.322,-0.797469
8.88667,287.339,-0.797519
8.88833,287.356,-0.797568
8.89,287.373,-0.797604
8.89167,287.39,-0.797633
8.89333,287.407,-0.797652
8.895,287.423,-0.797665
8.89667,287.44,-0.797672
8.89833,287.456,-0.797671
8.9,287.473,-0.797673
8.90167,287.49,-0.797689
8.90333,287.506,-0.797713
8.905,287.523,-0.797752
8.90667,287.54,-0.79781
8.90833,287.557,-0.797876
8.91,287.574,-0.797943
8.91167,287.59,-0.798001
8.91333,287.607,-0.798059
8.915,287.623,-0.798114
8.91667,287.64,-0.798161
8.91833,287.657,-0.798198
8.92,287.673,-0.798233
8.92167,287.69,-0.798271
8.92333,287.706,-0.798312
8.925,287.723,-0.798358
8.92667,287.739,-0.798401
8.92833,287.756,-0.798441
8.93,287.773,-0.798482
8.93167,287.789,-0.798523
8.93333,287.806,-0.798563
8.935,287.823,-0.798603
8.93667,287.839,-0.798649
8.93833,287.856,-0.798704
8.94,287.873,-0.798765
8.94167,287.889,-0.798831
8.94333,287.906,-0.798898
8.945,287.922,-0.79897
8.94667,287.939,-0.799066
8.94833,287.955,-0.799136
8.95,287.972,-0.799203
8.95167,287.989,-0.799273
8.95333,288.006,-0.799339
8.955,288.023,-0.799403
8.95667,288.039,-0.799459
8.95833,288.056,-0.799512
8.96,288.072,-0.799559
8.96167,288.089,-0.799609
8.96333,288.106,-0.799662
8.965,288.122,-0.799711
8.96667,288.139,-0.799765
8.96833,288.155,-0.799824
8.97,288.172,-0.799891
8.97167,288.189,-0.799952
8.97333,288.205,-0.800011
8.975,288.222,-0.800062
8.97667,288.239,-0.800107
8.97833,288.256,-0.80015
8.98,288.272,-0.800186
8.98167,288.288,-0.800216
8.98333,288.305,-0.800247
8.985,288.321,-0.800284
8.98667,288.339,-0.800336
8.98833,288.355,-0.800389
8.99,288.372,-0.800442
8.99167,288.389,-0.800494
8.99333,288.405,-0.80054
8.995,288.422,-0.800587
8.99667,288.438,-0.800633
8.99833,288.455,-0.800679
9,288.472,-0.800718
9.00167,288.488,-0.800761
9.00333,288.505,-0.800815
9.005,288.521,-0.800862
9.00667,288.538,-0.800907
9.00833,288.555,-0.800952
9.01,288.572,-0.800989
9.01167,288.588,-0.801024
9.01333,288.605,-0.801053
9.015,288.622,-0.801085
9.01667,288.638,-0.80112
9.01833,288.655,-0.801153
9.02,288.671,-0.801194
9.02167,288.688,-0.801239
9.02333,288.705,-0.801296
9.025,288.721,-0.801369
9.02667,288.738,-0.80147
9.02833,288.755,-0.801614
9.03,288.771,-0.801749
9.03167,288.788,-0.801892
9.03333,288.805,-0.801966
9.035,288.821,-0.802027
9.03667,288.838,-0.802082
9.03833,288.855,-0.802136
9.04,288.871,-0.802174
9.04167,288.887,-0.802209
9.04333,288.904,-0.802251
9.045,288.921,-0.802295
9.04667,288.938,-0.802352
9.04833,288.954,-0.802411
9.05,288.971,-0.802471
9.05167,288.988,-0.802533
9.05333,289.005,-0.802598
9.055,289.021,-0.802656
9.05667,289.038,-0.802712
9.05833,289.055,-0.802763
9.06,289.071,-0.802811
9.06167,289.088,-0.802858
9.06333,289.105,-0.802903
9.065,289.121,-0.802944
9.06667,289.138,-0.802986
9.06833,289.155,-0.803022
9.07,289.171,-0.803063
9.07167,289.188,-0.803111
9.07333,289.204,-0.803161
9.075,289.221,-0.803216
9.07667,289.238,-0.803277
9.07833,289.255,-0.803338
9.08,289.271,-0.803398
9.08167,289.288,-0.803458
9.08333,289.304,-0.803525
9.085,289.321,-0.803583
9.08667,289.338,-0.803642
9.08833,289.354,-0.8037
9.09,289.371,-0.803755
9.09167,289.388,-0.803803
9.09333,289.405,-0.803849
9.095,289.421,-0.803897
9.09667,289.438,-0.80394
9.09833,289.454,-0.803983
9.1,289.471,-0.804029
9.10167,289.487,-0.804087
9.10333,289.504,-0.804141
9.105,289.521,-0.80419
9.10667,289.537,-0.804244
9.10833,289.554,-0.804295
9.11,289.571,-0.80435
9.11167,289.588,-0.80441
9.11333,289.604,-0.80446
9.115,289.621,-0.804506
9.11667,289.638,-0.804551
9.11833,289.654,-0.804599
9.12,289.671,-0.804648
9.12167,289.688,-0.804695
9.12333,289.704,-0.804749
9.125,289.721,-0.804803
9.12667,289.738,-0.804854
9.12833,289.754,-0.80491
9.13,289.771,-0.804969
9.13167,289.788,-0.805029
9.13333,289.805,-0.805078
9.135,289.821,-0.805121
9.13667,289.838,-0.805163
9.13833,289.854,-0.80521
9.14,289.871,-0.80525
9.14167,289.888,-0.805287
9.14333,289.905,-0.805324
9.145,289.921,-0.80536
9.14667,289.938,-0.805391
9.14833,289.954,-0.805428
9.15,289.971,-0.805475
9.15167,289.987,-0.805523
9.15333,290.004,-0.805575
9.155,290.021,-0.80564
9.15667,290.037,-0.805715
9.15833,290.054,-0.805791
9.16,290.071,-0.805867
9.16167,290.087,-0.805937
9.16333,290.104,-0.806009
9.165,290.121,-0.806072
9.16667,290.137,-0.806134
9.16833,290.154,-0.806193
9.17,290.171,-0.80625
9.17167,290.188,-0.806309
9.17333,290.204,-0.806367
9.175,290.221,-0.806428
9.17667,290.238,-0.806489
9.17833,290.254,-0.806546
9.18,290.271,-0.806608
9.18167,290.288,-0.806673
9.18333,290.304,-0.80674
9.185,290.321,-0.8068
9.18667,290.338,-0.806859
9.18833,290.354,-0.806917
9.19,290.37,-0.806973
9.19167,290.387,-0.807025
9.19333,290.404,-0.807078
9.195,290.421,-0.80714
9.19667,290.437,-0.807207
9.19833,290.454,-0.807286
9.2,290.47,-0.80737
9.20167,290.487,-0.807465
9.20333,290.504,-0.807541
9.205,290.521,-0.807614
9.20667,290.537,-0.807685
9.20833,290.554,-0.807748
9.21,290.571,-0.807807
9.21167,290.587,-0.807866
9.21333,290.604,-0.807928
9.215,290.621,-0.807993
9.21667,290.637,-0.808063
9.21833,290.654,-0.80813
9.22,290.67,-0.808198
9.22167,290.687,-0.808265
9.22333,290.703,-0.808322
9.225,290.72,-0.808379
9.22667,290.737,-0.808425
9.22833,290.754,-0.808463
9.23,290.77,-0.8085
9.23167,290.787,-0.808535
9.23333,290.804,-0.808572
9.235,290.821,-0.808609
9.23667,290.837,-0.808639
9.23833,290.854,-0.808681
9.24,290.87,-0.80873
9.24167,290.887,-0.808777
9.24333,290.904,-0.808834
9.245,290.92,-0.808885
9.24667,290.937,-0.808937
9.24833,290.953,-0.808992
9.25,290.97,-0.809054
9.25167,290.987,-0.809114
9.25333,291.004,-0.809166
9.255,291.02,-0.80922
9.25667,291.037,-0.809282
9.25833,291.054,-0.809345
9.26,291.071,-0.809415
9.26167,291.087,-0.809493
9.26333,291.104,-0.809569
9.265,291.12,-0.809637
9.26667,291.137,-0.809706
9.26833,291.154,-0.809769
9.27,291.171,-0.809825
9.27167,291.187,-0.809872
9.27333,291.203,-0.809919
9.275,291.22,-0.809961
9.27667,291.237,-0.810003
9.27833,291.253,-0.810047
9.28,291.27,-0.810094
9.28167,291.286,-0.810148
9.28333,291.303,-0.810208
9.285,291.32,-0.810276
9.28667,291.337,-0.810346
9.28833,291.353,-0.810419
9.29,291.37,-0.810493
9.29167,291.387,-0.810561
9.29333,291.403,-0.810629
9.295,291.42,-0.810693
9.29667,291.436,-0.81075
9.29833,291.453,-0.810802
9.3,291.47,-0.810855
9.30167,291.486,-0.810912
9.30333,291.503,-0.810976
9.305,291.52,-0.811034
9.30667,291.536,-0.811093
9.30833,291.553,-0.811149
9.31,291.569,-0.811204
9.31167,291.586,-0.811268
9.31333,291.603,-0.811329
9.315,291.62,-0.811383
9.31667,291.636,-0.811434
9.31833,291.653,-0.811481
9.32,291.67,-0.811533
9.32167,291.687,-0.811592
9.32333,291.703,-0.811653
9.325,291.72,-0.811724
9.32667,291.736,-0.811795
9.32833,291.753,-0.811868
9.33,291.769,-0.811934
9.33167,291.786,-0.812002
9.33333,291.803,-0.812059
9.335,291.82,-0.812114
9.33667,291.836,-0.812168
9.33833,291.853,-0.812223
9.34,291.87,-0.812273
9.34167,291.886,-0.812321
9.34333,291.903,-0.812372
9.345,291.919,-0.81243
9.34667,291.936,-0.812493
9.34833,291.953,-0.812549
9.35,291.97,-0.812609
9.35167,291.986,-0.812662
9.35333,292.003,-0.812723
9.355,292.02,-0.81278
9.35667,292.036,-0.812844
9.35833,292.053,-0.812902
9.36,292.07,-0.812954
9.36167,292.086,-0.813007
9.36333,292.103,-0.813059
9.365,292.12,-0.813117
9.36667,292.136,-0.813175
9.36833,292.153,-0.813229
9.37,292.169,-0.813283
9.37167,292.186,-0.813342
9.37333,292.203,-0.813401
9.375,292.22,-0.813459
9.37667,292.236,-0.813522
9.37833,292.253,-0.813586
9.38,292.269,-0.813656
9.38167,292.286,-0.813717
9.38333,292.303,-0.813775
9.385,292.319,-0.813833
9.38667,292.336,-0.813887
9.38833,292.353,-0.81393
9.39,292.369,-0.813982
9.39167,292.386,-0.814033
9.39333,292.402,-0.814079
9.395,292.419,-0.814133
9.39667,292.435,-0.814198
9.39833,292.452,-0.814273
9.4,292.469,-0.814366
9.40167,292.486,-0.814445
9.40333,292.502,-0.814531
9.405,292.519,-0.814683
9.40667,292.536,-0.814773
9.40833,292.552,-0.814856
9.41,292.569,-0.814937
9.41167,292.585,-0.81501
9.41333,292.602,-0.815077
9.415,292.619,-0.815145
9.41667,292.636,-0.815205
9.41833,292.652,-0.815263
9.42,292.669,-0.815312
9.42167,292.686,-0.815364
9.42333,292.702,-0.815417
9.425,292.719,-0.815468
9.42667,292.736,-0.815515
9.42833,292.752,-0.815565
9.43,292.769,-0.815614
9.43167,292.786,-0.815663
9.43333,292.802,-0.815704
9.435,292.819,-0.815732
9.43667,292.836,-0.815762
9.43833,292.852,-0.815802
9.44,292.869,-0.815847
9.44167,292.886,-0.815901
9.44333,292.902,-0.815963
9.445,292.919,-0.816032
9.44667,292.936,-0.8161
9.44833,292.952,-0.816167
9.45,292.969,-0.816239
9.45167,292.986,-0.816305
9.45333,293.002,-0.816362
9.455,293.019,-0.81641
9.45667,293.035,-0.816458
9.45833,293.052,-0.816503
9.46,293.069,-0.816544
9.46167,293.086,-0.816589
9.46333,293.102,-0.816637
9.465,293.118,-0.816683
9.46667,293.135,-0.816729
9.46833,293.152,-0.816769
9.47,293.168,-0.816808
9.47167,293.185,-0.816853
9.47333,293.202,-0.816897
9.475,293.219,-0.816943
9.47667,293.235,-0.81699
9.47833,293.252,-0.817041
9.48,293.269,-0.817097
9.48167,293.285,-0.81715
9.48333,293.302,-0.817207
9.485,293.318,-0.817268
9.48667,293.335,-0.817319
9.48833,293.352,-0.81737
9.49,293.369,-0.817422
9.49167,293.385,-0.81747
9.49333,293.402,-0.817516
9.495,293.418,-0.817559
9.49667,293.435,-0.817609
9.49833,293.452,-0.817664
9.5,293.468,-0.817719
9.50167,293.485,-0.817774
9.50333,293.502,-0.817828
9.505,293.518,-0.817885
9.50667,293.535,-0.817939
9.50833,293.552,-0.817993
9.51,293.569,-0.818056
9.51167,293.585,-0.818123
9.51333,293.601,-0.818181
9.515,293.618,-0.818246
9.51667,293.635,-0.818308
9.51833,293.652,-0.818358
9.52,293.668,-0.81841
9.52167,293.685,-0.818459
9.52333,293.702,-0.818512
9.525,293.718,-0.818561
9.52667,293.735,-0.818614
9.52833,293.752,-0.818678
9.53,293.768,-0.818748
9.53167,293.785,-0.818808
9.53333,293.802,-0.818868
9.535,293.818,-0.818931
9.53667,293.835,-0.818998
9.53833,293.851,-0.81906
9.54,293.868,-0.819118
9.54167,293.885,-0.819176
9.54333,293.901,-0.819234
9.545,293.918,-0.819283
9.54667,293.935,-0.819327
9.54833,293.951,-0.819367
9.55,293.968,-0.819398
9.55167,293.984,-0.819427
9.55333,294.001,-0.819466
9.555,294.018,-0.819516
9.55667,294.035,-0.819563
9.55833,294.051,-0.819604
9.56,294.068,-0.819651
9.56167,294.084,-0.81969
9.56333,294.101,-0.819736
9.565,294.118,-0.819793
9.56667,294.135,-0.819843
9.56833,294.152,-0.819898
9.57,294.168,-0.819956
9.57167,294.185,-0.820016
9.57333,294.202,-0.820083
9.575,294.218,-0.820151
9.57667,294.235,-0.820213
9.57833,294.251,-0.820276
9.58,294.268,-0.820344
9.58167,294.285,-0.820425
9.58333,294.302,-0.820502
9.585,294.318,-0.82057
9.58667,294.335,-0.820636
9.58833,294.352,-0.820705
9.59,294.369,-0.820769
9.59167,294.385,-0.820837
9.59333,294.402,-0.820905
9.595,294.418,-0.820971
9.59667,294.435,-0.821032
9.59833,294.451,-0.821091
9.6,294.468,-0.821147
9.60167,294.485,-0.821197
9.60333,294.501,-0.821257
9.605,294.518,-0.821318
9.60667,294.535,-0.821378
9.60833,294.551,-0.821436
9.61,294.568,-0.821496
9.61167,294.585,-0.821549
9.61333,294.601,-0.821596
9.615,294.618,-0.82164
9.61667,294.635,-0.82168
9.61833,294.652,-0.821717
9.62,294.669,-0.821754
9.62167,294.685,-0.821794
9.62333,294.701,-0.821832
9.625,294.718,-0.821878
9.62667,294.735,-0.821934
9.62833,294.751,-0.821994
9.63,294.768,-0.822052
9.63167,294.785,-0.8221
9.63333,294.801,-0.822147
9.635,294.818,-0.822191
9.63667,294.835,-0.822235
9.63833,294.851,-0.822283
9.64,294.868,-0.822327
9.64167,294.884,-0.822369
9.64333,294.901,-0.822415
9.645,294.918,-0.822465
9.64667,294.935,-0.822522
9.64833,294.951,-0.822573
9.65,294.967,-0.822625
9.65167,294.984,-0.822682
9.65333,295.001,-0.822744
9.655,295.018,-0.822807
9.65667,295.035,-0.822879
9.65833,295.051,-0.822941
9.66,295.068,-0.822994
9.66167,295.085,-0.823042
9.66333,295.101,-0.823087
9.665,295.118,-0.823127
9.66667,295.135,-0.823172
9.66833,295.151,-0.823217
9.67,295.168,-0.823258
9.67167,295.185,-0.823295
9.67333,295.201,-0.823336
9.675,295.218,-0.82338
9.67667,295.234,-0.823429
9.67833,295.251,-0.823476
9.68,295.268,-0.823528
9.68167,295.284,-0.823578
9.68333,295.301,-0.823626
9.685,295.317,-0.823682
9.68667,295.334,-0.823738
9.68833,295.351,-0.82379
9.69,295.367,-0.823833
9.69167,295.384,-0.823874
9.69333,295.401,-0.823908
9.695,295.417,-0.823937
9.69667,295.434,-0.823962
9.69833,295.451,-0.82399
9.7,295.468,-0.824022
9.70167,295.484,-0.824059
9.70333,295.501,-0.824103
9.705,295.517,-0.824152
9.70667,295.534,-0.824201
9.70833,295.551,-0.824243
9.71,295.567,-0.824288
9.71167,295.585,-0.824334
9.71333,295.601,-0.824386
9.715,295.618,-0.824433
9.71667,295.634,-0.824492
9.71833,295.651,-0.824557
9.72,295.668,-0.824624
9.72167,295.684,-0.824695
9.72333,295.701,-0.824761
9.725,295.717,-0.824833
9.72667,295.734,-0.824904
9.72833,295.751,-0.824963
9.73,295.767,-0.825016
9.73167,295.784,-0.825059
9.73333,295.801,-0.825096
9.735,295.817,-0.825135
9.73667,295.834,-0.825172
9.73833,295.851,-0.825208
9.74,295.867,-0.825242
9.74167,295.884,-0.825275
9.74333,295.9,-0.82531
9.745,295.917,-0.825349
9.74667,295.934,-0.825384
9.74833,295.951,-0.825425
9.75,295.967,-0.825466
9.75167,295.984,-0.825504
9.75333,296.001,-0.825548
9.755,296.017,-0.825596
9.75667,296.034,-0.825645
9.75833,296.05,-0.82569
9.76,296.067,-0.825736
9.76167,296.084,-0.825794
9.76333,296.101,-0.825854
9.765,296.117,-0.825917
9.76667,296.134,-0.82597
9.76833,296.151,-0.826018
9.77,296.167,-0.826065
9.77167,296.184,-0.826117
9.77333,296.201,-0.826172
9.775,296.217,-0.826234
9.77667,296.234,-0.8263
9.77833,296.25,-0.826361
9.78,296.267,-0.826415
9.78167,296.284,-0.826472
9.78333,296.301,-0.826524
9.785,296.317,-0.826567
9.78667,296.334,-0.826611
9.78833,296.35,-0.82665
9.79,296.367,-0.826681
9.79167,296.384,-0.826709
9.79333,296.401,-0.826738
9.795,296.417,-0.826771
9.79667,296.434,-0.826812
9.79833,296.45,-0.826862
9.8,296.467,-0.826916
9.80167,296.484,-0.82697
9.80333,296.5,-0.827017
9.805,296.517,-0.827058
9.80667,296.534,-0.827102
9.80833,296.55,-0.82714
9.81,296.567,-0.827174
9.81167,296.584,-0.827213
9.81333,296.6,-0.827251
9.815,296.617,-0.827294
9.81667,296.634,-0.827341
9.81833,296.65,-0.827382
9.82,296.667,-0.82742
9.82167,296.684,-0.827457
9.82333,296.7,-0.827488
9.825,296.717,-0.827531
9.82667,296.733,-0.827572
9.82833,296.75,-0.827618
9.83,296.767,-0.827669
9.83167,296.784,-0.827722
9.83333,296.8,-0.827783
9.835,296.817,-0.827838
9.83667,296.834,-0.827896
9.83833,296.85,-0.82795
9.84,296.867,-0.828
9.84167,296.883,-0.828053
9.84333,296.9,-0.828107
9.845,296.917,-0.828168
9.84667,296.933,-0.82823
9.84833,296.95,-0.828292
9.85,296.966,-0.828348
9.85167,296.983,-0.828402
9.85333,297,-0.828441
9.855,297.016,-0.828471
9.85667,297.033,-0.828507
9.85833,297.05,-0.828542
9.86,297.067,-0.828575
9.86167,297.083,-0.828606
9.86333,297.1,-0.828635
9.865,297.117,-0.828664
9.86667,297.133,-0.828693
9.86833,297.15,-0.828724
9.87,297.167,-0.828752
9.87167,297.183,-0.828778
9.87333,297.2,-0.828811
9.875,297.216,-0.828847
9.87667,297.233,-0.828886
9.87833,297.249,-0.82893
9.88,297.266,-0.828974
9.88167,297.283,-0.829024
9.88333,297.299,-0.829076
9.885,297.316,-0.829119
9.88667,297.332,-0.82916
9.88833,297.349,-0.829201
9.89,297.366,-0.829234
9.89167,297.383,-0.829263
9.89333,297.4,-0.829294
9.895,297.416,-0.829327
9.89667,297.433,-0.829363
9.89833,297.45,-0.829403
9.9,297.467,-0.82945
9.90167,297.483,-0.829516
9.90333,297.5,-0.829585
9.905,297.517,-0.829693
9.90667,297.533,-0.829835
9.90833,297.55,-0.829964
9.91,297.567,-0.830036
9.91167,297.583,-0.830098
9.91333,297.6,-0.830149
9.915,297.617,-0.830194
9.91667,297.633,-0.830243
9.91833,297.65,-0.830292
9.92,297.666,-0.830339
9.92167,297.683,-0.830387
9.92333,297.7,-0.830435
9.925,297.717,-0.83049
9.92667,297.733,-0.830533
9.92833,297.75,-0.83058
9.93,297.766,-0.830623
9.93167,297.783,-0.830667
9.93333,297.799,-0.830715
9.935,297.816,-0.830767
9.93667,297.833,-0.830819
9.93833,297.85,-0.830866
9.94,297.867,-0.830907
9.94167,297.883,-0.830953
9.94333,297.9,-0.831
9.945,297.917,-0.831039
9.94667,297.933,-0.831075
9.94833,297.95,-0.831098
9.95,297.967,-0.831118
9.95167,297.983,-0.831147
9.95333,298,-0.831179
9.955,298.017,-0.831207
9.95667,298.033,-0.831233
9.95833,298.05,-0.831263
9.96,298.067,-0.831289
9.96167,298.083,-0.831319
9.96333,298.1,-0.83136
9.965,298.116,-0.831405
9.96667,298.133,-0.83145
9.96833,298.149,-0.831492
9.97,298.166,-0.831533
9.97167,298.183,-0.831583
9.97333,298.2,-0.831646
9.975,298.216,-0.831703
9.97667,298.233,-0.831767
9.97833,298.25,-0.831831
9.98,298.266,-0.831887
9.98167,298.283,-0.831934
9.98333,298.3,-0.831971
9.985,298.316,-0.832004
9.98667,298.333,-0.832041
9.98833,298.35,-0.832079
9.99,298.366,-0.832108
9.99167,298.383,-0.832136
9.99333,298.4,-0.83217
9.995,298.416,-0.83221
9.99667,298.433,-0.832256
9.99833,298.449,-0.832313
10,298.466,-0.832367
10.0017,298.483,-0.83242
10.0033,298.499,-0.832463
10.005,298.516,-0.832498
10.0067,298.533,-0.83253
10.0083,298.55,-0.832557
10.01,298.566,-0.832585
10.0117,298.583,-0.832612
10.0133,298.599,-0.832643
10.015,298.616,-0.832682
10.0167,298.633,-0.832733
10.0183,298.649,-0.832787
10.02,298.666,-0.832847
10.0217,298.683,-0.832903
10.0233,298.699,-0.832953
10.025,298.716,-0.833004
10.0267,298.733,-0.833058
10.0283,298.75,-0.833106
10.03,298.766,-0.833151
10.0317,298.783,-0.833192
10.0333,298.799,-0.833228
10.035,298.816,-0.833271
10.0367,298.833,-0.833316
10.0383,298.85,-0.833365
10.04,298.866,-0.833414
10.0417,298.883,-0.833465
10.0433,298.9,-0.833517
10.045,298.916,-0.83357
10.0467,298.932,-0.833616
10.0483,298.949,-0.833661
10.05,298.966,-0.8337
10.0517,298.983,-0.83373
10.0533,298.999,-0.833755
10.055,299.016,-0.833781
10.0567,299.033,-0.833804
10.0583,299.049,-0.833831
10.06,299.066,-0.833856
10.0617,299.083,-0.833892
10.0633,299.099,-0.833932
10.065,299.116,-0.833976
10.0667,299.133,-0.834028
10.0683,299.149,-0.834078
10.07,299.166,-0.83413
10.0717,299.183,-0.834189
10.0733,299.199,-0.834245
10.075,299.216,-0.834302
10.0767,299.232,-0.834368
10.0783,299.25,-0.834435
10.08,299.266,-0.834501
10.0817,299.283,-0.834569
10.0833,299.3,-0.834634
10.085,299.316,-0.834698
10.0867,299.333,-0.834755
10.0883,299.349,-0.83481
10.09,299.366,-0.834859
10.0917,299.383,-0.834902
10.0933,299.4,-0.834943
10.095,299.416,-0.834976
10.0967,299.433,-0.835002
10.0983,299.449,-0.835021
10.1,299.466,-0.835045
10.1017,299.482,-0.835069
10.1033,299.499,-0.835093
10.105,299.516,-0.83513
10.1067,299.533,-0.835181
10.1083,299.549,-0.835242
10.11,299.566,-0.835309
10.1117,299.582,-0.835376
10.1133,299.599,-0.835443
10.115,299.616,-0.835522
10.1167,299.633,-0.835588
10.1183,299.649,-0.835658
10.12,299.666,-0.835723
10.1217,299.683,-0.835776
10.1233,299.699,-0.835822
10.125,299.715,-0.835864
10.1267,299.733,-0.835896
10.1283,299.749,-0.835926
10.13,299.766,-0.835949
10.1317,299.782,-0.835976
10.1333,299.799,-0.836004
10.135,299.816,-0.836036
10.1367,299.832,-0.836059
10.1383,299.849,-0.836089
10.14,299.866,-0.836125
10.1417,299.882,-0.836163
10.1433,299.899,-0.836212
10.145,299.916,-0.836258
10.1467,299.932,-0.836302
10.1483,299.949,-0.836354
10.15,299.966,-0.836401
10.1517,299.982,-0.836443
10.1533,299.999,-0.836484
10.155,300.016,-0.836522
10.1567,300.032,-0.836561
10.1583,300.049,-0.836597
10.16,300.066,-0.836628
10.1617,300.082,-0.836663
10.1633,300.099,-0.83669
10.165,300.116,-0.836714
10.1667,300.132,-0.836737
10.1683,300.149,-0.836759
10.17,300.166,-0.83679
10.1717,300.183,-0.836827
10.1733,300.199,-0.836868
10.175,300.216,-0.836914
10.1767,300.233,-0.836969
10.1783,300.249,-0.837023
10.18,300.266,-0.837084
10.1817,300.283,-0.837152
10.1833,300.299,-0.837217
10.185,300.316,-0.837275
10.1867,300.332,-0.837321
10.1883,300.349,-0.837361
10.19,300.366,-0.837395
10.1917,300.382,-0.837427
10.1933,300.399,-0.83746
10.195,300.416,-0.83749
10.1967,300.432,-0.837518
10.1983,300.45,-0.837546
10.2,300.466,-0.837582
10.2017,300.483,-0.837618
10.2033,300.499,-0.837656
10.205,300.516,-0.837698
10.2067,300.533,-0.837743
10.2083,300.549,-0.837786
10.21,300.566,-0.837833
10.2117,300.582,-0.837874
10.2133,300.599,-0.837914
10.215,300.616,-0.83794
10.2167,300.632,-0.83796
10.2183,300.649,-0.837976
10.22,300.666,-0.837988
10.2217,300.682,-0.838002
10.2233,300.699,-0.838018
10.225,300.716,-0.838038
10.2267,300.733,-0.838067
10.2283,300.749,-0.838102
10.23,300.766,-0.838149
10.2317,300.782,-0.838204
10.2333,300.799,-0.838263
10.235,300.816,-0.838325
10.2367,300.833,-0.838391
10.2383,300.85,-0.838453
10.24,300.866,-0.838508
10.2417,300.882,-0.838556
10.2433,300.899,-0.838607
10.245,300.915,-0.838647
10.2467,300.932,-0.838691
10.2483,300.949,-0.838736
10.25,300.965,-0.838787
10.2517,300.982,-0.83884
10.2533,300.999,-0.838891
10.255,301.015,-0.83894
10.2567,301.032,-0.838989
10.2583,301.049,-0.83903
10.26,301.065,-0.839068
10.2617,301.082,-0.839102
10.2633,301.099,-0.839133
10.265,301.115,-0.839164
10.2667,301.132,-0.839199
10.2683,301.149,-0.839231
10.27,301.166,-0.83926
10.2717,301.182,-0.839288
10.2733,301.199,-0.839314
10.275,301.215,-0.839335
10.2767,301.232,-0.839358
10.2783,301.249,-0.839388
10.28,301.265,-0.839413
10.2817,301.282,-0.839437
10.2833,301.298,-0.839461
10.285,301.315,-0.839484
10.2867,301.331,-0.83951
10.2883,301.348,-0.839537
10.29,301.365,-0.83957
10.2917,301.382,-0.839605
10.2933,301.398,-0.83964
10.295,301.415,-0.839673
10.2967,301.432,-0.839708
10.2983,301.448,-0.839739
10.3,301.465,-0.839764
10.3017,301.481,-0.839784
10.3033,301.498,-0.839798
10.305,301.515,-0.839814
10.3067,301.532,-0.839833
10.3083,301.548,-0.839861
10.31,301.565,-0.839891
10.3117,301.582,-0.839928
10.3133,301.598,-0.839964
10.315,301.615,-0.840005
10.3167,301.632,-0.840063
10.3183,301.648,-0.84015
10.32,301.665,-0.840233
10.3217,301.682,-0.840292
10.3233,301.698,-0.840344
10.325,301.715,-0.840405
10.3267,301.732,-0.84046
10.3283,301.748,-0.840508
10.33,301.765,-0.840544
10.3317,301.781,-0.840573
10.3333,301.798,-0.840605
10.335,301.815,-0.840627
10.3367,301.832,-0.840652
10.3383,301.848,-0.840677
10.34,301.865,-0.84071
10.3417,301.881,-0.840734
10.3433,301.898,-0.840762
10.345,301.915,-0.840796
10.3467,301.931,-0.840839
10.3483,301.948,-0.840892
10.35,301.965,-0.840941
10.3517,301.981,-0.840996
10.3533,301.998,-0.841046
10.355,302.015,-0.841102
10.3567,302.032,-0.841146
10.3583,302.048,-0.841182
10.36,302.065,-0.841212
10.3617,302.081,-0.841227
10.3633,302.098,-0.841241
10.365,302.115,-0.841253
10.3667,302.131,-0.841272
10.3683,302.148,-0.84129
10.37,302.165,-0.841317
10.3717,302.181,-0.84135
10.3733,302.198,-0.841393
10.375,302.214,-0.84144
10.3767,302.231,-0.841493
10.3783,302.248,-0.841545
10.38,302.265,-0.841597
10.3817,302.281,-0.841647
10.3833,302.298,-0.841692
10.385,302.315,-0.841737
10.3867,302.331,-0.841779
10.3883,302.348,-0.841814
10.39,302.365,-0.841847
10.3917,302.381,-0.841874
10.3933,302.398,-0.841897
10.395,302.415,-0.841928
10.3967,302.431,-0.841972
10.3983,302.448,-0.842016
10.4,302.465,-0.84206
10.4017,302.481,-0.842115
10.4033,302.498,-0.842175
10.405,302.514,-0.842235
10.4067,302.531,-0.842296
10.4083,302.547,-0.842361
10.41,302.564,-0.842427
10.4117,302.581,-0.842485
10.4133,302.597,-0.842537
10.415,302.614,-0.842588
10.4167,302.631,-0.842637
10.4183,302.648,-0.842686
10.42,302.664,-0.84274
10.4217,302.681,-0.842794
10.4233,302.698,-0.84284
10.425,302.714,-0.842875
10.4267,302.731,-0.84291
10.4283,302.748,-0.842947
10.43,302.764,-0.842986
10.4317,302.781,-0.843023
10.4333,302.797,-0.843069
10.435,302.814,-0.843121
10.4367,302.831,-0.843177
10.4383,302.847,-0.843233
10.44,302.864,-0.843287
10.4417,302.881,-0.84334
10.4433,302.897,-0.843388
10.445,302.914,-0.84343
10.4467,302.931,-0.843461
10.4483,302.947,-0.84348
10.45,302.964,-0.843501
10.4517,302.98,-0.843527
10.4533,302.997,-0.843554
10.455,303.013,-0.843584
10.4567,303.03,-0.843613
10.4583,303.047,-0.843651
10.46,303.064,-0.843684
10.4617,303.08,-0.84372
10.4633,303.097,-0.843759
10.465,303.114,-0.843807
10.4667,303.13,-0.843853
10.4683,303.147,-0.843896
10.47,303.164,-0.843935
10.4717,303.181,-0.843963
10.4733,303.197,-0.843987
10.475,303.214,-0.844008
10.4767,303.23,-0.844031
10.4783,303.247,-0.844053
10.48,303.263,-0.844078
10.4817,303.28,-0.844112
10.4833,303.297,-0.844154
10.485,303.313,-0.844207
10.4867,303.33,-0.844267
10.4883,303.347,-0.84433
10.49,303.363,-0.844389
10.4917,303.38,-0.844446
10.4933,303.397,-0.844497
10.495,303.413,-0.844545
10.4967,303.429,-0.844594
10.4983,303.446,-0.844635
10.5,303.463,-0.844674
10.5017,303.479,-0.844711
10.5033,303.496,-0.844746
10.505,303.513,-0.844782
10.5067,303.529,-0.84481
10.5083,303.546,-0.844834
10.51,303.563,-0.84485
10.5117,303.579,-0.844878
10.5133,303.596,-0.844913
10.515,303.613,-0.844955
10.5167,303.629,-0.844999
10.5183,303.646,-0.845051
10.52,303.663,-0.8451
10.5217,303.679,-0.845153
10.5233,303.696,-0.845195
10.525,303.713,-0.845239
10.5267,303.729,-0.845277
10.5283,303.745,-0.845309
10.53,303.762,-0.84534
10.5317,303.779,-0.845378
10.5333,303.795,-0.845415
10.535,303.812,-0.845455
10.5367,303.828,-0.845495
10.5383,303.845,-0.845531
10.54,303.862,-0.845564
10.5417,303.879,-0.845589
10.5433,303.895,-0.845602
10.545,303.912,-0.845622
10.5467,303.929,-0.845638
10.5483,303.945,-0.845649
10.55,303.962,-0.84567
10.5517,303.979,-0.845695
10.5533,303.995,-0.845724
10.555,304.012,-0.845764
10.5567,304.029,-0.845818
10.5583,304.045,-0.845872
10.56,304.062,-0.845924
10.5617,304.079,-0.845978
10.5633,304.096,-0.846032
10.565,304.112,-0.846077
10.5667,304.128,-0.846113
10.5683,304.145,-0.84615
10.57,304.162,-0.846179
10.5717,304.179,-0.846207
10.5733,304.195,-0.84623
10.575,304.212,-0.846251
10.5767,304.229,-0.846278
10.5783,304.245,-0.846309
10.58,304.262,-0.846336
10.5817,304.279,-0.846367
10.5833,304.295,-0.846407
10.585,304.312,-0.846453
10.5867,304.328,-0.846506
10.5883,304.345,-0.84656
10.59,304.362,-0.846613
10.5917,304.378,-0.846657
10.5933,304.395,-0.846698
10.595,304.412,-0.84674
10.5967,304.429,-0.846786
10.5983,304.445,-0.846828
10.6,304.462,-0.846868
10.6017,304.478,-0.846911
10.6033,304.495,-0.846961
10.605,304.512,-0.84702
10.6067,304.528,-0.847086
10.6083,304.545,-0.847169
10.61,304.562,-0.847234
10.6117,304.579,-0.847296
10.6133,304.595,-0.847354
10.615,304.612,-0.84741
10.6167,304.629,-0.847467
10.6183,304.645,-0.847524
10.62,304.662,-0.847574
10.6217,304.678,-0.847621
10.6233,304.695,-0.847662
10.625,304.712,-0.847697
10.6267,304.729,-0.847729
10.6283,304.745,-0.847765
10.63,304.762,-0.847804
10.6317,304.778,-0.84784
10.6333,304.795,-0.847872
10.635,304.812,-0.847901
10.6367,304.828,-0.847936
10.6383,304.845,-0.847971
10.64,304.862,-0.848007
10.6417,304.878,-0.848041
10.6433,304.895,-0.848072
10.645,304.912,-0.848105
10.6467,304.928,-0.84814
10.6483,304.945,-0.848181
10.65,304.961,-0.84823
10.6517,304.978,-0.848282
10.6533,304.995,-0.848331
10.655,305.011,-0.848391
10.6567,305.028,-0.848455
10.6583,305.045,-0.848517
10.66,305.061,-0.848577
10.6617,305.078,-0.848638
10.6633,305.095,-0.848683
10.665,305.111,-0.848717
10.6667,305.128,-0.848749
10.6683,305.145,-0.848785
10.67,305.162,-0.848818
10.6717,305.178,-0.848856
10.6733,305.195,-0.848895
10.675,305.211,-0.848939
10.6767,305.228,-0.848982
10.6783,305.244,-0.849026
10.68,305.261,-0.849075
10.6817,305.278,-0.849126
10.6833,305.294,-0.849181
10.685,305.311,-0.84923
10.6867,305.328,-0.849273
10.6883,305.345,-0.849309
10.69,305.361,-0.849345
10.6917,305.378,-0.849377
10.6933,305.394,-0.849411
10.695,305.411,-0.849446
10.6967,305.428,-0.849478
10.6983,305.445,-0.849524
10.7,305.461,-0.849561
10.7017,305.478,-0.849597
10.7033,305.494,-0.849639
10.705,305.511,-0.849679
10.7067,305.528,-0.849717
10.7083,305.544,-0.84976
10.71,305.561,-0.849812
10.7117,305.577,-0.849874
10.7133,305.594,-0.849937
10.715,305.611,-0.850013
10.7167,305.628,-0.850081
10.7183,305.644,-0.850144
10.72,305.661,-0.850204
10.7217,305.677,-0.850259
10.7233,305.694,-0.850307
10.725,305.711,-0.850346
10.7267,305.727,-0.850374
10.7283,305.743,-0.850394
10.73,305.76,-0.850414
10.7317,305.777,-0.850435
10.7333,305.793,-0.850465
10.735,305.81,-0.850496
10.7367,305.827,-0.850539
10.7383,305.844,-0.850581
10.74,305.86,-0.850632
10.7417,305.877,-0.850682
10.7433,305.894,-0.85073
10.745,305.911,-0.85078
10.7467,305.927,-0.850826
10.7483,305.944,-0.850869
10.75,305.961,-0.850916
10.7517,305.977,-0.850963
10.7533,305.994,-0.851007
10.755,306.01,-0.851044
10.7567,306.027,-0.851085
10.7583,306.044,-0.851126
10.76,306.06,-0.851162
10.7617,306.077,-0.851194
10.7633,306.094,-0.851226
10.765,306.11,-0.851255
10.7667,306.127,-0.851286
10.7683,306.144,-0.851316
10.77,306.16,-0.851354
10.7717,306.177,-0.851397
10.7733,306.193,-0.851433
10.775,306.21,-0.851471
10.7767,306.227,-0.85152
10.7783,306.243,-0.851565
10.78,306.26,-0.851611
10.7817,306.277,-0.851656
10.7833,306.293,-0.851708
10.785,306.31,-0.851762
10.7867,306.327,-0.851818
10.7883,306.343,-0.851875
10.79,306.36,-0.851925
10.7917,306.377,-0.851975
10.7933,306.394,-0.852022
10.795,306.41,-0.852066
10.7967,306.427,-0.852113
10.7983,306.443,-0.852157
10.8,306.46,-0.852205
10.8017,306.476,-0.852247
10.8033,306.493,-0.852294
10.805,306.51,-0.852335
10.8067,306.526,-0.852378
10.8083,306.543,-0.852409
10.81,306.56,-0.852437
10.8117,306.577,-0.852472
10.8133,306.593,-0.852511
10.815,306.61,-0.852558
10.8167,306.626,-0.852605
10.8183,306.643,-0.852657
10.82,306.66,-0.852712
10.8217,306.677,-0.852772
10.8233,306.693,-0.852839
10.825,306.71,-0.8529
10.8267,306.727,-0.852953
10.8283,306.743,-0.852999
10.83,306.76,-0.853048
10.8317,306.777,-0.853095
10.8333,306.793,-0.853142
10.835,306.81,-0.853188
10.8367,306.827,-0.853226
10.8383,306.843,-0.853259
10.84,306.86,-0.853296
10.8417,306.877,-0.853335
10.8433,306.893,-0.853373
10.845,306.91,-0.853411
10.8467,306.926,-0.853452
10.8483,306.943,-0.853493
10.85,306.96,-0.853535
10.8517,306.976,-0.85358
10.8533,306.993,-0.853632
10.855,307.009,-0.853701
10.8567,307.026,-0.85379
10.8583,307.043,-0.853901
10.86,307.059,-0.853998
10.8617,307.076,-0.854094
10.8633,307.093,-0.854172
10.865,307.11,-0.854241
10.8667,307.126,-0.854311
10.8683,307.143,-0.854378
10.87,307.159,-0.854435
10.8717,307.176,-0.854484
10.8733,307.193,-0.854526
10.875,307.21,-0.854565
10.8767,307.226,-0.854595
10.8783,307.243,-0.854615
10.88,307.259,-0.854637
10.8817,307.276,-0.854664
10.8833,307.293,-0.854685
10.885,307.309,-0.854716
10.8867,307.326,-0.854754
10.8883,307.343,-0.854798
10.89,307.359,-0.854847
10.8917,307.376,-0.854898
10.8933,307.392,-0.854953
10.895,307.409,-0.855003
10.8967,307.426,-0.855043
10.8983,307.442,-0.855081
10.9,307.459,-0.855115
10.9017,307.476,-0.855144
10.9033,307.492,-0.855163
10.905,307.509,-0.855186
10.9067,307.526,-0.855214
10.9083,307.542,-0.855248
10.91,307.559,-0.855287
10.9117,307.576,-0.85534
10.9133,307.592,-0.855389
10.915,307.609,-0.855438
10.9167,307.626,-0.855485
10.9183,307.642,-0.855534
10.92,307.659,-0.855587
10.9217,307.675,-0.855644
10.9233,307.692,-0.855693
10.925,307.708,-0.855736
10.9267,307.725,-0.855777
10.9283,307.742,-0.855813
10.93,307.758,-0.855847
10.9317,307.775,-0.855878
10.9333,307.792,-0.855906
10.935,307.809,-0.855937
10.9367,307.825,-0.855971
10.9383,307.842,-0.856008
10.94,307.858,-0.856044
10.9417,307.875,-0.856074
10.9433,307.892,-0.856113
10.945,307.909,-0.85616
10.9467,307.925,-0.856212
10.9483,307.942,-0.856273
10.95,307.959,-0.856333
10.9517,307.975,-0.856387
10.9533,307.992,-0.856447
10.955,308.009,-0.856507
10.9567,308.025,-0.85656
10.9583,308.042,-0.856623
10.96,308.059,-0.856686
10.9617,308.075,-0.856745
10.9633,308.092,-0.8568
10.965,308.108,-0.85685
10.9667,308.125,-0.856901
10.9683,308.142,-0.856959
10.97,308.158,-0.857017
10.9717,308.175,-0.857077
10.9733,308.192,-0.857133
10.975,308.208,-0.857191
10.9767,308.225,-0.85725
10.9783,308.242,-0.857303
10.98,308.259,-0.857354
10.9817,308.275,-0.857395
10.9833,308.292,-0.85743
10.985,308.308,-0.857463
10.9867,308.325,-0.857492
10.9883,308.341,-0.857528
10.99,308.358,-0.857567
10.9917,308.375,-0.857612
10.9933,308.391,-0.857659
10.995,308.408,-0.85771
10.9967,308.425,-0.857763
10.9983,308.441,-0.857823
11,308.458,-0.857886
11.0017,308.475,-0.85795
11.0033,308.491,-0.858009
11.005,308.508,-0.858059
11.0067,308.525,-0.858098
11.0083,308.541,-0.85813
11.01,308.558,-0.858155
11.0117,308.575,-0.85818
11.0133,308.591,-0.858201
11.015,308.608,-0.858219
11.0167,308.625,-0.858242
11.0183,308.641,-0.858267
11.02,308.658,-0.858299
11.0217,308.675,-0.858333
11.0233,308.691,-0.85837
11.025,308.708,-0.858413
11.0267,308.725,-0.858457
11.0283,308.741,-0.858508
11.03,308.758,-0.858572
11.0317,308.775,-0.858674
11.0333,308.791,-0.858775
11.035,308.808,-0.858938
11.0367,308.825,-0.859125
11.0383,308.841,-0.859282
11.04,308.858,-0.859358
11.0417,308.874,-0.859427
11.0433,308.891,-0.85949
11.045,308.907,-0.859543
11.0467,308.924,-0.859588
11.0483,308.941,-0.859619
11.05,308.958,-0.859651
11.0517,308.974,-0.859675
11.0533,308.991,-0.859706
11.055,309.008,-0.859744
11.0567,309.024,-0.859783
11.0583,309.041,-0.859825
11.06,309.057,-0.859862
11.0617,309.074,-0.859899
11.0633,309.09,-0.859944
11.065,309.107,-0.859988
11.0667,309.124,-0.860024
11.0683,309.141,-0.860066
11.07,309.157,-0.860104
11.0717,309.174,-0.860148
11.0733,309.19,-0.860189
11.075,309.207,-0.860231
11.0767,309.224,-0.860267
11.0783,309.24,-0.860312
11.08,309.257,-0.860358
11.0817,309.273,-0.860409
11.0833,309.29,-0.860459
11.085,309.307,-0.860509
11.0867,309.324,-0.860567
11.0883,309.34,-0.860631
11.09,309.357,-0.860685
11.0917,309.374,-0.860729
11.0933,309.39,-0.860773
11.095,309.407,-0.860808
11.0967,309.424,-0.860848
11.0983,309.441,-0.860893
11.1,309.457,-0.860935
11.1017,309.474,-0.860984
11.1033,309.491,-0.86104
11.105,309.507,-0.861102
11.1067,309.524,-0.861164
11.1083,309.54,-0.861223
11.11,309.557,-0.861286
11.1117,309.573,-0.861351
11.1133,309.59,-0.861403
11.115,309.607,-0.861449
11.1167,309.623,-0.861491
11.1183,309.64,-0.861536
11.12,309.657,-0.861581
11.1217,309.673,-0.861628
11.1233,309.69,-0.861677
11.125,309.706,-0.861734
11.1267,309.723,-0.8618
11.1283,309.74,-0.861867
11.13,309.757,-0.86193
11.1317,309.773,-0.861983
11.1333,309.79,-0.862028
11.135,309.807,-0.86206
11.1367,309.823,-0.862082
11.1383,309.84,-0.862102
11.14,309.857,-0.86212
11.1417,309.873,-0.862138
11.1433,309.89,-0.862153
11.145,309.906,-0.862187
11.1467,309.923,-0.862223
11.1483,309.939,-0.862268
11.15,309.956,-0.862308
11.1517,309.973,-0.862359
11.1533,309.99,-0.862407
11.155,310.007,-0.862446
11.1567,310.023,-0.862482
11.1583,310.04,-0.862525
11.16,310.057,-0.86257
11.1617,310.073,-0.862617
11.1633,310.09,-0.862667
11.165,310.107,-0.862726
11.1667,310.124,-0.862788
11.1683,310.14,-0.862853
11.17,310.157,-0.862921
11.1717,310.174,-0.862989
11.1733,310.19,-0.863048
11.175,310.207,-0.86311
11.1767,310.223,-0.863179
11.1783,310.24,-0.863236
11.18,310.257,-0.863295
11.1817,310.273,-0.863356
11.1833,310.29,-0.863416
11.185,310.307,-0.863473
11.1867,310.323,-0.863526
11.1883,310.34,-0.863565
11.19,310.357,-0.863601
11.1917,310.373,-0.863638
11.1933,310.39,-0.863674
11.195,310.406,-0.863714
11.1967,310.423,-0.863751
11.1983,310.44,-0.86379
11.2,310.456,-0.863836
11.2017,310.472,-0.86388
11.2033,310.489,-0.863924
11.205,310.506,-0.863974
11.2067,310.522,-0.864022
11.2083,310.539,-0.864073
11.21,310.555,-0.86413
11.2117,310.572,-0.864194
11.2133,310.589,-0.864255
11.215,310.605,-0.864317
11.2167,310.622,-0.86438
11.2183,310.639,-0.864442
11.22,310.655,-0.864501
11.2217,310.672,-0.86456
11.2233,310.689,-0.864624
11.225,310.705,-0.864682
11.2267,310.722,-0.864737
11.2283,310.739,-0.864791
11.23,310.755,-0.864841
11.2317,310.772,-0.864897
11.2333,310.788,-0.86495
11.235,310.805,-0.865004
11.2367,310.822,-0.865058
11.2383,310.839,-0.865109
11.24,310.855,-0.865159
11.2417,310.872,-0.865209
11.2433,310.889,-0.865262
11.245,310.905,-0.865308
11.2467,310.922,-0.865349
11.2483,310.938,-0.865391
11.25,310.955,-0.865439
11.2517,310.972,-0.865496
11.2533,310.988,-0.865556
11.255,311.005,-0.865622
11.2567,311.022,-0.865693
11.2583,311.039,-0.865752
11.26,311.055,-0.865827
11.2617,311.072,-0.865906
11.2633,311.089,-0.865971
11.265,311.106,-0.866034
11.2667,311.122,-0.866089
11.2683,311.139,-0.866139
11.27,311.155,-0.866189
11.2717,311.172,-0.866243
11.2733,311.189,-0.866291
11.275,311.206,-0.866341
11.2767,311.222,-0.866386
11.2783,311.239,-0.866433
11.28,311.255,-0.866487
11.2817,311.272,-0.866537
11.2833,311.289,-0.866594
11.285,311.306,-0.866652
11.2867,311.322,-0.866711
11.2883,311.339,-0.866765
11.29,311.356,-0.866815
11.2917,311.373,-0.866864
11.2933,311.389,-0.866909
11.295,311.406,-0.866955
11.2967,311.422,-0.867
11.2983,311.439,-0.867041
11.3,311.456,-0.867077
11.3017,311.472,-0.867121
11.3033,311.489,-0.867169
11.305,311.506,-0.867226
11.3067,311.522,-0.86729
11.3083,311.539,-0.867365
11.31,311.556,-0.867494
11.3117,311.572,-0.867638
11.3133,311.589,-0.867791
11.315,311.606,-0.867889
11.3167,311.623,-0.868023
11.3183,311.639,-0.868147
11.32,311.656,-0.868224
11.3217,311.672,-0.868288
11.3233,311.689,-0.868346
11.325,311.706,-0.868402
11.3267,311.723,-0.868453
11.3283,311.739,-0.868502
11.33,311.756,-0.868545
11.3317,311.772,-0.868586
11.3333,311.789,-0.868627
11.335,311.806,-0.868684
11.3367,311.822,-0.868739
11.3383,311.839,-0.868799
11.34,311.855,-0.868865
11.3417,311.872,-0.868936
11.3433,311.889,-0.869018
11.345,311.906,-0.869094
11.3467,311.923,-0.869161
11.3483,311.939,-0.86922
11.35,311.956,-0.869276
11.3517,311.972,-0.869329
11.3533,311.989,-0.869377
11.355,312.006,-0.86943
11.3567,312.023,-0.869475
11.3583,312.039,-0.869525
11.36,312.056,-0.869574
11.3617,312.073,-0.869624
11.3633,312.089,-0.869679
11.365,312.106,-0.869744
11.3667,312.122,-0.869809
11.3683,312.139,-0.869881
11.37,312.155,-0.869955
11.3717,312.172,-0.870027
11.3733,312.189,-0.870093
11.375,312.205,-0.870149
11.3767,312.222,-0.870208
11.3783,312.239,-0.870267
11.38,312.255,-0.870322
11.3817,312.272,-0.870375
11.3833,312.289,-0.870427
11.385,312.305,-0.87047
11.3867,312.322,-0.870502
11.3883,312.339,-0.870539
11.39,312.356,-0.87058
11.3917,312.372,-0.870615
11.3933,312.389,-0.870649
11.395,312.406,-0.870691
11.3967,312.423,-0.870737
11.3983,312.439,-0.87078
11.4,312.455,-0.870828
11.4017,312.472,-0.870878
11.4033,312.489,-0.870925
11.405,312.505,-0.870969
11.4067,312.522,-0.871009
11.4083,312.539,-0.871047
11.41,312.555,-0.871087
11.4117,312.572,-0.871123
11.4133,312.588,-0.871162
11.415,312.605,-0.871209
11.4167,312.621,-0.871255
11.4183,312.638,-0.871298
11.42,312.655,-0.871343
11.4217,312.672,-0.871389
11.4233,312.688,-0.87144
11.425,312.705,-0.871497
11.4267,312.722,-0.871553
11.4283,312.738,-0.871612
11.43,312.755,-0.871674
11.4317,312.771,-0.871738
11.4333,312.788,-0.8718
11.435,312.805,-0.871858
11.4367,312.822,-0.871917
11.4383,312.839,-0.871975
11.44,312.855,-0.872024
11.4417,312.872,-0.872064
11.4433,312.888,-0.872104
11.445,312.905,-0.872149
11.4467,312.922,-0.872188
11.4483,312.938,-0.872214
11.45,312.955,-0.872236
11.4517,312.972,-0.872259
11.4533,312.988,-0.872287
11.455,313.005,-0.872321
11.4567,313.022,-0.872364
11.4583,313.039,-0.872412
11.46,313.055,-0.872474
11.4617,313.072,-0.872541
11.4633,313.088,-0.872606
11.465,313.105,-0.872668
11.4667,313.121,-0.872727
11.4683,313.138,-0.872787
11.47,313.154,-0.872849
11.4717,313.171,-0.872914
11.4733,313.188,-0.872983
11.475,313.205,-0.873054
11.4767,313.221,-0.873132
11.4783,313.238,-0.873217
11.48,313.255,-0.873296
11.4817,313.272,-0.873374
11.4833,313.288,-0.873448
11.485,313.304,-0.873511
11.4867,313.321,-0.873572
11.4883,313.338,-0.873632
11.49,313.355,-0.873685
11.4917,313.371,-0.873738
11.4933,313.388,-0.873788
11.495,313.405,-0.873842
11.4967,313.421,-0.873892
11.4983,313.438,-0.873941
11.5,313.455,-0.873998
11.5017,313.472,-0.874057
11.5033,313.488,-0.874123
11.505,313.505,-0.874188
11.5067,313.522,-0.87426
11.5083,313.538,-0.874332
11.51,313.555,-0.874401
11.5117,313.572,-0.874465
11.5133,313.588,-0.874535
11.515,313.605,-0.874607
11.5167,313.622,-0.874665
11.5183,313.638,-0.874714
11.52,313.655,-0.874753
11.5217,313.672,-0.874785
11.5233,313.688,-0.874818
11.525,313.704,-0.87485
11.5267,313.721,-0.874896
11.5283,313.738,-0.874943
11.53,313.754,-0.874989
11.5317,313.771,-0.875037
11.5333,313.788,-0.875082
11.535,313.805,-0.875137
11.5367,313.821,-0.875188
11.5383,313.838,-0.87524
11.54,313.855,-0.875297
11.5417,313.871,-0.87536
11.5433,313.888,-0.875427
11.545,313.904,-0.875504
11.5467,313.921,-0.875582
11.5483,313.938,-0.875657
11.55,313.955,-0.875738
11.5517,313.971,-0.875814
11.5533,313.988,-0.87589
11.555,314.005,-0.875953
11.5567,314.021,-0.876011
11.5583,314.038,-0.876077
11.56,314.054,-0.876145
11.5617,314.071,-0.876211
11.5633,314.088,-0.876276
11.565,314.104,-0.876345
11.5667,314.121,-0.876408
11.5683,314.137,-0.876467
11.57,314.154,-0.876522
11.5717,314.171,-0.876568
11.5733,314.188,-0.876613
11.575,314.204,-0.876659
11.5767,314.221,-0.876714
11.5783,314.238,-0.87678
11.58,314.255,-0.876839
11.5817,314.272,-0.876908
11.5833,314.288,-0.876982
11.585,314.305,-0.877063
11.5867,314.322,-0.877157
11.5883,314.339,-0.877262
11.59,314.355,-0.877341
11.5917,314.372,-0.877413
11.5933,314.388,-0.877474
11.595,314.404,-0.877538
11.5967,314.421,-0.877596
11.5983,314.437,-0.877643
11.6,314.454,-0.877694
11.6017,314.471,-0.877745
11.6033,314.488,-0.877798
11.605,314.504,-0.877854
11.6067,314.521,-0.877905
11.6083,314.537,-0.877954
11.61,314.554,-0.878002
11.6117,314.571,-0.878046
11.6133,314.588,-0.878093
11.615,314.604,-0.878139
11.6167,314.621,-0.878185
11.6183,314.638,-0.878232
11.62,314.654,-0.878291
11.6217,314.671,-0.878371
11.6233,314.688,-0.878459
11.625,314.704,-0.87854
11.6267,314.721,-0.878621
11.6283,314.738,-0.878696
11.63,314.754,-0.878763
11.6317,314.771,-0.87883
11.6333,314.788,-0.878901
11.635,314.804,-0.878975
11.6367,314.821,-0.879047
11.6383,314.838,-0.879125
11.64,314.855,-0.879209
11.6417,314.871,-0.879295
11.6433,314.888,-0.879382
11.645,314.905,-0.879463
11.6467,314.921,-0.879547
11.6483,314.938,-0.879627
11.65,314.954,-0.879702
11.6517,314.971,-0.879767
11.6533,314.988,-0.879837
11.655,315.005,-0.879902
11.6567,315.021,-0.879957
11.6583,315.038,-0.880006
11.66,315.054,-0.880046
11.6617,315.071,-0.880083
11.6633,315.088,-0.88013
11.665,315.104,-0.880172
11.6667,315.121,-0.880207
11.6683,315.137,-0.880239
11.67,315.154,-0.880279
11.6717,315.171,-0.880333
11.6733,315.187,-0.880402
11.675,315.204,-0.880477
11.6767,315.221,-0.880552
11.6783,315.238,-0.880626
11.68,315.254,-0.880697
11.6817,315.271,-0.880772
11.6833,315.287,-0.88085
11.685,315.304,-0.880923
11.6867,315.321,-0.880994
11.6883,315.338,-0.881052
11.69,315.354,-0.881109
11.6917,315.371,-0.881176
11.6933,315.388,-0.88125
11.695,315.404,-0.881333
11.6967,315.42,-0.88142
11.6983,315.437,-0.881504
11.7,315.454,-0.88159
11.7017,315.471,-0.881677
11.7033,315.487,-0.881763
11.705,315.504,-0.881843
11.7067,315.52,-0.881899
11.7083,315.537,-0.881936
11.71,315.554,-0.881967
11.7117,315.571,-0.881988
11.7133,315.588,-0.882006
11.715,315.604,-0.882022
11.7167,315.621,-0.88204
11.7183,315.637,-0.882073
11.72,315.654,-0.882114
11.7217,315.671,-0.882158
11.7233,315.687,-0.882221
11.725,315.704,-0.882288
11.7267,315.72,-0.882369
11.7283,315.737,-0.882467
11.73,315.754,-0.882604
11.7317,315.771,-0.88272
11.7333,315.787,-0.882807
11.735,315.804,-0.882888
11.7367,315.821,-0.882962
11.7383,315.837,-0.883024
11.74,315.854,-0.883082
11.7417,315.871,-0.883133
11.7433,315.887,-0.883172
11.745,315.904,-0.88321
11.7467,315.921,-0.883256
11.7483,315.938,-0.883301
11.75,315.954,-0.883347
11.7517,315.971,-0.883399
11.7533,315.988,-0.883452
11.755,316.004,-0.883515
11.7567,316.021,-0.883578
11.7583,316.037,-0.883639
11.76,316.054,-0.883702
11.7617,316.071,-0.883767
11.7633,316.087,-0.883834
11.765,316.104,-0.883904
11.7667,316.12,-0.883976
11.7683,316.137,-0.884049
11.77,316.154,-0.884134
11.7717,316.17,-0.884217
11.7733,316.187,-0.884304
11.775,316.204,-0.884393
11.7767,316.22,-0.884483
11.7783,316.237,-0.884574
11.78,316.253,-0.884663
11.7817,316.27,-0.884746
11.7833,316.287,-0.884828
11.785,316.304,-0.884905
11.7867,316.32,-0.884968
11.7883,316.337,-0.88502
11.79,316.353,-0.885066
11.7917,316.37,-0.885105
11.7933,316.386,-0.885148
11.795,316.404,-0.88519
11.7967,316.42,-0.885228
11.7983,316.437,-0.885268
11.8,316.453,-0.885319
11.8017,316.47,-0.885378
11.8033,316.487,-0.885445
11.805,316.503,-0.885518
11.8067,316.52,-0.885585
11.8083,316.537,-0.885655
11.81,316.553,-0.885728
11.8117,316.57,-0.8858
11.8133,316.586,-0.885877
11.815,316.603,-0.885947
11.8167,316.62,-0.886022
11.8183,316.636,-0.886099
11.82,316.653,-0.886172
11.8217,316.67,-0.88624
11.8233,316.686,-0.886311
11.825,316.703,-0.88638
11.8267,316.72,-0.886447
11.8283,316.736,-0.886526
11.83,316.753,-0.886612
11.8317,316.77,-0.886698
11.8333,316.786,-0.88678
11.835,316.803,-0.886865
11.8367,316.82,-0.886946
11.8383,316.836,-0.887023
11.84,316.853,-0.887094
11.8417,316.87,-0.887153
11.8433,316.886,-0.887213
11.845,316.903,-0.88727
11.8467,316.919,-0.887317
11.8483,316.936,-0.887368
11.85,316.953,-0.887417
11.8517,316.97,-0.887466
11.8533,316.986,-0.887517
11.855,317.003,-0.887575
11.8567,317.02,-0.887633
11.8583,317.036,-0.887699
11.86,317.053,-0.88777
11.8617,317.07,-0.887841
11.8633,317.086,-0.887909
11.865,317.103,-0.887978
11.8667,317.12,-0.888047
11.8683,317.136,-0.888112
11.87,317.153,-0.888175
11.8717,317.17,-0.888242
11.8733,317.186,-0.88832
11.875,317.203,-0.888403
11.8767,317.22,-0.888486
11.8783,317.236,-0.888595
11.88,317.253,-0.888807
11.8817,317.27,-0.888899
11.8833,317.286,-0.888988
11.885,317.303,-0.889081
11.8867,317.319,-0.889165
11.8883,317.336,-0.88925
11.89,317.353,-0.889332
11.8917,317.369,-0.889423
11.8933,317.386,-0.88954
11.895,317.402,-0.889635
11.8967,317.419,-0.889723
11.8983,317.436,-0.889809
11.9,317.453,-0.889886
11.9017,317.469,-0.889954
11.9033,317.486,-0.890025
11.905,317.502,-0.890087
11.9067,317.519,-0.890146
11.9083,317.536,-0.890209
11.91,317.552,-0.890267
11.9117,317.569,-0.89033
11.9133,317.586,-0.890391
11.915,317.602,-0.890449
11.9167,317.619,-0.89051
11.9183,317.636,-0.890569
11.92,317.652,-0.890639
11.9217,317.669,-0.890716
11.9233,317.686,-0.890788
11.925,317.702,-0.890863
11.9267,317.719,-0.890939
11.9283,317.736,-0.891015
11.93,317.752,-0.891084
11.9317,317.769,-0.891159
11.9333,317.785,-0.891231
11.935,317.801,-0.891308
11.9367,317.818,-0.891389
11.9383,317.835,-0.891478
11.94,317.852,-0.891569
11.9417,317.868,-0.891664
11.9433,317.885,-0.891756
11.945,317.902,-0.891847
11.9467,317.918,-0.891932
11.9483,317.935,-0.892008
11.95,317.952,-0.892078
11.9517,317.968,-0.89215
11.9533,317.985,-0.89222
11.955,318.002,-0.892284
11.9567,318.018,-0.892344
11.9583,318.035,-0.892417
11.96,318.052,-0.892486
11.9617,318.068,-0.89256
11.9633,318.085,-0.892632
11.965,318.102,-0.892699
11.9667,318.118,-0.892754
11.9683,318.135,-0.892809
11.97,318.152,-0.892855
11.9717,318.169,-0.892904
11.9733,318.185,-0.892951
11.975,318.202,-0.893003
11.9767,318.219,-0.893058
11.9783,318.235,-0.893118
11.98,318.252,-0.893193
11.9817,318.268,-0.89328
11.9833,318.285,-0.893369
11.985,318.302,-0.893456
11.9867,318.318,-0.893553
11.9883,318.335,-0.893654
11.99,318.352,-0.893768
11.9917,318.368,-0.89392
11.9933,318.385,-0.894025
11.995,318.401,-0.894124
11.9967,318.418,-0.894219
11.9983,318.435,-0.894311
12,318.451,-0.894399
12.0017,318.468,-0.894474
12.0033,318.484,-0.894546
12.005,318.501,-0.894618
12.0067,318.517,-0.894681
12.0083,318.534,-0.894745
12.01,318.551,-0.89482
12.0117,318.567,-0.894899
12.0133,318.584,-0.894987
12.015,318.6,-0.895084
12.0167,318.617,-0.895185
12.0183,318.634,-0.89531
12.02,318.651,-0.895412
12.0217,318.667,-0.895512
12.0233,318.684,-0.895604
12.025,318.701,-0.895684
12.0267,318.718,-0.895762
12.0283,318.734,-0.895833
12.03,318.751,-0.895906
12.0317,318.768,-0.89598
12.0333,318.784,-0.896068
12.035,318.801,-0.896157
12.0367,318.818,-0.896256
12.0383,318.834,-0.896364
12.04,318.851,-0.89647
12.0417,318.867,-0.896577
12.0433,318.884,-0.896678
12.045,318.9,-0.896773
12.0467,318.917,-0.896866
12.0483,318.934,-0.89695
12.05,318.95,-0.897028
12.0517,318.967,-0.897108
12.0533,318.984,-0.89719
12.055,319,-0.897273
12.0567,319.017,-0.897358
12.0583,319.034,-0.897445
12.06,319.05,-0.897532
12.0617,319.067,-0.897618
12.0633,319.083,-0.897704
12.065,319.1,-0.89779
12.0667,319.117,-0.897878
12.0683,319.133,-0.897965
12.07,319.15,-0.898047
12.0717,319.167,-0.89813
12.0733,319.184,-0.898197
12.075,319.2,-0.898261
12.0767,319.217,-0.898327
12.0783,319.233,-0.898401
12.08,319.25,-0.898484
12.0817,319.266,-0.898577
12.0833,319.284,-0.898669
12.085,319.3,-0.898766
12.0867,319.316,-0.898862
12.0883,319.333,-0.89896
12.09,319.35,-0.899062
12.0917,319.366,-0.899165
12.0933,319.383,-0.899258
12.095,319.399,-0.899346
12.0967,319.416,-0.899428
12.0983,319.433,-0.899517
12.1,319.449,-0.899604
12.1017,319.466,-0.899679
12.1033,319.483,-0.899752
12.105,319.499,-0.899824
12.1067,319.516,-0.899906
12.1083,319.533,-0.9
12.11,319.549,-0.9001
12.1117,319.566,-0.900208
12.1133,319.583,-0.900366
12.115,319.599,-0.900532
12.1167,319.616,-0.900642
12.1183,319.632,-0.900807
12.12,319.649,-0.900957
12.1217,319.666,-0.901067
12.1233,319.683,-0.901177
12.125,319.699,-0.90128
12.1267,319.716,-0.901376
12.1283,319.732,-0.901469
12.13,319.749,-0.901556
12.1317,319.765,-0.901642
12.1333,319.782,-0.901729
12.135,319.799,-0.901813
12.1367,319.815,-0.9019
12.1383,319.832,-0.90199
12.14,319.849,-0.902083
12.1417,319.865,-0.902172
12.1433,319.882,-0.902272
12.145,319.899,-0.902375
12.1467,319.915,-0.902479
12.1483,319.932,-0.902589
12.15,319.948,-0.902702
12.1517,319.965,-0.902812
12.1533,319.982,-0.902918
12.155,319.999,-0.903026
12.1567,320.015,-0.903126
12.1583,320.031,-0.903214
12.16,320.049,-0.903299
12.1617,320.065,-0.903382
12.1633,320.081,-0.903461
12.165,320.098,-0.903539
12.1667,320.114,-0.903623
12.1683,320.131,-0.903713
12.17,320.148,-0.903808
12.1717,320.165,-0.903907
12.1733,320.182,-0.904019
12.175,320.198,-0.904123
12.1767,320.215,-0.904234
12.1783,320.231,-0.904347
12.18,320.248,-0.904512
12.1817,320.265,-0.904811
12.1833,320.281,-0.905072
12.185,320.298,-0.905276
12.1867,320.314,-0.905459
12.1883,320.332,-0.905607
12.19,320.348,-0.905728
12.1917,320.365,-0.905848
12.1933,320.381,-0.905964
12.195,320.398,-0.906074
12.1967,320.415,-0.906172
12.1983,320.431,-0.906273
12.2,320.448,-0.906381
12.2017,320.465,-0.906482
12.2033,320.481,-0.906579
12.205,320.498,-0.90667
12.2067,320.514,-0.906757
12.2083,320.531,-0.90685
12.21,320.548,-0.906936
12.2117,320.564,-0.907019
12.2133,320.581,-0.907106
12.215,320.598,-0.907206
12.2167,320.614,-0.907315
12.2183,320.631,-0.907442
12.22,320.647,-0.907587
12.2217,320.664,-0.907784
12.2233,320.682,-0.90797
12.225,320.699,-0.908178
12.2267,320.715,-0.908354
12.2283,320.732,-0.908473
12.23,320.748,-0.908582
12.2317,320.765,-0.908689
12.2333,320.782,-0.908792
12.235,320.798,-0.908906
12.2367,320.815,-0.909022
12.2383,320.831,-0.909144
12.24,320.848,-0.909264
12.2417,320.864,-0.909409
12.2433,320.881,-0.909552
12.245,320.898,-0.909737
12.2467,320.914,-0.909864
12.2483,320.931,-0.909983
12.25,320.947,-0.910092
12.2517,320.964,-0.910201
12.2533,320.981,-0.910312
12.255,320.998,-0.910426
12.2567,321.014,-0.910541
12.2583,321.031,-0.910644
12.26,321.048,-0.910744
12.2617,321.064,-0.910849
12.2633,321.081,-0.910965
12.265,321.098,-0.911087
12.2667,321.114,-0.911205
12.2683,321.131,-0.911315
12.27,321.148,-0.911426
12.2717,321.164,-0.911546
12.2733,321.181,-0.911668
12.275,321.197,-0.911793
12.2767,321.214,-0.911911
12.2783,321.23,-0.912022
12.28,321.247,-0.912139
12.2817,321.264,-0.91226
12.2833,321.28,-0.912381
12.285,321.297,-0.912506
12.2867,321.314,-0.912636
12.2883,321.33,-0.912799
12.29,321.347,-0.912999
12.2917,321.363,-0.913177
12.2933,321.38,-0.91332
12.295,321.396,-0.913457
12.2967,321.413,-0.913592
12.2983,321.43,-0.913725
12.3,321.447,-0.91385
12.3017,321.463,-0.913974
12.3033,321.48,-0.9141
12.305,321.496,-0.91423
12.3067,321.513,-0.914354
12.3083,321.53,-0.914474
12.31,321.547,-0.914601
12.3117,321.563,-0.914733
12.3133,321.579,-0.914858
12.315,321.596,-0.914973
12.3167,321.613,-0.915086
12.3183,321.629,-0.915201
12.32,321.646,-0.91531
12.3217,321.662,-0.915417
12.3233,321.679,-0.915524
12.325,321.696,-0.91563
12.3267,321.712,-0.915745
12.3283,321.729,-0.915869
12.33,321.745,-0.915995
12.3317,321.762,-0.91613
12.3333,321.779,-0.916278
12.335,321.796,-0.916416
12.3367,321.812,-0.91656
12.3383,321.829,-0.916712
12.34,321.845,-0.916939
12.3417,321.862,-0.917081
12.3433,321.878,-0.917216
12.345,321.895,-0.917348
12.3467,321.912,-0.917482
12.3483,321.929,-0.917625
12.35,321.946,-0.917761
12.3517,321.962,-0.917894
12.3533,321.978,-0.918017
12.355,321.995,-0.918134
12.3567,322.012,-0.918257
12.3583,322.029,-0.918383
12.36,322.045,-0.918513
12.3617,322.062,-0.918642
12.3633,322.078,-0.918768
12.365,322.095,-0.918904
12.3667,322.112,-0.91917
12.3683,322.128,-0.919393
12.37,322.145,-0.919664
12.3717,322.161,-0.919871
12.3733,322.178,-0.920015
12.375,322.195,-0.920237
12.3767,322.212,-0.920456
12.3783,322.228,-0.920621
12.38,322.245,-0.920775
12.3817,322.261,-0.920921
12.3833,322.278,-0.921077
12.385,322.294,-0.921319
12.3867,322.311,-0.921549
12.3883,322.327,-0.921946
12.39,322.344,-0.922313
12.3917,322.361,-0.922654
12.3933,322.378,-0.922892
12.395,322.394,-0.923138
12.3967,322.411,-0.92346
12.3983,322.428,-0.923696
12.4,322.444,-0.923857
12.4017,322.461,-0.923997
12.4033,322.477,-0.924134
12.405,322.494,-0.924292
12.4067,322.511,-0.924421
12.4083,322.527,-0.92456
12.41,322.544,-0.924705
12.4117,322.561,-0.924848
12.4133,322.577,-0.925
12.415,322.594,-0.925272
12.4167,322.61,-0.925731
12.4183,322.627,-0.926126
12.42,322.644,-0.9265
12.4217,322.66,-0.926869
12.4233,322.677,-0.927121
12.425,322.694,-0.927303
12.4267,322.71,-0.927448
12.4283,322.727,-0.927592
12.43,322.744,-0.927803
12.4317,322.76,-0.927943
12.4333,322.777,-0.928091
12.435,322.794,-0.928255
12.4367,322.81,-0.928435
12.4383,322.827,-0.928719
12.44,322.844,-0.929031
12.4417,322.861,-0.929344
12.4433,322.877,-0.92976
12.445,322.894,-0.930159
12.4467,322.91,-0.930541
12.4483,322.927,-0.930863
12.45,322.944,-0.93119
12.4517,322.96,-0.931645
12.4533,322.977,-0.932004
12.455,322.994,-0.932324
12.4567,323.01,-0.93265
12.4583,323.026,-0.932841
12.46,323.043,-0.933032
12.4617,323.059,-0.933241
12.4633,323.076,-0.933473
12.465,323.093,-0.933724
12.4667,323.109,-0.933969
12.4683,323.126,-0.934275
12.47,323.142,-0.934571
12.4717,323.159,-0.93502
12.4733,323.176,-0.935395
12.475,323.193,-0.935906
12.4767,323.21,-0.936376
12.4783,323.226,-0.936754
12.48,323.243,-0.937188
12.4817,323.259,-0.937432
12.4833,323.276,-0.937807
12.485,323.293,-0.938157
12.4867,323.309,-0.938404
12.4883,323.326,-0.938665
12.49,323.342,-0.93885
12.4917,323.359,-0.939003
12.4933,323.376,-0.939193
12.495,323.393,-0.939415
12.4967,323.409,-0.939637
12.4983,323.426,-0.939934
12.5,323.443,-0.940205
12.5017,323.459,-0.940405
12.5033,323.475,-0.94075
12.505,323.492,-0.941203
12.5067,323.509,-0.941626
12.5083,323.526,-0.94199
12.51,323.542,-0.942315
12.5117,323.559,-0.942578
12.5133,323.575,-0.942773
12.515,323.592,-0.942945
12.5167,323.608,-0.943394
12.5183,323.625,-0.943981
12.52,323.642,-0.944771
12.5217,323.658,-0.945498
12.5233,323.675,-0.94626
12.525,323.691,-0.947086
12.5267,323.708,-0.94779
12.5283,323.724,-0.948483
12.53,323.741,-0.948953
12.5317,323.758,-0.949406
12.5333,323.774,-0.949815
12.535,323.79,-0.950177
12.5367,323.807,-0.950498
12.5383,323.824,-0.95074
12.54,323.841,-0.950944
12.5417,323.857,-0.951166
12.5433,323.874,-0.951493
12.545,323.891,-0.951913
12.5467,323.907,-0.952319
12.5483,323.924,-0.952763
12.55,323.94,-0.95347
12.5517,323.957,-0.954214
12.5533,323.974,-0.955182
12.555,323.99,-0.956289
12.5567,324.007,-0.95752
12.5583,324.024,-0.958709
12.56,324.041,-0.959752
12.5617,324.057,-0.960756
12.5633,324.074,-0.961266
12.565,324.091,-0.961749
12.5667,324.107,-0.962103
12.5683,324.124,-0.962315
12.57,324.14,-0.962556
12.5717,324.157,-0.96288
12.5733,324.174,-0.963254
12.575,324.19,-0.963617
12.5767,324.206,-0.964043
12.5783,324.223,-0.964702
12.58,324.24,-0.965489
12.5817,324.257,-0.966172
12.5833,324.273,-0.9669
12.585,324.29,-0.967859
12.5867,324.307,-0.968638
12.5883,324.323,-0.969231
12.59,324.34,-0.969694
12.5917,324.357,-0.970029
12.5933,324.373,-0.970248
12.595,324.39,-0.970444
12.5967,324.407,-0.970695
12.5983,324.423,-0.970894
12.6,324.44,-0.971155
12.6017,324.457,-0.971572
12.6033,324.473,-0.972062
12.605,324.49,-0.972742
12.6067,324.506,-0.973674
12.6083,324.523,-0.974598
12.61,324.539,-0.975841
12.6117,324.556,-0.977056
12.6133,324.573,-0.97837
12.615,324.589,-0.979484
12.6167,324.606,-0.98058
12.6183,324.623,-0.981896
12.62,324.639,-0.983267
12.6217,324.656,-0.984539
12.6233,324.672,-0.985617
12.625,324.689,-0.986726
12.6267,324.706,-0.987875
12.6283,324.722,-0.988937
12.63,324.739,-0.990174
12.6317,324.755,-0.991181
12.6333,324.772,-0.992216
12.635,324.789,-0.993003
12.6367,324.805,-0.993699
12.6383,324.822,-0.994349
12.64,324.839,-0.994968
12.6417,324.855,-0.995606
12.6433,324.872,-0.996253
12.645,324.889,-0.996735
12.6467,324.905,-0.997275
12.6483,324.922,-0.997884
12.65,324.938,-0.99853
12.6517,324.955,-0.999336
12.6533,324.971,-1.00021
12.655,324.988,-1.00092
12.6567,325.005,-1.00158
12.6583,325.021,-1.00225
12.66,325.038,-1.00263
12.6617,325.055,-1.00302
12.6633,325.071,-1.00339
12.665,325.088,-1.00378
12.6667,325.104,-1.00434
12.6683,325.121,-1.00516
12.67,325.138,-1.00636
12.6717,325.154,-1.00799
12.6733,325.171,-1.01023
12.675,325.188,-1.01224
12.6767,325.204,-1.01435
12.6783,325.221,-1.01566
12.68,325.238,-1.01656
12.6817,325.255,-1.01741
12.6833,325.271,-1.01809
12.685,325.288,-1.01883
12.6867,325.304,-1.01949
12.6883,325.321,-1.02021
12.69,325.337,-1.02097
12.6917,325.354,-1.02193
12.6933,325.371,-1.0233
12.695,325.387,-1.02463
12.6967,325.404,-1.02618
12.6983,325.42,-1.02772
12.7,325.436,-1.02882
12.7017,325.453,-1.02963
12.7033,325.47,-1.03035
12.705,325.486,-1.031
12.7067,325.503,-1.03152
12.7083,325.52,-1.03199
12.71,325.537,-1.03253
12.7117,325.553,-1.03298
12.7133,325.57,-1.03364
12.715,325.586,-1.03461
12.7167,325.603,-1.03584
12.7183,325.62,-1.03725
12.72,325.636,-1.03887
12.7217,325.653,-1.04084
12.7233,325.669,-1.04253
12.725,325.686,-1.04388
12.7267,325.702,-1.04503
12.7283,325.719,-1.04626
12.73,325.735,-1.0473
12.7317,325.751,-1.04826
12.7333,325.767,-1.04923
12.735,325.784,-1.05003
12.7367,325.801,-1.05069
12.7383,325.817,-1.05169
12.74,325.834,-1.05265
12.7417,325.851,-1.05381
12.7433,325.868,-1.05508
12.745,325.884,-1.05647
12.7467,325.9,-1.05816
12.7483,325.917,-1.05994
12.75,325.934,-1.06148
12.7517,325.95,-1.06284
12.7533,325.967,-1.06382
12.755,325.983,-1.06485
12.7567,326,-1.06616
12.7583,326.017,-1.06755
12.76,326.034,-1.06907
12.7617,326.05,-1.07088
12.7633,326.066,-1.07264
12.765,326.083,-1.07428
12.7667,326.1,-1.07622
12.7683,326.116,-1.07804
12.77,326.133,-1.07984
12.7717,326.149,-1.0815
12.7733,326.166,-1.08303
12.775,326.182,-1.08461
12.7767,326.199,-1.08623
12.7783,326.216,-1.08775
12.78,326.233,-1.08894
12.7817,326.249,-1.08992
12.7833,326.266,-1.09055
12.785,326.282,-1.09125
12.7867,326.299,-1.09192
12.7883,326.315,-1.09277
12.79,326.332,-1.09408
12.7917,326.348,-1.09549
12.7933,326.365,-1.09749
12.795,326.381,-1.10001
12.7967,326.398,-1.10298
12.7983,326.414,-1.10594
12.8,326.431,-1.10855
12.8017,326.448,-1.11122
12.8033,326.465,-1.11332
12.805,326.481,-1.11559
12.8067,326.498,-1.11763
12.8083,326.515,-1.11954
12.81,326.531,-1.12161
12.8117,326.548,-1.12318
12.8133,326.564,-1.12438
12.815,326.581,-1.12559
12.8167,326.597,-1.12653
12.8183,326.614,-1.12766
12.82,326.63,-1.12902
12.8217,326.647,-1.13058
12.8233,326.663,-1.13194
12.825,326.68,-1.1333
12.8267,326.696,-1.13478
12.8283,326.713,-1.13676
12.83,326.729,-1.13899
12.8317,326.746,-1.14096
12.8333,326.762,-1.14285
12.835,326.779,-1.14444
12.8367,326.795,-1.1468
12.8383,326.812,-1.1502
12.84,326.829,-1.15339
12.8417,326.845,-1.15604
12.8433,326.862,-1.15798
12.845,326.879,-1.15968
12.8467,326.895,-1.16123
12.8483,326.912,-1.16252
12.85,326.929,-1.16376
12.8517,326.945,-1.16501
12.8533,326.961,-1.16565
12.855,326.978,-1.16661
12.8567,326.994,-1.16845
12.8583,327.011,-1.17054
12.86,327.028,-1.17332
12.8617,327.044,-1.17618
12.8633,327.061,-1.17908
12.865,327.077,-1.18207
12.8667,327.093,-1.18458
12.8683,327.11,-1.1875
12.87,327.126,-1.19003
12.8717,327.143,-1.19263
12.8733,327.16,-1.19573
12.875,327.176,-1.19903
12.8767,327.193,-1.20222
12.8783,327.209,-1.20591
12.88,327.226,-1.20763
12.8817,327.242,-1.20947
12.8833,327.259,-1.21135
12.885,327.276,-1.21372
12.8867,327.292,-1.21568
12.8883,327.309,-1.21846
12.89,327.325,-1.2197
12.8917,327.341,-1.22146
12.8933,327.358,-1.22347
12.895,327.375,-1.22657
12.8967,327.391,-1.22934
12.8983,327.408,-1.23148
12.9,327.424,-1.2339
12.9017,327.441,-1.23647
12.9033,327.457,-1.23923
12.905,327.474,-1.24214
12.9067,327.49,-1.24552
12.9083,327.507,-1.24789
12.91,327.523,-1.2509
12.9117,327.54,-1.25474
12.9133,327.556,-1.25786
12.915,327.572,-1.26033
12.9167,327.589,-1.26263
12.9183,327.605,-1.26484
12.92,327.622,-1.2672
12.9217,327.638,-1.26915
12.9233,327.655,-1.2716
12.925,327.671,-1.27563
12.9267,327.688,-1.27834
12.9283,327.704,-1.28047
12.93,327.721,-1.28421
12.9317,327.737,-1.28817
12.9333,327.754,-1.2927
12.935,327.77,-1.29662
12.9367,327.787,-1.30136
12.9383,327.803,-1.30436
12.94,327.82,-1.30681
12.9417,327.836,-1.30943
12.9433,327.853,-1.31244
12.945,327.869,-1.3151
12.9467,327.885,-1.31704
12.9483,327.902,-1.31986
12.95,327.918,-1.32199
12.9517,327.935,-1.32409
12.9533,327.951,-1.32678
12.955,327.968,-1.33002
12.9567,327.984,-1.33234
12.9583,328.001,-1.33511
12.96,328.017,-1.33864
12.9617,328.033,-1.34225
12.9633,328.05,-1.34647
12.965,328.066,-1.3506
12.9667,328.083,-1.35385
12.9683,328.099,-1.35792
12.97,328.116,-1.36146
12.9717,328.132,-1.36416
12.9733,328.149,-1.36749
12.975,328.165,-1.37005
12.9767,328.182,-1.3741
12.9783,328.198,-1.37728
12.98,328.214,-1.38045
12.9817,328.231,-1.38508
12.9833,328.247,-1.38668
12.985,328.264,-1.39083
12.9867,328.28,-1.39399
12.9883,328.297,-1.39865
12.99,328.313,-1.40149
12.9917,328.329,-1.40441
12.9933,328.346,-1.40833
12.995,328.363,-1.41277
12.9967,328.379,-1.41675
12.9983,328.396,-1.41951
13,328.412,-1.42343
13.0017,328.429,-1.42602
13.0033,328.445,-1.42888
13.005,328.462,-1.43232
13.0067,328.478,-1.43607
13.0083,328.494,-1.43882
13.01,328.511,-1.44128
13.0117,328.527,-1.44397
13.0133,328.543,-1.44662
13.015,328.559,-1.45089
13.0167,328.576,-1.45454
13.0183,328.592,-1.45743
13.02,328.609,-1.46111
13.0217,328.625,-1.46494
13.0233,328.642,-1.46754
13.025,328.659,-1.47196
13.0267,328.675,-1.47591
13.0283,328.692,-1.47962
13.03,328.708,-1.48314
13.0317,328.724,-1.48703
13.0333,328.741,-1.49121
13.035,328.757,-1.49377
13.0367,328.774,-1.49588
13.0383,328.79,-1.49877
13.04,328.807,-1.50111
13.0417,328.823,-1.50255
13.0433,328.84,-1.50528
13.045,328.856,-1.50719
13.0467,328.872,-1.51098
13.0483,328.889,-1.51473
13.05,328.905,-1.51847
13.0517,328.922,-1.52211
13.0533,328.938,-1.52562
13.055,328.954,-1.52839
13.0567,328.971,-1.53102
13.0583,328.988,-1.5359
13.06,329.004,-1.53869
13.0617,329.021,-1.5403
13.0633,329.037,-1.54307
13.065,329.054,-1.54479
13.0667,329.07,-1.54678
13.0683,329.086,-1.54841
13.07,329.102,-1.54973
13.0717,329.119,-1.55085
13.0733,329.136,-1.55156
13.075,329.152,-1.55317
13.0767,329.168,-1.55581
13.0783,329.185,-1.55787
13.08,329.201,-1.56159
13.0817,329.217,-1.56376
13.0833,329.234,-1.56566
13.085,329.251,-1.56704
13.0867,329.267,-1.5681
13.0883,329.283,-1.56982
13.09,329.3,-1.57143
13.0917,329.316,-1.57312
13.0933,329.333,-1.57462
13.095,329.349,-1.57535
13.0967,329.366,-1.57577
13.0983,329.383,-1.57666
13.1,329.399,-1.57756
13.1017,329.415,-1.57869
13.1033,329.432,-1.57922
13.105,329.448,-1.57962
13.1067,329.465,-1.57959
13.1083,329.481,-1.57924
13.11,329.498,-1.57914
13.1117,329.515,-1.57923
13.1133,329.531,-1.57931
13.115,329.547,-1.57939
13.1167,329.564,-1.57983
13.1183,329.58,-1.58018
13.12,329.597,-1.58067
13.1217,329.613,-1.58114
13.1233,329.63,-1.58133
13.125,329.647,-1.58134
13.1267,329.663,-1.58117
13.1283,329.68,-1.57864
13.13,329.696,-1.57681
13.1317,329.713,-1.57538
13.1333,329.73,-1.57449
13.135,329.746,-1.57381
13.1367,329.763,-1.57302
13.1383,329.779,-1.57234
13.14,329.795,-1.57177
13.1417,329.812,-1.57109
13.1433,329.829,-1.57047
13.145,329.846,-1.56948
13.1467,329.862,-1.56807
13.1483,329.878,-1.56613
13.15,329.896,-1.56412
13.1517,329.912,-1.56212
13.1533,329.929,-1.55998
13.155,329.945,-1.55775
13.1567,329.962,-1.55557
13.1583,329.979,-1.55301
13.16,329.995,-1.5503
13.1617,330.012,-1.54776
13.1633,330.029,-1.54516
13.165,330.045,-1.54185
13.1667,330.062,-1.53697
13.1683,330.079,-1.53237
13.17,330.096,-1.52731
13.1717,330.112,-1.52231
13.1733,330.128,-1.51734
13.175,330.145,-1.51306
13.1767,330.162,-1.50954
13.1783,330.179,-1.50528
13.18,330.196,-1.49959
13.1817,330.212,-1.49638
13.1833,330.229,-1.49258
13.185,330.246,-1.48615
13.1867,330.263,-1.48124
13.1883,330.28,-1.47602
13.19,330.297,-1.47205
13.1917,330.313,-1.46555
13.1933,330.33,-1.45954
13.195,330.347,-1.4546
13.1967,330.364,-1.44958
13.1983,330.38,-1.44476
13.2,330.397,-1.4401
13.2017,330.414,-1.43627
13.2033,330.431,-1.43137
13.205,330.448,-1.42674
13.2067,330.465,-1.42235
13.2083,330.481,-1.41746
13.21,330.498,-1.41379
13.2117,330.515,-1.41024
13.2133,330.532,-1.40469
13.215,330.549,-1.39883
13.2167,330.566,-1.39095
13.2183,330.583,-1.38483
13.22,330.6,-1.37847
13.2217,330.617,-1.37131
13.2233,330.634,-1.3662
13.225,330.65,-1.36094
13.2267,330.667,-1.35517
13.2283,330.684,-1.35036
13.23,330.701,-1.34582
13.2317,330.718,-1.3421
13.2333,330.735,-1.33678
13.235,330.752,-1.33141
13.2367,330.769,-1.32516
13.2383,330.786,-1.31876
13.24,330.803,-1.31341
13.2417,330.82,-1.30717
13.2433,330.837,-1.30197
13.245,330.854,-1.29683
13.2467,330.871,-1.29135
13.2483,330.888,-1.28476
13.25,330.905,-1.27898
13.2517,330.922,-1.27252
13.2533,330.938,-1.26606
13.255,330.955,-1.26038
13.2567,330.972,-1.25608
13.2583,330.989,-1.25107
13.26,331.007,-1.24622
13.2617,331.023,-1.2419
13.2633,331.04,-1.23746
13.265,331.057,-1.23261
13.2667,331.074,-1.22759
13.2683,331.091,-1.22212
13.27,331.108,-1.21698
13.2717,331.125,-1.21133
13.2733,331.142,-1.20567
13.275,331.159,-1.19977
13.2767,331.176,-1.19387
13.2783,331.193,-1.18867
13.28,331.21,-1.18251
13.2817,331.227,-1.17589
13.2833,331.244,-1.17073
13.285,331.261,-1.16549
13.2867,331.278,-1.16035
13.2883,331.295,-1.15561
13.29,331.312,-1.1507
13.2917,331.329,-1.14635
13.2933,331.346,-1.14116
13.295,331.363,-1.13714
13.2967,331.38,-1.13329
13.2983,331.397,-1.12851
13.3,331.414,-1.12328
13.3017,331.431,-1.12004
13.3033,331.448,-1.11483
13.305,331.465,-1.11011
13.3067,331.482,-1.10566
13.3083,331.499,-1.09995
13.31,331.516,-1.09522
13.3117,331.533,-1.08982
13.3133,331.55,-1.08476
13.315,331.567,-1.08076
13.3167,331.584,-1.0758
13.3183,331.601,-1.07163
13.32,331.618,-1.06844
13.3217,331.635,-1.06471
13.3233,331.652,-1.0616
13.325,331.668,-1.05815
13.3267,331.686,-1.05476
13.3283,331.703,-1.05068
13.33,331.72,-1.04698
13.3317,331.737,-1.04423
13.3333,331.753,-1.04056
13.335,331.77,-1.03795
13.3367,331.787,-1.03426
13.3383,331.804,-1.03175
13.34,331.821,-1.0275
13.3417,331.838,-1.02386
13.3433,331.855,-1.02035
13.345,331.872,-1.01605
13.3467,331.889,-1.01265
13.3483,331.906,-1.0096
13.35,331.923,-1.00625
13.3517,331.94,-1.00283
13.3533,331.957,-0.999816
13.355,331.973,-0.996299
13.3567,331.991,-0.993655
13.3583,332.008,-0.991039
13.36,332.025,-0.987696
13.3617,332.042,-0.985425
13.3633,332.058,-0.983782
13.365,332.075,-0.981573
13.3667,332.092,-0.97868
13.3683,332.109,-0.976307
13.37,332.126,-0.973963
13.3717,332.143,-0.971588
13.3733,332.16,-0.968209
13.375,332.177,-0.965523
13.3767,332.194,-0.962697
13.3783,332.211,-0.961625
13.38,332.228,-0.958727
13.3817,332.244,-0.957091
13.3833,332.261,-0.955072
13.385,332.278,-0.952089
13.3867,332.295,-0.950653
13.3883,332.312,-0.948293
13.39,332.329,-0.946617
13.3917,332.346,-0.942576
13.3933,332.363,-0.939165
13.395,332.38,-0.936357
13.3967,332.396,-0.93327
13.3983,332.413,-0.930482
13.4,332.43,-0.928013
13.4017,332.447,-0.925344
13.4033,332.464,-0.923745
13.405,332.481,-0.922755
13.4067,332.498,-0.922124
13.4083,332.515,-0.921442
13.41,332.531,-0.920266
13.4117,332.548,-0.918838
13.4133,332.565,-0.917677
13.415,332.582,-0.916505
13.4167,332.599,-0.915079
13.4183,332.616,-0.913387
13.42,332.633,-0.911586
13.4217,332.649,-0.910905
13.4233,332.666,-0.910051
13.425,332.683,-0.908936
13.4267,332.7,-0.90693
13.4283,332.717,-0.904923
13.43,332.734,-0.902551
13.4317,332.75,-0.900631
13.4333,332.767,-0.899185
13.435,332.784,-0.89832
13.4367,332.801,-0.896881
13.4383,332.818,-0.895622
13.44,332.835,-0.894672
13.4417,332.852,-0.893697
13.4433,332.868,-0.892459
13.445,332.885,-0.891172
13.4467,332.902,-0.889986
13.4483,332.919,-0.888996
13.45,332.936,-0.887879
13.4517,332.952,-0.886725
13.4533,332.969,-0.88574
13.455,332.986,-0.884574
13.4567,333.003,-0.883515
13.4583,333.02,-0.881997
13.46,333.036,-0.880137
13.4617,333.053,-0.878374
13.4633,333.07,-0.877472
13.465,333.086,-0.87672
13.4667,333.103,-0.875892
13.4683,333.12,-0.875385
13.47,333.137,-0.874925
13.4717,333.154,-0.87463
13.4733,333.171,-0.874188
13.475,333.187,-0.873634
13.4767,333.204,-0.873073
13.4783,333.221,-0.872434
13.48,333.238,-0.871997
13.4817,333.254,-0.871562
13.4833,333.271,-0.870711
13.485,333.288,-0.869948
13.4867,333.305,-0.868866
13.4883,333.322,-0.867747
13.49,333.338,-0.866534
13.4917,333.355,-0.864727
13.4933,333.372,-0.863469
13.495,333.389,-0.862473
13.4967,333.406,-0.861798
13.4983,333.422,-0.861219
13.5,333.439,-0.860849
13.5017,333.456,-0.860671
13.5033,333.473,-0.860361
13.505,333.489,-0.8601
13.5067,333.506,-0.859742
13.5083,333.523,-0.859226
13.51,333.54,-0.858609
13.5117,333.557,-0.857974
13.5133,333.573,-0.857136
13.515,333.59,-0.856226
13.5167,333.606,-0.855247
13.5183,333.623,-0.854379
13.52,333.64,-0.853666
13.5217,333.657,-0.852951
13.5233,333.673,-0.852193
13.525,333.69,-0.851592
13.5267,333.707,-0.851092
13.5283,333.724,-0.850763
13.53,333.74,-0.850423
13.5317,333.757,-0.850055
13.5333,333.774,-0.849744
13.535,333.79,-0.849552
13.5367,333.807,-0.849356
13.5383,333.824,-0.84924
13.54,333.841,-0.849074
13.5417,333.858,-0.848915
13.5433,333.874,-0.848763
13.545,333.891,-0.848577
13.5467,333.908,-0.848356
13.5483,333.924,-0.84813
13.55,333.941,-0.847872
13.5517,333.958,-0.84763
13.5533,333.974,-0.847319
13.555,333.991,-0.847076
13.5567,334.008,-0.846812
13.5583,334.025,-0.846436
13.56,334.041,-0.846102
13.5617,334.058,-0.845757
13.5633,334.075,-0.845336
13.565,334.092,-0.844893
13.5667,334.109,-0.844323
13.5683,334.125,-0.843667
13.57,334.142,-0.843271
13.5717,334.158,-0.842957
13.5733,334.175,-0.842642
13.575,334.192,-0.842405
13.5767,334.208,-0.842215
13.5783,334.225,-0.842061
13.58,334.242,-0.841912
13.5817,334.259,-0.841777
13.5833,334.276,-0.841652
13.585,334.292,-0.841444
13.5867,334.308,-0.841161
13.5883,334.325,-0.840981
13.59,334.342,-0.840842
13.5917,334.359,-0.840643
13.5933,334.376,-0.840494
13.595,334.393,-0.840366
13.5967,334.409,-0.840263
13.5983,334.426,-0.840147
13.6,334.443,-0.840041
13.6017,334.459,-0.839901
13.6033,334.476,-0.839666
13.605,334.493,-0.839401
13.6067,334.509,-0.839136
13.6083,334.526,-0.83898
13.61,334.543,-0.838806
13.6117,334.559,-0.838674
13.6133,334.576,-0.838547
13.615,334.593,-0.83847
13.6167,334.61,-0.838063
13.6183,334.626,-0.837755
13.62,334.643,-0.837473
13.6217,334.66,-0.837421
13.6233,334.677,-0.837313
13.625,334.693,-0.837168
13.6267,334.71,-0.837015
13.6283,334.726,-0.836799
13.63,334.743,-0.836583
13.6317,334.759,-0.83643
13.6333,334.776,-0.836279
13.635,334.793,-0.836209
13.6367,334.81,-0.836142
13.6383,334.826,-0.836084
13.64,334.843,-0.835914
13.6417,334.86,-0.835861
13.6433,334.876,-0.835803
13.645,334.893,-0.835725
13.6467,334.91,-0.835655
13.6483,334.927,-0.835589
13.65,334.943,-0.835519
13.6517,334.96,-0.835458
13.6533,334.977,-0.835393
13.655,334.994,-0.835324
13.6567,335.01,-0.835259
13.6583,335.027,-0.835193
13.66,335.044,-0.835119
13.6617,335.06,-0.835048
13.6633,335.077,-0.834972
13.665,335.093,-0.834839
13.6667,335.11,-0.834697
13.6683,335.127,-0.834557
13.67,335.143,-0.83445
13.6717,335.16,-0.834323
13.6733,335.177,-0.834235
13.675,335.193,-0.83416
13.6767,335.21,-0.83408
13.6783,335.227,-0.834004
13.68,335.243,-0.833815
13.6817,335.26,-0.833663
13.6833,335.277,-0.833595
13.685,335.293,-0.833525
13.6867,335.31,-0.833454
13.6883,335.327,-0.833377
13.69,335.344,-0.833295
13.6917,335.36,-0.833215
13.6933,335.377,-0.833142
13.695,335.394,-0.833069
13.6967,335.41,-0.832977
13.6983,335.427,-0.832918
13.7,335.444,-0.832844
13.7017,335.46,-0.832774
13.7033,335.477,-0.832697
13.705,335.494,-0.832616
13.7067,335.51,-0.832533
13.7083,335.527,-0.832451
13.71,335.544,-0.832366
13.7117,335.56,-0.832285
13.7133,335.577,-0.832206
13.715,335.594,-0.832139
13.7167,335.611,-0.832087
13.7183,335.628,-0.832035
13.72,335.644,-0.831988
13.7217,335.661,-0.831936
13.7233,335.677,-0.831875
13.725,335.694,-0.831813
13.7267,335.711,-0.831747
13.7283,335.727,-0.831676
13.73,335.744,-0.831608
13.7317,335.761,-0.831539
13.7333,335.778,-0.831472
13.735,335.794,-0.831416
13.7367,335.811,-0.831359
13.7383,335.828,-0.831303
13.74,335.844,-0.831242
13.7417,335.861,-0.831173
13.7433,335.878,-0.8311
13.745,335.894,-0.831027
13.7467,335.911,-0.830943
13.7483,335.928,-0.830863
13.75,335.944,-0.830788
13.7517,335.961,-0.830712
13.7533,335.978,-0.830644
13.755,335.995,-0.830578
13.7567,336.011,-0.830516
13.7583,336.028,-0.83046
13.76,336.045,-0.830409
13.7617,336.062,-0.83036
13.7633,336.078,-0.830312
13.765,336.095,-0.830261
13.7667,336.111,-0.830217
13.7683,336.128,-0.83017
13.77,336.145,-0.830124
13.7717,336.161,-0.830077
13.7733,336.178,-0.830036
13.775,336.194,-0.829991
13.7767,336.211,-0.829942
13.7783,336.228,-0.829887
13.78,336.245,-0.829837
13.7817,336.261,-0.829789
13.7833,336.278,-0.829734
13.785,336.294,-0.829674
13.7867,336.311,-0.82961
13.7883,336.328,-0.829546
13.79,336.344,-0.829485
13.7917,336.361,-0.829424
13.7933,336.378,-0.829361
13.795,336.395,-0.829293
13.7967,336.411,-0.82922
13.7983,336.428,-0.82915
13.8,336.445,-0.829074
13.8017,336.461,-0.829002
13.8033,336.478,-0.828933
13.805,336.495,-0.828873
13.8067,336.511,-0.828806
13.8083,336.528,-0.828739
13.81,336.544,-0.828678
13.8117,336.561,-0.828623
13.8133,336.578,-0.828564
13.815,336.595,-0.82851
13.8167,336.611,-0.828463
13.8183,336.628,-0.828404
13.82,336.644,-0.828345
13.8217,336.661,-0.828279
13.8233,336.678,-0.828207
13.825,336.695,-0.828128
13.8267,336.711,-0.828054
13.8283,336.728,-0.827978
13.83,336.744,-0.827901
13.8317,336.761,-0.827826
13.8333,336.777,-0.827763
13.835,336.794,-0.827707
13.8367,336.811,-0.827652
13.8383,336.828,-0.827596
13.84,336.844,-0.827542
13.8417,336.861,-0.827494
13.8433,336.878,-0.827445
13.845,336.894,-0.827403
13.8467,336.911,-0.827361
13.8483,336.928,-0.827315
13.85,336.944,-0.827276
13.8517,336.961,-0.827233
13.8533,336.978,-0.827188
13.855,336.994,-0.827147
13.8567,337.011,-0.827111
13.8583,337.028,-0.827073
13.86,337.045,-0.827024
13.8617,337.061,-0.826984
13.8633,337.078,-0.826943
13.865,337.094,-0.826896
13.8667,337.111,-0.826848
13.8683,337.127,-0.826808
13.87,337.144,-0.82677
13.8717,337.161,-0.826727
13.8733,337.177,-0.826692
13.875,337.194,-0.826663
13.8767,337.21,-0.826633
13.8783,337.227,-0.826609
13.88,337.244,-0.826575
13.8817,337.261,-0.826545
13.8833,337.277,-0.826518
13.885,337.294,-0.826479
13.8867,337.311,-0.826443
13.8883,337.328,-0.826401
13.89,337.344,-0.826354
13.8917,337.361,-0.826303
13.8933,337.378,-0.82625
13.895,337.395,-0.826196
13.8967,337.411,-0.826146
13.8983,337.428,-0.826096
13.9,337.444,-0.826041
13.9017,337.461,-0.825988
13.9033,337.478,-0.825934
13.905,337.494,-0.825881
13.9067,337.511,-0.825841
13.9083,337.528,-0.825811
13.91,337.545,-0.825782
13.9117,337.561,-0.825755
13.9133,337.578,-0.825732
13.915,337.595,-0.825705
13.9167,337.611,-0.825674
13.9183,337.628,-0.82564
13.92,337.644,-0.825604
13.9217,337.661,-0.825562
13.9233,337.678,-0.825514
13.925,337.694,-0.82547
13.9267,337.711,-0.825415
13.9283,337.727,-0.82536
13.93,337.744,-0.825306
13.9317,337.761,-0.825256
13.9333,337.777,-0.825208
13.935,337.794,-0.825163
13.9367,337.811,-0.825122
13.9383,337.827,-0.825086
13.94,337.844,-0.825054
13.9417,337.861,-0.825031
13.9433,337.878,-0.825017
13.945,337.894,-0.825009
13.9467,337.911,-0.824996
13.9483,337.928,-0.824989
13.95,337.944,-0.824971
13.9517,337.961,-0.824936
13.9533,337.977,-0.824907
13.955,337.994,-0.824879
13.9567,338.011,-0.824843
13.9583,338.027,-0.824803
13.96,338.044,-0.82476
13.9617,338.061,-0.824728
13.9633,338.078,-0.8247
13.965,338.094,-0.824675
13.9667,338.111,-0.824652
13.9683,338.127,-0.824631
13.97,338.144,-0.824599
13.9717,338.161,-0.824565
13.9733,338.177,-0.824538
13.975,338.194,-0.824512
13.9767,338.211,-0.824491
13.9783,338.227,-0.824463
13.98,338.244,-0.82445
13.9817,338.26,-0.82444
13.9833,338.277,-0.82443
13.985,338.294,-0.824413
13.9867,338.31,-0.824392
13.9883,338.327,-0.824365
13.99,338.344,-0.824337
13.9917,338.361,-0.824311
13.9933,338.377,-0.824284
13.995,338.394,-0.824253
13.9967,338.41,-0.82422
13.9983,338.427,-0.824196
14,338.444,-0.824179
14.0017,338.461,-0.824164
14.0033,338.478,-0.82415
14.005,338.494,-0.824138
14.0067,338.51,-0.824124
14.0083,338.527,-0.82411
14.01,338.544,-0.824093
14.0117,338.561,-0.824077
14.0133,338.578,-0.824053
14.015,338.594,-0.824036
14.0167,338.611,-0.824011
14.0183,338.627,-0.823984
14.02,338.644,-0.823956
14.0217,338.66,-0.823936
14.0233,338.677,-0.823926
14.025,338.694,-0.823911
14.0267,338.71,-0.823895
14.0283,338.727,-0.82388
14.03,338.744,-0.823865
14.0317,338.76,-0.823848
14.0333,338.777,-0.823834
14.035,338.794,-0.823824
14.0367,338.81,-0.823818
14.0383,338.827,-0.823816
14.04,338.844,-0.823818
14.0417,338.861,-0.823827
14.0433,338.877,-0.823833
14.045,338.894,-0.823843
14.0467,338.91,-0.823847
14.0483,338.927,-0.82385
14.05,338.944,-0.823849
14.0517,338.96,-0.823845
14.0533,338.977,-0.823842
14.055,338.994,-0.82384
14.0567,339.01,-0.823838
14.0583,339.027,-0.823831
14.06,339.044,-0.823826
14.0617,339.06,-0.823817
14.0633,339.077,-0.823798
14.065,339.093,-0.823773
14.0667,339.11,-0.823747
14.0683,339.127,-0.82372
14.07,339.143,-0.823688
14.0717,339.16,-0.82366
14.0733,339.177,-0.823639
14.075,339.193,-0.82362
14.0767,339.21,-0.823603
14.0783,339.226,-0.823586
14.08,339.243,-0.823571
14.0817,339.26,-0.823559
14.0833,339.276,-0.823552
14.085,339.293,-0.823549
14.0867,339.31,-0.823548
14.0883,339.326,-0.82355
14.09,339.343,-0.823551
14.0917,339.36,-0.823559
14.0933,339.376,-0.823563
14.095,339.393,-0.823566
14.0967,339.41,-0.823562
14.0983,339.426,-0.823551
14.1,339.443,-0.823538
14.1017,339.46,-0.823516
14.1033,339.476,-0.823491
14.105,339.493,-0.82347
14.1067,339.51,-0.823452
14.1083,339.526,-0.823439
14.11,339.543,-0.823422
14.1117,339.559,-0.82341
14.1133,339.576,-0.823398
14.115,339.593,-0.823385
14.1167,339.609,-0.823382
14.1183,339.626,-0.823382
14.12,339.643,-0.823381
14.1217,339.659,-0.823385
14.1233,339.676,-0.823383
14.125,339.693,-0.823393
14.1267,339.71,-0.823401
14.1283,339.726,-0.823403
14.13,339.743,-0.823403
14.1317,339.759,-0.823395
14.1333,339.776,-0.823386
14.135,339.792,-0.823369
14.1367,339.809,-0.823349
14.1383,339.826,-0.823325
14.14,339.842,-0.8233
14.1417,339.859,-0.823286
14.1433,339.876,-0.823276
14.145,339.893,-0.823271
14.1467,339.909,-0.823279
14.1483,339.926,-0.823285
14.15,339.943,-0.823293
14.1517,339.959,-0.823303
14.1533,339.975,-0.823303
14.155,339.992,-0.823316
14.1567,340.009,-0.823335
14.1583,340.026,-0.82335
14.16,340.043,-0.823361
14.1617,340.059,-0.823366
14.1633,340.076,-0.823363
14.165,340.093,-0.823357
14.1667,340.109,-0.823337
14.1683,340.126,-0.823311
14.17,340.142,-0.823285
14.1717,340.159,-0.823251
14.1733,340.175,-0.823212
14.175,340.192,-0.823175
14.1767,340.209,-0.823146
14.1783,340.225,-0.823119
14.18,340.242,-0.823094
14.1817,340.259,-0.823064
14.1833,340.275,-0.82304
14.185,340.292,-0.823019
14.1867,340.309,-0.823005
14.1883,340.326,-0.822999
14.19,340.342,-0.822994
14.1917,340.359,-0.823
14.1933,340.376,-0.823003
14.195,340.393,-0.823016
14.1967,340.409,-0.82304
14.1983,340.426,-0.823077
14.2,340.443,-0.823103
14.2017,340.459,-0.82313
14.2033,340.476,-0.82315
14.205,340.492,-0.82316
14.2067,340.509,-0.823162
14.2083,340.526,-0.823154
14.21,340.542,-0.823138
14.2117,340.559,-0.823121
14.2133,340.576,-0.823111
14.215,340.592,-0.823101
14.2167,340.608,-0.823092
14.2183,340.625,-0.823089
14.22,340.642,-0.823083
14.2217,340.659,-0.823089
14.2233,340.675,-0.823096
14.225,340.692,-0.8231
14.2267,340.709,-0.823102
14.2283,340.725,-0.823108
14.23,340.742,-0.823113
14.2317,340.759,-0.823127
14.2333,340.776,-0.823153
14.235,340.792,-0.823181
14.2367,340.809,-0.823214
14.2383,340.825,-0.823236
14.24,340.842,-0.823254
14.2417,340.859,-0.823249
14.2433,340.876,-0.823243
14.245,340.892,-0.823237
14.2467,340.909,-0.823229
14.2483,340.926,-0.823211
14.25,340.942,-0.823197
14.2517,340.958,-0.823186
14.2533,340.976,-0.823174
14.255,340.992,-0.823161
14.2567,341.009,-0.823156
14.2583,341.026,-0.823157
14.26,341.042,-0.823153
14.2617,341.059,-0.823143
14.2633,341.076,-0.823135
14.265,341.092,-0.823132
14.2667,341.109,-0.823125
14.2683,341.125,-0.823113
14.27,341.142,-0.823106
14.2717,341.158,-0.823099
14.2733,341.175,-0.823096
14.275,341.192,-0.823101
14.2767,341.208,-0.823113
14.2783,341.225,-0.823131
14.28,341.242,-0.823153
14.2817,341.258,-0.823178
14.2833,341.275,-0.823206
14.285,341.292,-0.823236
14.2867,341.308,-0.823269
14.2883,341.325,-0.823293
14.29,341.342,-0.823313
14.2917,341.358,-0.823332
14.2933,341.375,-0.823348
14.295,341.392,-0.823368
14.2967,341.408,-0.823383
14.2983,341.425,-0.823408
14.3,341.441,-0.823428
14.3017,341.458,-0.823437
14.3033,341.475,-0.823434
14.305,341.491,-0.823426
14.3067,341.508,-0.823418
14.3083,341.524,-0.823402
14.31,341.541,-0.823383
14.3117,341.558,-0.823363
14.3133,341.575,-0.823347
14.315,341.591,-0.823343
14.3167,341.608,-0.823363
14.3183,341.625,-0.823396
14.32,341.641,-0.823434
14.3217,341.658,-0.823488
14.3233,341.675,-0.823542
14.325,341.691,-0.823596
14.3267,341.708,-0.823637
14.3283,341.724,-0.823676
14.33,341.741,-0.823694
14.3317,341.758,-0.823706
14.3333,341.774,-0.823704
14.335,341.791,-0.823694
14.3367,341.808,-0.82367
14.3383,341.825,-0.823641
14.34,341.841,-0.823614
14.3417,341.858,-0.823591
14.3433,341.875,-0.823572
14.345,341.891,-0.823573
14.3467,341.908,-0.823579
14.3483,341.924,-0.823594
14.35,341.941,-0.823603
14.3517,341.957,-0.823622
14.3533,341.974,-0.82364
14.355,341.991,-0.823655
14.3567,342.007,-0.823663
14.3583,342.024,-0.823666
14.36,342.041,-0.823658
14.3617,342.057,-0.823662
14.3633,342.074,-0.823673
14.365,342.091,-0.823689
14.3667,342.107,-0.823706
14.3683,342.124,-0.82373
14.37,342.141,-0.823755
14.3717,342.158,-0.823782
14.3733,342.174,-0.823809
14.375,342.191,-0.823833
14.3767,342.208,-0.823849
14.3783,342.224,-0.823856
14.38,342.241,-0.823861
14.3817,342.257,-0.823862
14.3833,342.274,-0.82387
14.385,342.291,-0.82387
14.3867,342.307,-0.823872
14.3883,342.324,-0.823884
14.39,342.34,-0.823909
14.3917,342.357,-0.823933
14.3933,342.374,-0.823959
14.395,342.39,-0.823975
14.3967,342.407,-0.823986
14.3983,342.424,-0.823997
14.4,342.44,-0.824004
14.4017,342.457,-0.824002
14.4033,342.474,-0.823986
14.405,342.491,-0.823964
14.4067,342.507,-0.823945
14.4083,342.524,-0.823937
14.41,342.54,-0.823936
14.4117,342.557,-0.823943
14.4133,342.574,-0.823958
14.415,342.59,-0.823972
14.4167,342.607,-0.82399
14.4183,342.624,-0.824015
14.42,342.64,-0.824047
14.4217,342.657,-0.824072
14.4233,342.674,-0.824098
14.425,342.691,-0.824121
14.4267,342.708,-0.824145
14.4283,342.724,-0.824174
14.43,342.741,-0.824198
14.4317,342.757,-0.824224
14.4333,342.774,-0.82425
14.435,342.791,-0.824279
14.4367,342.807,-0.824308
14.4383,342.824,-0.824328
14.44,342.841,-0.824342
14.4417,342.857,-0.824346
14.4433,342.874,-0.824336
14.445,342.891,-0.824319
14.4467,342.907,-0.824292
14.4483,342.924,-0.824262
14.45,342.94,-0.824239
14.4517,342.957,-0.82422
14.4533,342.974,-0.824209
14.455,342.99,-0.824205
14.4567,343.007,-0.824207
14.4583,343.024,-0.824221
14.46,343.04,-0.82425
14.4617,343.057,-0.824277
14.4633,343.074,-0.824302
14.465,343.09,-0.824325
14.4667,343.107,-0.824343
14.4683,343.124,-0.824358
14.47,343.14,-0.824376
14.4717,343.157,-0.824393
14.4733,343.173,-0.824414
14.475,343.19,-0.824421
14.4767,343.207,-0.824427
14.4783,343.223,-0.824442
14.48,343.24,-0.824457
14.4817,343.257,-0.824474
14.4833,343.274,-0.824497
14.485,343.29,-0.824523
14.4867,343.307,-0.82455
14.4883,343.324,-0.824575
14.49,343.34,-0.824603
14.4917,343.357,-0.824628
14.4933,343.373,-0.824638
14.495,343.39,-0.824645
14.4967,343.407,-0.824648
14.4983,343.423,-0.824642
14.5,343.44,-0.824634
14.5017,343.457,-0.824617
14.5033,343.473,-0.824605
14.505,343.49,-0.824598
14.5067,343.507,-0.824601
14.5083,343.523,-0.824609
14.51,343.54,-0.824623
14.5117,343.557,-0.824634
14.5133,343.573,-0.824652
14.515,343.59,-0.824672
14.5167,343.607,-0.824696
14.5183,343.623,-0.82472
14.52,343.64,-0.824741
14.5217,343.657,-0.824752
14.5233,343.673,-0.824752
14.525,343.69,-0.824749
14.5267,343.707,-0.82475
14.5283,343.723,-0.824749
14.53,343.739,-0.824745
14.5317,343.756,-0.824758
14.5333,343.773,-0.824779
14.535,343.79,-0.824808
14.5367,343.806,-0.824836
14.5383,343.823,-0.824867
14.54,343.84,-0.824901
14.5417,343.856,-0.824924
14.5433,343.873,-0.824948
14.545,343.89,-0.824974
14.5467,343.906,-0.824995
14.5483,343.923,-0.825004
14.55,343.94,-0.825008
14.5517,343.957,-0.825016
14.5533,343.973,-0.825025
14.555,343.99,-0.825036
14.5567,344.007,-0.825045
14.5583,344.023,-0.825056
14.56,344.04,-0.82507
14.5617,344.057,-0.825091
14.5633,344.073,-0.825102
14.565,344.09,-0.825112
14.5667,344.106,-0.825115
14.5683,344.123,-0.825111
14.57,344.14,-0.825105
14.5717,344.156,-0.825102
14.5733,344.173,-0.825092
14.575,344.19,-0.825086
14.5767,344.206,-0.825085
14.5783,344.223,-0.825086
14.58,344.24,-0.825096
14.5817,344.257,-0.825112
14.5833,344.273,-0.825137
14.585,344.29,-0.825167
14.5867,344.307,-0.8252
14.5883,344.324,-0.825228
14.59,344.34,-0.825256
14.5917,344.357,-0.82528
14.5933,344.373,-0.825305
14.595,344.39,-0.825323
14.5967,344.407,-0.825341
14.5983,344.423,-0.825352
14.6,344.44,-0.825365
14.6017,344.457,-0.825386
14.6033,344.474,-0.825408
14.605,344.491,-0.825432
14.6067,344.507,-0.825458
14.6083,344.523,-0.825481
14.61,344.54,-0.825506
14.6117,344.557,-0.825529
14.6133,344.573,-0.825552
14.615,344.59,-0.825582
14.6167,344.606,-0.825613
14.6183,344.623,-0.825649
14.62,344.639,-0.825686
14.6217,344.656,-0.82572
14.6233,344.673,-0.825737
14.625,344.689,-0.825759
14.6267,344.706,-0.825784
14.6283,344.723,-0.825805
14.63,344.739,-0.825819
14.6317,344.756,-0.825835
14.6333,344.773,-0.825849
14.635,344.79,-0.825868
14.6367,344.806,-0.825886
14.6383,344.823,-0.825914
14.64,344.84,-0.825942
14.6417,344.856,-0.825969
14.6433,344.873,-0.826002
14.645,344.889,-0.826031
14.6467,344.906,-0.826057
14.6483,344.922,-0.826071
14.65,344.939,-0.82608
14.6517,344.956,-0.826086
14.6533,344.973,-0.826097
14.655,344.989,-0.826115
14.6567,345.006,-0.826124
14.6583,345.023,-0.826134
14.66,345.039,-0.826147
14.6617,345.056,-0.826156
14.6633,345.072,-0.826166
14.665,345.089,-0.826165
14.6667,345.106,-0.826157
14.6683,345.122,-0.826154
14.67,345.139,-0.826144
14.6717,345.156,-0.826135
14.6733,345.172,-0.826128
14.675,345.189,-0.826121
14.6767,345.206,-0.82612
14.6783,345.223,-0.826113
14.68,345.239,-0.826125
14.6817,345.256,-0.826141
14.6833,345.273,-0.826153
14.685,345.289,-0.826155
14.6867,345.306,-0.826164
14.6883,345.322,-0.826177
14.69,345.339,-0.826196
14.6917,345.355,-0.82622
14.6933,345.372,-0.826244
14.695,345.389,-0.826265
14.6967,345.406,-0.82629
14.6983,345.422,-0.826313
14.7,345.439,-0.826332
14.7017,345.456,-0.826348
14.7033,345.472,-0.826358
14.705,345.489,-0.826367
14.7067,345.505,-0.82637
14.7083,345.522,-0.826368
14.71,345.539,-0.82636
14.7117,345.555,-0.826364
14.7133,345.572,-0.826373
14.715,345.588,-0.826391
14.7167,345.605,-0.8264
14.7183,345.622,-0.826417
14.72,345.639,-0.826435
14.7217,345.655,-0.826468
14.7233,345.672,-0.826499
14.725,345.688,-0.826529
14.7267,345.705,-0.826556
14.7283,345.722,-0.826577
14.73,345.738,-0.826594
14.7317,345.755,-0.826607
14.7333,345.771,-0.826608
14.735,345.788,-0.82661
14.7367,345.805,-0.826604
14.7383,345.822,-0.826604
14.74,345.838,-0.826611
14.7417,345.855,-0.826618
14.7433,345.872,-0.826615
14.745,345.888,-0.826616
14.7467,345.905,-0.826629
14.7483,345.922,-0.826647
14.75,345.939,-0.82667
14.7517,345.955,-0.826696
14.7533,345.972,-0.826731
14.755,345.988,-0.826763
14.7567,346.005,-0.826792
14.7583,346.022,-0.826818
14.76,346.038,-0.82685
14.7617,346.055,-0.826866
14.7633,346.071,-0.826871
14.765,346.088,-0.826875
14.7667,346.104,-0.826874
14.7683,346.121,-0.826872
14.77,346.138,-0.826865
14.7717,346.154,-0.826864
14.7733,346.171,-0.826862
14.775,346.188,-0.826866
14.7767,346.205,-0.826876
14.7783,346.221,-0.826895
14.78,346.238,-0.826914
14.7817,346.255,-0.826932
14.7833,346.271,-0.826958
14.785,346.288,-0.826995
14.7867,346.304,-0.827027
14.7883,346.321,-0.827058
14.79,346.338,-0.827089
14.7917,346.354,-0.827119
14.7933,346.37,-0.827149
14.795,346.387,-0.827177
14.7967,346.404,-0.827206
14.7983,346.42,-0.827228
14.8,346.437,-0.827254
14.8017,346.454,-0.827282
14.8033,346.471,-0.827309
14.805,346.487,-0.827342
14.8067,346.504,-0.827376
14.8083,346.52,-0.827402
14.81,346.537,-0.827419
14.8117,346.554,-0.827424
14.8133,346.57,-0.827424
14.815,346.587,-0.827425
14.8167,346.604,-0.82742
14.8183,346.62,-0.827417
14.82,346.637,-0.827407
14.8217,346.654,-0.827397
14.8233,346.67,-0.827393
14.825,346.687,-0.827401
14.8267,346.704,-0.82741
14.8283,346.72,-0.827417
14.83,346.737,-0.827431
14.8317,346.754,-0.82744
14.8333,346.771,-0.827449
14.835,346.787,-0.827454
14.8367,346.804,-0.827458
14.8383,346.821,-0.827453
14.84,346.837,-0.827452
14.8417,346.854,-0.82746
14.8433,346.87,-0.827476
14.845,346.887,-0.827485
14.8467,346.904,-0.827501
14.8483,346.92,-0.827522
14.85,346.937,-0.827548
14.8517,346.954,-0.827577
14.8533,346.971,-0.827605
14.855,346.987,-0.827625
14.8567,347.003,-0.827646
14.8583,347.021,-0.82766
14.86,347.037,-0.827677
14.8617,347.054,-0.827685
14.8633,347.07,-0.827685
14.865,347.087,-0.827674
14.8667,347.103,-0.827663
14.8683,347.12,-0.82766
14.87,347.137,-0.82767
14.8717,347.153,-0.82769
14.8733,347.17,-0.827717
14.875,347.187,-0.827755
14.8767,347.203,-0.827806
14.8783,347.22,-0.827861
14.88,347.237,-0.82791
14.8817,347.253,-0.827946
14.8833,347.27,-0.827974
14.885,347.287,-0.82801
14.8867,347.303,-0.82804
14.8883,347.32,-0.828059
14.89,347.337,-0.828072
14.8917,347.353,-0.828084
14.8933,347.37,-0.828097
14.895,347.387,-0.828108
14.8967,347.404,-0.828119
14.8983,347.42,-0.828122
14.9,347.437,-0.828124
14.9017,347.454,-0.828138
14.9033,347.47,-0.828157
14.905,347.487,-0.82818
14.9067,347.504,-0.828213
14.9083,347.52,-0.828244
14.91,347.537,-0.828276
14.9117,347.553,-0.828304
14.9133,347.57,-0.828332
14.915,347.587,-0.828355
14.9167,347.603,-0.828372
14.9183,347.62,-0.82839
14.92,347.636,-0.828411
14.9217,347.653,-0.828427
14.9233,347.67,-0.828453
14.925,347.686,-0.828486
14.9267,347.703,-0.82852
14.9283,347.72,-0.828551
14.93,347.737,-0.828579
14.9317,347.753,-0.828605
14.9333,347.77,-0.828628
14.935,347.786,-0.828642
14.9367,347.803,-0.828645
14.9383,347.82,-0.828639
14.94,347.836,-0.828636
14.9417,347.853,-0.828632
14.9433,347.87,-0.828633
14.945,347.886,-0.828642
14.9467,347.903,-0.828655
14.9483,347.92,-0.828677
14.95,347.936,-0.828707
14.9517,347.953,-0.828735
14.9533,347.969,-0.828768
14.955,347.986,-0.8288
14.9567,348.003,-0.828839
14.9583,348.019,-0.828884
14.96,348.036,-0.828922
14.9617,348.053,-0.828961
14.9633,348.07,-0.828993
14.965,348.086,-0.829025
14.9667,348.103,-0.829048
14.9683,348.12,-0.829059
14.97,348.136,-0.829064
14.9717,348.153,-0.829059
14.9733,348.17,-0.829062
14.975,348.186,-0.829059
14.9767,348.203,-0.829059
14.9783,348.22,-0.829065
14.98,348.236,-0.829076
14.9817,348.253,-0.829085
14.9833,348.27,-0.829091
14.985,348.286,-0.829103
14.9867,348.303,-0.82913
14.9883,348.319,-0.829151
14.99,348.336,-0.829162
14.9917,348.352,-0.829172
14.9933,348.369,-0.829187
14.995,348.386,-0.829198
14.9967,348.403,-0.829208
14.9983,348.419,-0.829221
15,348.436,-0.829237
15.0017,348.453,-0.829251
15.0033,348.47,-0.829266
15.005,348.486,-0.829286
15.0067,348.503,-0.829306
15.0083,348.519,-0.829325
15.01,348.536,-0.829353
15.0117,348.553,-0.829389
15.0133,348.569,-0.829429
15.015,348.586,-0.829468
15.0167,348.603,-0.829508
15.0183,348.62,-0.829553
15.02,348.636,-0.829606
15.0217,348.653,-0.829656
15.0233,348.67,-0.829707
15.025,348.686,-0.829759
15.0267,348.703,-0.829815
15.0283,348.72,-0.829871
15.03,348.736,-0.829922
15.0317,348.753,-0.829967
15.0333,348.77,-0.830008
15.035,348.786,-0.830045
15.0367,348.802,-0.830082
15.0383,348.819,-0.83012
15.04,348.836,-0.830155
15.0417,348.853,-0.830189
15.0433,348.869,-0.83022
15.045,348.886,-0.830252
15.0467,348.903,-0.830277
15.0483,348.919,-0.830306
15.05,348.936,-0.830327
15.0517,348.953,-0.830343
15.0533,348.969,-0.830366
15.055,348.986,-0.830382
15.0567,349.003,-0.830401
15.0583,349.02,-0.83042
15.06,349.036,-0.830434
15.0617,349.053,-0.830444
15.0633,349.069,-0.830453
15.065,349.086,-0.830456
15.0667,349.103,-0.830459
15.0683,349.12,-0.830464
15.07,349.136,-0.830464
15.0717,349.152,-0.830462
15.0733,349.169,-0.830449
15.075,349.185,-0.830442
15.0767,349.202,-0.83043
15.0783,349.219,-0.830428
15.08,349.235,-0.830423
15.0817,349.252,-0.830419
15.0833,349.269,-0.830424
15.085,349.286,-0.830428
15.0867,349.302,-0.83043
15.0883,349.319,-0.830437
15.09,349.335,-0.830449
15.0917,349.352,-0.830463
15.0933,349.369,-0.830472
15.095,349.385,-0.830481
15.0967,349.402,-0.830494
15.0983,349.419,-0.830507
15.1,349.436,-0.830516
15.1017,349.452,-0.830517
15.1033,349.469,-0.830521
15.105,349.486,-0.830524
15.1067,349.502,-0.830523
15.1083,349.519,-0.83053
15.11,349.535,-0.830544
15.1117,349.552,-0.83056
15.1133,349.569,-0.830583
15.115,349.586,-0.830603
15.1167,349.602,-0.830619
15.1183,349.619,-0.830625
15.12,349.636,-0.830636
15.1217,349.652,-0.830641
15.1233,349.669,-0.830641
15.125,349.686,-0.83065
15.1267,349.702,-0.830662
15.1283,349.719,-0.830679
15.13,349.735,-0.830702
15.1317,349.752,-0.830726
15.1333,349.769,-0.830755
15.135,349.786,-0.830788
15.1367,349.802,-0.830818
15.1383,349.818,-0.830851
15.14,349.835,-0.83088
15.1417,349.852,-0.830908
15.1433,349.868,-0.830937
15.145,349.885,-0.830966
15.1467,349.902,-0.83099
15.1483,349.919,-0.831015
15.15,349.935,-0.83104
15.1517,349.952,-0.831072
15.1533,349.969,-0.831105
15.155,349.985,-0.831133
15.1567,350.002,-0.831156
15.1583,350.019,-0.831174
15.16,350.035,-0.831187
15.1617,350.052,-0.8312
15.1633,350.068,-0.831212
15.165,350.085,-0.831222
15.1667,350.102,-0.831235
15.1683,350.119,-0.831255
15.17,350.135,-0.83128
15.1717,350.151,-0.831304
15.1733,350.168,-0.831325
15.175,350.185,-0.83134
15.1767,350.201,-0.831359
15.1783,350.218,-0.831384
15.18,350.235,-0.831422
15.1817,350.251,-0.831465
15.1833,350.268,-0.831506
15.185,350.284,-0.831552
15.1867,350.301,-0.831595
15.1883,350.318,-0.831633
15.19,350.335,-0.831663
15.1917,350.351,-0.831684
15.1933,350.368,-0.831698
15.195,350.385,-0.831712
15.1967,350.401,-0.831713
15.1983,350.418,-0.831714
15.2,350.435,-0.831714
15.2017,350.451,-0.831701
15.2033,350.468,-0.831688
15.205,350.484,-0.831676
15.2067,350.501,-0.831668
15.2083,350.518,-0.831662
15.21,350.534,-0.83166
15.2117,350.551,-0.831664
15.2133,350.567,-0.831686
15.215,350.584,-0.831717
15.2167,350.601,-0.83175
15.2183,350.618,-0.831785
15.22,350.634,-0.831812
15.2217,350.651,-0.831842
15.2233,350.668,-0.831864
15.225,350.684,-0.83188
15.2267,350.701,-0.831888
15.2283,350.718,-0.831887
15.23,350.734,-0.831888
15.2317,350.751,-0.831899
15.2333,350.768,-0.831908
15.235,350.784,-0.831921
15.2367,350.801,-0.831943
15.2383,350.818,-0.831975
15.24,350.835,-0.832013
15.2417,350.851,-0.832047
15.2433,350.868,-0.832088
15.245,350.885,-0.832115
15.2467,350.901,-0.832139
15.2483,350.917,-0.832155
15.25,350.934,-0.832175
15.2517,350.951,-0.832187
15.2533,350.968,-0.832196
15.255,350.984,-0.832211
15.2567,351.001,-0.832222
15.2583,351.017,-0.832251
15.26,351.034,-0.832282
15.2617,351.05,-0.832325
15.2633,351.067,-0.832373
15.265,351.084,-0.832427
15.2667,351.101,-0.832472
15.2683,351.117,-0.832508
15.27,351.134,-0.832537
15.2717,351.151,-0.832556
15.2733,351.167,-0.832568
15.275,351.184,-0.832587
15.2767,351.201,-0.832605
15.2783,351.218,-0.832625
15.28,351.234,-0.832643
15.2817,351.251,-0.832669
15.2833,351.268,-0.83269
15.285,351.285,-0.832712
15.2867,351.301,-0.83273
15.2883,351.318,-0.832747
15.29,351.334,-0.832757
15.2917,351.351,-0.832763
15.2933,351.367,-0.832765
15.295,351.384,-0.832778
15.2967,351.401,-0.832793
15.2983,351.417,-0.83281
15.3,351.434,-0.832836
15.3017,351.451,-0.832865
15.3033,351.468,-0.832895
15.305,351.484,-0.832918
15.3067,351.501,-0.832948
15.3083,351.518,-0.832977
15.31,351.534,-0.833006
15.3117,351.551,-0.833021
15.3133,351.567,-0.833036
15.315,351.584,-0.833056
15.3167,351.601,-0.833078
15.3183,351.617,-0.833102
15.32,351.634,-0.833131
15.3217,351.651,-0.833168
15.3233,351.668,-0.833206
15.325,351.684,-0.833239
15.3267,351.701,-0.833286
15.3283,351.718,-0.83333
15.33,351.734,-0.83337
15.3317,351.751,-0.833412
15.3333,351.768,-0.833457
15.335,351.784,-0.833494
15.3367,351.801,-0.833523
15.3383,351.818,-0.833545
15.34,351.834,-0.833561
15.3417,351.851,-0.833574
15.3433,351.868,-0.83358
15.345,351.885,-0.833593
15.3467,351.901,-0.833611
15.3483,351.918,-0.833615
15.35,351.934,-0.833617
15.3517,351.951,-0.833621
15.3533,351.968,-0.833627
15.355,351.984,-0.833639
15.3567,352.001,-0.833652
15.3583,352.018,-0.833675
15.36,352.034,-0.833704
15.3617,352.051,-0.833743
15.3633,352.067,-0.83379
15.365,352.084,-0.833842
15.3667,352.101,-0.833889
15.3683,352.117,-0.833932
15.37,352.134,-0.833963
15.3717,352.151,-0.833983
15.3733,352.167,-0.833997
15.375,352.184,-0.834001
15.3767,352.201,-0.833996
15.3783,352.217,-0.833997
15.38,352.234,-0.834002
15.3817,352.251,-0.834005
15.3833,352.268,-0.834019
15.385,352.284,-0.834037
15.3867,352.301,-0.834068
15.3883,352.317,-0.8341
15.39,352.333,-0.83414
15.3917,352.35,-0.834175
15.3933,352.367,-0.834208
15.395,352.383,-0.834245
15.3967,352.4,-0.834279
15.3983,352.417,-0.834309
15.4,352.434,-0.834325
15.4017,352.451,-0.834335
15.4033,352.467,-0.834337
15.405,352.484,-0.834343
15.4067,352.5,-0.83435
15.4083,352.517,-0.834361
15.41,352.534,-0.834367
15.4117,352.55,-0.834374
15.4133,352.567,-0.834383
15.415,352.583,-0.834396
15.4167,352.6,-0.834415
15.4183,352.617,-0.834427
15.42,352.634,-0.834435
15.4217,352.65,-0.834445
15.4233,352.667,-0.834471
15.425,352.683,-0.834495
15.4267,352.7,-0.834522
15.4283,352.717,-0.83455
15.43,352.734,-0.834576
15.4317,352.751,-0.834605
15.4333,352.767,-0.834632
15.435,352.784,-0.834663
15.4367,352.8,-0.834694
15.4383,352.817,-0.834716
15.44,352.834,-0.834721
15.4417,352.85,-0.834724
15.4433,352.867,-0.834731
15.445,352.883,-0.834733
15.4467,352.9,-0.834734
15.4483,352.917,-0.834749
15.45,352.933,-0.834769
15.4517,352.95,-0.8348
15.4533,352.967,-0.834847
15.455,352.984,-0.834902
15.4567,353,-0.83498
15.4583,353.017,-0.835026
15.46,353.034,-0.835072
15.4617,353.05,-0.835118
15.4633,353.067,-0.835154
15.465,353.083,-0.835185
15.4667,353.1,-0.835203
15.4683,353.117,-0.835222
15.47,353.133,-0.835241
15.4717,353.15,-0.835248
15.4733,353.167,-0.835257
15.475,353.183,-0.835278
15.4767,353.2,-0.835295
15.4783,353.216,-0.835317
15.48,353.233,-0.83534
15.4817,353.25,-0.835372
15.4833,353.267,-0.835405
15.485,353.283,-0.835439
15.4867,353.3,-0.835472
15.4883,353.316,-0.8355
15.49,353.333,-0.835528
15.4917,353.35,-0.835547
15.4933,353.366,-0.835566
15.495,353.383,-0.835577
15.4967,353.4,-0.835582
15.4983,353.416,-0.83558
15.5,353.433,-0.835584
15.5017,353.45,-0.835593
15.5033,353.466,-0.835606
15.505,353.483,-0.835622
15.5067,353.5,-0.835651
15.5083,353.516,-0.835685
15.51,353.533,-0.835724
15.5117,353.549,-0.83576
15.5133,353.566,-0.835785
15.515,353.583,-0.835815
15.5167,353.6,-0.835841
15.5183,353.616,-0.835863
15.52,353.633,-0.835883
15.5217,353.649,-0.835894
15.5233,353.666,-0.835905
15.525,353.683,-0.835917
15.5267,353.699,-0.835926
15.5283,353.716,-0.835922
15.53,353.733,-0.835911
15.5317,353.75,-0.83589
15.5333,353.766,-0.835872
15.535,353.783,-0.835862
15.5367,353.799,-0.835857
15.5383,353.816,-0.835845
15.54,353.833,-0.835838
15.5417,353.849,-0.835839
15.5433,353.866,-0.835847
15.545,353.883,-0.835869
15.5467,353.899,-0.835903
15.5483,353.916,-0.835967
15.55,353.932,-0.836082
15.5517,353.949,-0.83618
15.5533,353.966,-0.836302
15.555,353.983,-0.836351
15.5567,353.999,-0.836386
15.5583,354.016,-0.836399
15.56,354.032,-0.836399
15.5617,354.049,-0.836387
15.5633,354.066,-0.83637
15.565,354.082,-0.836353
15.5667,354.099,-0.836348
15.5683,354.115,-0.836351
15.57,354.132,-0.836362
15.5717,354.149,-0.836379
15.5733,354.165,-0.836399
15.575,354.182,-0.836423
15.5767,354.199,-0.836449
15.5783,354.216,-0.836473
15.58,354.232,-0.836497
15.5817,354.249,-0.836525
15.5833,354.266,-0.836555
15.585,354.282,-0.836594
15.5867,354.299,-0.836634
15.5883,354.316,-0.836682
15.59,354.332,-0.836731
15.5917,354.349,-0.836767
15.5933,354.366,-0.836788
15.595,354.382,-0.836801
15.5967,354.399,-0.836806
15.5983,354.416,-0.836798
15.6,354.432,-0.83678
15.6017,354.449,-0.836769
15.6033,354.466,-0.836752
15.605,354.482,-0.836748
15.6067,354.499,-0.836758
15.6083,354.515,-0.836777
15.61,354.532,-0.836805
15.6117,354.548,-0.836846
15.6133,354.565,-0.836882
15.615,354.582,-0.836921
15.6167,354.598,-0.836958
15.6183,354.615,-0.836983
15.62,354.631,-0.837001
15.6217,354.648,-0.837012
15.6233,354.665,-0.837023
15.625,354.682,-0.837043
15.6267,354.699,-0.837065
15.6283,354.715,-0.837094
15.63,354.732,-0.837116
15.6317,354.748,-0.837141
15.6333,354.765,-0.837177
15.635,354.782,-0.837212
15.6367,354.798,-0.837243
15.6383,354.815,-0.837274
15.64,354.832,-0.837307
15.6417,354.848,-0.83733
15.6433,354.865,-0.837357
15.645,354.882,-0.837389
15.6467,354.898,-0.837416
15.6483,354.915,-0.837441
15.65,354.931,-0.837466
15.6517,354.948,-0.837482
15.6533,354.965,-0.837501
15.655,354.982,-0.837515
15.6567,354.998,-0.837528
15.6583,355.015,-0.83754
15.66,355.031,-0.837549
15.6617,355.048,-0.837564
15.6633,355.065,-0.837581
15.665,355.081,-0.837593
15.6667,355.098,-0.837596
15.6683,355.114,-0.837601
15.67,355.131,-0.837606
15.6717,355.148,-0.837608
15.6733,355.165,-0.837608
15.675,355.182,-0.837599
15.6767,355.198,-0.837587
15.6783,355.215,-0.837576
15.68,355.231,-0.83757
15.6817,355.248,-0.837581
15.6833,355.265,-0.837598
15.685,355.281,-0.837618
15.6867,355.298,-0.837637
15.6883,355.315,-0.837653
15.69,355.331,-0.83767
15.6917,355.348,-0.837696
15.6933,355.365,-0.837724
15.695,355.381,-0.837758
15.6967,355.398,-0.837799
15.6983,355.415,-0.837845
15.7,355.431,-0.837893
15.7017,355.448,-0.837943
15.7033,355.465,-0.837986
15.705,355.481,-0.83802
15.7067,355.498,-0.838034
15.7083,355.515,-0.83804
15.71,355.531,-0.838033
15.7117,355.548,-0.838022
15.7133,355.564,-0.83801
15.715,355.582,-0.83801
15.7167,355.598,-0.838009
15.7183,355.615,-0.838006
15.72,355.631,-0.838013
15.7217,355.648,-0.838014
15.7233,355.665,-0.838013
15.725,355.681,-0.838017
15.7267,355.697,-0.838022
15.7283,355.714,-0.838032
15.73,355.731,-0.838041
15.7317,355.748,-0.838063
15.7333,355.764,-0.838088
15.735,355.78,-0.838119
15.7367,355.797,-0.838144
15.7383,355.814,-0.838153
15.74,355.83,-0.838161
15.7417,355.847,-0.838169
15.7433,355.864,-0.838176
15.745,355.881,-0.838181
15.7467,355.897,-0.838183
15.7483,355.914,-0.838189
15.75,355.931,-0.838192
15.7517,355.948,-0.838207
15.7533,355.965,-0.83824
15.755,355.981,-0.838275
15.7567,355.998,-0.838316
15.7583,356.014,-0.838353
15.76,356.031,-0.838396
15.7617,356.048,-0.838438
15.7633,356.065,-0.838484
15.765,356.081,-0.838525
15.7667,356.098,-0.838566
15.7683,356.114,-0.838604
15.77,356.131,-0.838637
15.7717,356.148,-0.838667
15.7733,356.165,-0.838694
15.775,356.181,-0.838721
15.7767,356.198,-0.838734
15.7783,356.215,-0.83875
15.78,356.231,-0.838765
15.7817,356.248,-0.838777
15.7833,356.265,-0.838786
15.785,356.281,-0.838794
15.7867,356.298,-0.838799
15.7883,356.314,-0.838804
15.79,356.331,-0.838812
15.7917,356.348,-0.83882
15.7933,356.364,-0.838843
15.795,356.381,-0.838865
15.7967,356.397,-0.838888
15.7983,356.414,-0.838905
15.8,356.431,-0.83892
15.8017,356.448,-0.838933
15.8033,356.464,-0.838944
15.805,356.48,-0.838959
15.8067,356.497,-0.838972
15.8083,356.514,-0.838995
15.81,356.531,-0.839022
15.8117,356.547,-0.839059
15.8133,356.564,-0.839099
15.815,356.581,-0.839131
15.8167,356.597,-0.839173
15.8183,356.614,-0.839222
15.82,356.631,-0.839265
15.8217,356.647,-0.839311
15.8233,356.664,-0.839352
15.825,356.681,-0.839401
15.8267,356.698,-0.839456
15.8283,356.714,-0.839506
15.83,356.731,-0.839546
15.8317,356.748,-0.839575
15.8333,356.764,-0.839598
15.835,356.78,-0.839618
15.8367,356.797,-0.839634
15.8383,356.814,-0.839638
15.84,356.831,-0.839642
15.8417,356.847,-0.839628
15.8433,356.864,-0.839616
15.845,356.881,-0.839607
15.8467,356.897,-0.839599
15.8483,356.914,-0.839592
15.85,356.93,-0.83959
15.8517,356.947,-0.839591
15.8533,356.963,-0.839608
15.855,356.98,-0.839631
15.8567,356.997,-0.839663
15.8583,357.014,-0.839708
15.86,357.031,-0.839748
15.8617,357.047,-0.839793
15.8633,357.064,-0.839828
15.865,357.081,-0.839859
15.8667,357.097,-0.839891
15.8683,357.114,-0.839918
15.87,357.13,-0.83994
15.8717,357.147,-0.839956
15.8733,357.164,-0.839966
15.875,357.18,-0.83997
15.8767,357.197,-0.839971
15.8783,357.213,-0.83998
15.88,357.23,-0.840001
15.8817,357.247,-0.840024
15.8833,357.264,-0.840054
15.885,357.28,-0.840089
15.8867,357.297,-0.840127
15.8883,357.314,-0.840166
15.89,357.331,-0.8402
15.8917,357.347,-0.840232
15.8933,357.363,-0.840261
15.895,357.38,-0.84029
15.8967,357.397,-0.84032
15.8983,357.414,-0.84034
15.9,357.43,-0.840357
15.9017,357.447,-0.840371
15.9033,357.463,-0.840384
15.905,357.48,-0.840398
15.9067,357.497,-0.840412
15.9083,357.514,-0.840432
15.91,357.53,-0.840447
15.9117,357.547,-0.840458
15.9133,357.563,-0.840475
15.915,357.58,-0.840486
15.9167,357.597,-0.840487
15.9183,357.613,-0.840491
15.92,357.63,-0.840483
15.9217,357.646,-0.840479
15.9233,357.663,-0.840466
15.925,357.68,-0.840454
15.9267,357.697,-0.84044
15.9283,357.713,-0.840427
15.93,357.73,-0.840414
15.9317,357.746,-0.840404
15.9333,357.763,-0.840405
15.935,357.78,-0.840414
15.9367,357.796,-0.840439
15.9383,357.813,-0.840474
15.94,357.829,-0.840528
15.9417,357.846,-0.840567
15.9433,357.863,-0.840601
15.945,357.879,-0.840627
15.9467,357.896,-0.840652
15.9483,357.912,-0.840678
15.95,357.929,-0.840698
15.9517,357.946,-0.840719
15.9533,357.962,-0.840743
15.955,357.979,-0.840768
15.9567,357.996,-0.840792
15.9583,358.012,-0.840816
15.96,358.029,-0.840839
15.9617,358.046,-0.840848
15.9633,358.063,-0.840847
15.965,358.079,-0.840844
15.9667,358.096,-0.840834
15.9683,358.112,-0.840823
15.97,358.129,-0.840819
15.9717,358.146,-0.840818
15.9733,358.162,-0.840819
15.975,358.179,-0.840834
15.9767,358.196,-0.840858
15.9783,358.213,-0.840882
15.98,358.229,-0.840912
15.9817,358.246,-0.840952
15.9833,358.262,-0.84099
15.985,358.279,-0.841031
15.9867,358.295,-0.841065
15.9883,358.312,-0.841083
15.99,358.329,-0.841089
15.9917,358.345,-0.841089
15.9933,358.362,-0.841088
15.995,358.379,-0.84108
15.9967,358.395,-0.841073
15.9983,358.412,-0.841057
16,358.428,-0.841052
16.0017,358.445,-0.841059
16.0033,358.462,-0.841072
16.005,358.479,-0.841094
16.0067,358.495,-0.841119
16.0083,358.512,-0.841138
16.01,358.529,-0.841152
16.0117,358.546,-0.841169
16.0133,358.562,-0.841189
16.015,358.579,-0.841209
16.0167,358.595,-0.841223
16.0183,358.612,-0.841242
16.02,358.629,-0.84127
16.0217,358.645,-0.841295
16.0233,358.662,-0.841323
16.025,358.678,-0.841355
16.0267,358.695,-0.841383
16.0283,358.712,-0.841411
16.03,358.728,-0.841438
16.0317,358.745,-0.841463
16.0333,358.761,-0.841488
16.035,358.778,-0.841507
16.0367,358.795,-0.841522
16.0383,358.811,-0.841529
16.04,358.828,-0.841526
16.0417,358.845,-0.841519
16.0433,358.861,-0.841507
16.045,358.878,-0.841487
16.0467,358.894,-0.841474
16.0483,358.911,-0.841471
16.05,358.928,-0.841482
16.0517,358.944,-0.841505
16.0533,358.961,-0.841542
16.055,358.977,-0.841583
16.0567,358.994,-0.841624
16.0583,359.011,-0.841664
16.06,359.027,-0.841704
16.0617,359.044,-0.841744
16.0633,359.061,-0.841771
16.065,359.078,-0.841788
16.0667,359.094,-0.841793
16.0683,359.111,-0.841787
16.07,359.128,-0.841776
16.0717,359.144,-0.841757
16.0733,359.161,-0.841737
16.075,359.177,-0.841706
16.0767,359.194,-0.841687
16.0783,359.211,-0.841675
16.08,359.228,-0.841671
16.0817,359.244,-0.841675
16.0833,359.261,-0.841696
16.085,359.278,-0.841733
16.0867,359.294,-0.84177
16.0883,359.311,-0.841815
16.09,359.328,-0.841857
16.0917,359.344,-0.8419
16.0933,359.361,-0.841939
16.095,359.377,-0.841979
16.0967,359.394,-0.842019
16.0983,359.41,-0.84205
16.1,359.427,-0.842069
16.1017,359.444,-0.842087
16.1033,359.46,-0.842106
16.105,359.476,-0.842124
16.1067,359.493,-0.842141
16.1083,359.51,-0.842152
16.11,359.526,-0.842158
16.1117,359.543,-0.842173
16.1133,359.56,-0.842192
16.115,359.577,-0.842212
16.1167,359.594,-0.842246
16.1183,359.61,-0.842281
16.12,359.627,-0.842314
16.1217,359.644,-0.842342
16.1233,359.661,-0.842368
16.125,359.677,-0.842388
16.1267,359.694,-0.842395
16.1283,359.71,-0.8424
16.13,359.727,-0.842398
16.1317,359.743,-0.842402
16.1333,359.76,-0.842413
16.135,359.777,-0.842432
16.1367,359.793,-0.842449
16.1383,359.81,-0.842469
16.14,359.826,-0.842494
16.1417,359.843,-0.842525
16.1433,359.86,-0.842552
16.145,359.876,-0.842572
16.1467,359.893,-0.842594
16.1483,359.909,-0.842615
16.15,359.926,-0.84263
16.1517,359.943,-0.842642
16.1533,359.96,-0.842651
16.155,359.976,-0.842656
16.1567,359.993,-0.842656
16.1583,360.009,-0.842647
16.16,360.026,-0.842638
16.1617,360.043,-0.842624
16.1633,360.06,-0.842611
16.165,360.076,-0.84261
16.1667,360.093,-0.842612
16.1683,360.109,-0.842618
16.17,360.126,-0.842629
16.1717,360.143,-0.842651
16.1733,360.159,-0.842683
16.175,360.176,-0.842715
16.1767,360.193,-0.84275
16.1783,360.209,-0.842791
16.18,360.226,-0.842834
16.1817,360.243,-0.842872
16.1833,360.259,-0.84291
16.185,360.276,-0.842948
16.1867,360.293,-0.842984
16.1883,360.309,-0.843007
16.19,360.326,-0.84303
16.1917,360.342,-0.843055
16.1933,360.359,-0.84307
16.195,360.376,-0.843079
16.1967,360.392,-0.843088
16.1983,360.409,-0.843089
16.2,360.426,-0.843074
16.2017,360.442,-0.843053
16.2033,360.459,-0.843039
16.205,360.476,-0.843028
16.2067,360.493,-0.843022
16.2083,360.51,-0.843026
16.21,360.526,-0.843047
16.2117,360.543,-0.843082
16.2133,360.559,-0.843122
16.215,360.576,-0.843167
16.2167,360.593,-0.843209
16.2183,360.609,-0.84325
16.22,360.626,-0.843283
16.2217,360.643,-0.843315
16.2233,360.659,-0.843348
16.225,360.676,-0.843379
16.2267,360.693,-0.843399
16.2283,360.709,-0.843403
16.23,360.726,-0.843408
16.2317,360.742,-0.843409
16.2333,360.759,-0.843415
16.235,360.776,-0.843414
16.2367,360.792,-0.843405
16.2383,360.809,-0.843397
16.24,360.826,-0.8434
16.2417,360.843,-0.843406
16.2433,360.86,-0.843421
16.245,360.876,-0.843439
16.2467,360.892,-0.843472
16.2483,360.909,-0.843506
16.25,360.926,-0.843541
16.2517,360.942,-0.843578
16.2533,360.959,-0.843619
16.255,360.975,-0.843659
16.2567,360.992,-0.843702
16.2583,361.009,-0.843748
16.26,361.025,-0.843794
16.2617,361.042,-0.843835
16.2633,361.059,-0.84387
16.265,361.076,-0.843899
16.2667,361.092,-0.84392
16.2683,361.109,-0.843937
16.27,361.125,-0.843948
16.2717,361.142,-0.843953
16.2733,361.159,-0.843956
16.275,361.175,-0.843955
16.2767,361.192,-0.843958
16.2783,361.209,-0.843965
16.28,361.226,-0.843966
16.2817,361.242,-0.843972
16.2833,361.259,-0.843974
16.285,361.276,-0.843982
16.2867,361.292,-0.843992
16.2883,361.309,-0.84401
16.29,361.325,-0.844026
16.2917,361.342,-0.844043
16.2933,361.358,-0.844056
16.295,361.375,-0.844078
16.2967,361.392,-0.844103
16.2983,361.409,-0.844118
16.3,361.425,-0.844136
16.3017,361.442,-0.844146
16.3033,361.459,-0.844148
16.305,361.475,-0.844144
16.3067,361.492,-0.844144
16.3083,361.509,-0.844155
16.31,361.525,-0.844162
16.3117,361.542,-0.844167
16.3133,361.559,-0.844175
16.315,361.575,-0.844196
16.3167,361.592,-0.844218
16.3183,361.608,-0.844246
16.32,361.625,-0.844275
16.3217,361.641,-0.844308
16.3233,361.658,-0.844339
16.325,361.674,-0.844369
16.3267,361.691,-0.8444
16.3283,361.708,-0.844431
16.33,361.725,-0.844459
16.3317,361.742,-0.84448
16.3333,361.758,-0.844497
16.335,361.775,-0.844514
16.3367,361.791,-0.844538
16.3383,361.808,-0.844562
16.34,361.825,-0.844587
16.3417,361.841,-0.844608
16.3433,361.858,-0.844624
16.345,361.875,-0.844637
16.3467,361.891,-0.844651
16.3483,361.908,-0.844657
16.35,361.925,-0.844659
16.3517,361.941,-0.844658
16.3533,361.958,-0.844665
16.355,361.975,-0.844673
16.3567,361.991,-0.844676
16.3583,362.008,-0.844684
16.36,362.024,-0.844688
16.3617,362.041,-0.844697
16.3633,362.058,-0.844701
16.365,362.075,-0.84471
16.3667,362.091,-0.844719
16.3683,362.108,-0.844722
16.37,362.124,-0.844718
16.3717,362.141,-0.844725
16.3733,362.158,-0.844729
16.375,362.174,-0.844728
16.3767,362.191,-0.844736
16.3783,362.208,-0.844746
16.38,362.225,-0.844769
16.3817,362.241,-0.844797
16.3833,362.258,-0.844824
16.385,362.275,-0.844852
16.3867,362.291,-0.84488
16.3883,362.308,-0.844903
16.39,362.324,-0.84493
16.3917,362.341,-0.844946
16.3933,362.358,-0.844953
16.395,362.375,-0.844959
16.3967,362.391,-0.844961
16.3983,362.408,-0.844965
16.4,362.424,-0.844965
16.4017,362.441,-0.844967
16.4033,362.458,-0.844973
16.405,362.474,-0.844981
16.4067,362.491,-0.845
16.4083,362.508,-0.845023
16.41,362.524,-0.84505
16.4117,362.541,-0.845077
16.4133,362.558,-0.845105
16.415,362.574,-0.845136
16.4167,362.591,-0.845161
16.4183,362.608,-0.845189
16.42,362.625,-0.845211
16.4217,362.641,-0.845225
16.4233,362.658,-0.845236
16.425,362.675,-0.845239
16.4267,362.691,-0.845236
16.4283,362.708,-0.845235
16.43,362.725,-0.845234
16.4317,362.741,-0.845235
16.4333,362.758,-0.845235
16.435,362.775,-0.845242
16.4367,362.791,-0.845254
16.4383,362.808,-0.845268
16.44,362.825,-0.84529
16.4417,362.841,-0.845314
16.4433,362.858,-0.845337
16.445,362.875,-0.845357
16.4467,362.891,-0.845374
16.4483,362.908,-0.845393
16.45,362.925,-0.845412
16.4517,362.941,-0.845435
16.4533,362.958,-0.845461
16.455,362.974,-0.845481
16.4567,362.991,-0.8455
16.4583,363.008,-0.845521
16.46,363.024,-0.845538
16.4617,363.041,-0.845547
16.4633,363.058,-0.845557
16.465,363.074,-0.845565
16.4667,363.091,-0.845568
16.4683,363.108,-0.845566
16.47,363.124,-0.845572
16.4717,363.141,-0.845577
16.4733,363.158,-0.845581
16.475,363.174,-0.845598
16.4767,363.191,-0.845622
16.4783,363.208,-0.845651
16.48,363.224,-0.845671
16.4817,363.241,-0.845685
16.4833,363.258,-0.845699
16.485,363.274,-0.845708
16.4867,363.291,-0.84572
16.4883,363.308,-0.845734
16.49,363.324,-0.845746
16.4917,363.341,-0.845749
16.4933,363.357,-0.845749
16.495,363.374,-0.84576
16.4967,363.391,-0.84578
16.4983,363.407,-0.8458
16.5,363.424,-0.845829
16.5017,363.441,-0.845865
16.5033,363.457,-0.845902
16.505,363.474,-0.845937
16.5067,363.491,-0.845964
16.5083,363.508,-0.845991
16.51,363.524,-0.846007
16.5117,363.54,-0.846022
16.5133,363.557,-0.846027
16.515,363.574,-0.846032
16.5167,363.591,-0.846036
16.5183,363.607,-0.846034
16.52,363.624,-0.846046
16.5217,363.64,-0.84607
16.5233,363.657,-0.846087
16.525,363.674,-0.846097
16.5267,363.69,-0.846104
16.5283,363.707,-0.846102
16.53,363.724,-0.846099
16.5317,363.74,-0.846082
16.5333,363.757,-0.846061
16.535,363.774,-0.846048
16.5367,363.79,-0.846045
16.5383,363.807,-0.846052
16.54,363.824,-0.846068
16.5417,363.84,-0.846093
16.5433,363.857,-0.846127
16.545,363.874,-0.846162
16.5467,363.89,-0.846195
16.5483,363.907,-0.846225
16.55,363.923,-0.846252
16.5517,363.94,-0.846273
16.5533,363.957,-0.846286
16.555,363.974,-0.846295
16.5567,363.991,-0.846302
16.5583,364.007,-0.846312
16.56,364.024,-0.846322
16.5617,364.04,-0.846332
16.5633,364.057,-0.846352
16.565,364.074,-0.846374
16.5667,364.09,-0.846404
16.5683,364.107,-0.846427
16.57,364.124,-0.846437
16.5717,364.14,-0.846442
16.5733,364.157,-0.846433
16.575,364.174,-0.84642
16.5767,364.19,-0.846412
16.5783,364.207,-0.846397
16.58,364.224,-0.846389
16.5817,364.24,-0.846376
16.5833,364.257,-0.846368
16.585,364.274,-0.846371
16.5867,364.29,-0.84638
16.5883,364.307,-0.846401
16.59,364.324,-0.84643
16.5917,364.34,-0.846461
16.5933,364.357,-0.846487
16.595,364.374,-0.84651
16.5967,364.39,-0.846526
16.5983,364.407,-0.846541
16.6,364.423,-0.846545
16.6017,364.44,-0.846539
16.6033,364.457,-0.84653
16.605,364.474,-0.846514
16.6067,364.49,-0.846502
16.6083,364.507,-0.846497
16.61,364.524,-0.846486
16.6117,364.54,-0.84648
16.6133,364.557,-0.846475
16.615,364.573,-0.846479
16.6167,364.59,-0.846487
16.6183,364.606,-0.846503
16.62,364.623,-0.846519
16.6217,364.64,-0.846535
16.6233,364.657,-0.846546
16.625,364.673,-0.846561
16.6267,364.69,-0.846582
16.6283,364.707,-0.846598
16.63,364.723,-0.846619
16.6317,364.74,-0.846641
16.6333,364.757,-0.846665
16.635,364.774,-0.846692
16.6367,364.79,-0.846717
16.6383,364.807,-0.846749
16.64,364.823,-0.846785
16.6417,364.84,-0.846817
16.6433,364.857,-0.846839
16.645,364.873,-0.846864
16.6467,364.89,-0.846889
16.6483,364.907,-0.846908
16.65,364.923,-0.846913
16.6517,364.94,-0.846914
16.6533,364.957,-0.846916
16.655,364.973,-0.846919
16.6567,364.99,-0.846928
16.6583,365.006,-0.846939
16.66,365.023,-0.846951
16.6617,365.04,-0.846961
16.6633,365.057,-0.846971
16.665,365.073,-0.846981
16.6667,365.09,-0.84699
16.6683,365.106,-0.846991
16.67,365.123,-0.847
16.6717,365.139,-0.84701
16.6733,365.156,-0.847016
16.675,365.173,-0.84703
16.6767,365.19,-0.847042
16.6783,365.207,-0.847054
16.68,365.223,-0.847064
16.6817,365.24,-0.847064
16.6833,365.257,-0.847067
16.685,365.273,-0.847063
16.6867,365.29,-0.847064
16.6883,365.307,-0.847068
16.69,365.323,-0.847067
16.6917,365.34,-0.847068
16.6933,365.357,-0.847081
16.695,365.373,-0.847092
16.6967,365.39,-0.847104
16.6983,365.407,-0.847122
16.7,365.423,-0.84714
16.7017,365.44,-0.847155
16.7033,365.457,-0.847164
16.705,365.473,-0.84718
16.7067,365.49,-0.847191
16.7083,365.507,-0.847201
16.71,365.523,-0.84721
16.7117,365.54,-0.847231
16.7133,365.556,-0.847243
16.715,365.573,-0.847259
16.7167,365.59,-0.84727
16.7183,365.606,-0.847269
16.72,365.623,-0.847262
16.7217,365.64,-0.847254
16.7233,365.656,-0.847252
16.725,365.673,-0.847243
16.7267,365.689,-0.84723
16.7283,365.706,-0.84723
16.73,365.723,-0.847231
16.7317,365.74,-0.847231
16.7333,365.756,-0.847234
16.735,365.773,-0.847249
16.7367,365.79,-0.847257
16.7383,365.806,-0.847262
16.74,365.823,-0.847276
16.7417,365.84,-0.847292
16.7433,365.856,-0.84731
16.745,365.873,-0.847336
16.7467,365.89,-0.847371
16.7483,365.906,-0.847412
16.75,365.923,-0.84745
16.7517,365.939,-0.847485
16.7533,365.956,-0.847516
16.755,365.973,-0.847553
16.7567,365.99,-0.847586
16.7583,366.007,-0.847605
16.76,366.023,-0.847614
16.7617,366.04,-0.847623
16.7633,366.056,-0.84763
16.765,366.073,-0.847631
16.7667,366.089,-0.847621
16.7683,366.106,-0.847608
16.77,366.123,-0.8476
16.7717,366.139,-0.847596
16.7733,366.156,-0.847598
16.775,366.172,-0.847588
16.7767,366.188,-0.847572
16.7783,366.205,-0.847561
16.78,366.222,-0.847562
16.7817,366.238,-0.847573
16.7833,366.255,-0.84758
16.785,366.272,-0.847585
16.7867,366.289,-0.84759
16.7883,366.306,-0.847594
16.79,366.322,-0.84759
16.7917,366.338,-0.847589
16.7933,366.355,-0.847589
16.795,366.372,-0.847582
16.7967,366.389,-0.847565
16.7983,366.405,-0.847556
16.8,366.422,-0.847553
16.8017,366.439,-0.847547
16.8033,366.455,-0.847539
16.805,366.472,-0.847536
16.8067,366.489,-0.847533
16.8083,366.505,-0.84753
16.81,366.522,-0.847524
16.8117,366.539,-0.847526
16.8133,366.555,-0.847529
16.815,366.572,-0.847529
16.8167,366.589,-0.84754
16.8183,366.605,-0.847555
16.82,366.622,-0.847568
16.8217,366.638,-0.847583
16.8233,366.655,-0.847598
16.825,366.672,-0.847611
16.8267,366.689,-0.847629
16.8283,366.705,-0.847641
16.83,366.722,-0.847648
16.8317,366.739,-0.847658
16.8333,366.755,-0.847658
16.835,366.772,-0.847651
16.8367,366.788,-0.847645
16.8383,366.805,-0.847638
16.84,366.822,-0.847625
16.8417,366.838,-0.847614
16.8433,366.856,-0.847607
16.845,366.872,-0.847599
16.8467,366.888,-0.847595
16.8483,366.905,-0.847593
16.85,366.922,-0.847592
16.8517,366.939,-0.847587
16.8533,366.955,-0.847589
16.855,366.972,-0.847586
16.8567,366.988,-0.847585
16.8583,367.005,-0.847584
16.86,367.022,-0.847579
16.8617,367.038,-0.847588
16.8633,367.055,-0.847598
16.865,367.072,-0.847611
16.8667,367.088,-0.847633
16.8683,367.105,-0.847654
16.87,367.122,-0.84767
16.8717,367.138,-0.847687
16.8733,367.155,-0.8477
16.875,367.172,-0.847707
16.8767,367.188,-0.847708
16.8783,367.205,-0.847715
16.88,367.221,-0.847728
16.8817,367.238,-0.847739
16.8833,367.255,-0.847749
16.885,367.271,-0.847768
16.8867,367.288,-0.847794
16.8883,367.305,-0.847823
16.89,367.321,-0.847846
16.8917,367.339,-0.847861
16.8933,367.355,-0.847875
16.895,367.372,-0.84788
16.8967,367.388,-0.847883
16.8983,367.405,-0.847885
16.9,367.421,-0.84789
16.9017,367.438,-0.847891
16.9033,367.455,-0.847888
16.905,367.471,-0.847882
16.9067,367.488,-0.847887
16.9083,367.505,-0.847901
16.91,367.521,-0.847914
16.9117,367.538,-0.847937
16.9133,367.554,-0.847969
16.915,367.571,-0.848004
16.9167,367.588,-0.848041
16.9183,367.604,-0.848077
16.92,367.621,-0.848109
16.9217,367.638,-0.848137
16.9233,367.654,-0.848158
16.925,367.671,-0.848166
16.9267,367.688,-0.848168
16.9283,367.704,-0.848168
16.93,367.721,-0.848169
16.9317,367.738,-0.84817
16.9333,367.754,-0.848165
16.935,367.771,-0.848161
16.9367,367.788,-0.848154
16.9383,367.804,-0.848152
16.94,367.821,-0.848164
16.9417,367.837,-0.848178
16.9433,367.854,-0.848194
16.945,367.871,-0.848206
16.9467,367.888,-0.848216
16.9483,367.905,-0.848234
16.95,367.921,-0.848252
16.9517,367.938,-0.848265
16.9533,367.954,-0.848268
16.955,367.971,-0.848267
16.9567,367.988,-0.848266
16.9583,368.005,-0.848262
16.96,368.021,-0.848264
16.9617,368.038,-0.848257
16.9633,368.054,-0.84825
16.965,368.071,-0.848234
16.9667,368.088,-0.848216
16.9683,368.104,-0.848203
16.97,368.121,-0.84819
16.9717,368.138,-0.848176
16.9733,368.154,-0.848165
16.975,368.171,-0.848161
16.9767,368.187,-0.848163
16.9783,368.204,-0.848177
16.98,368.221,-0.848192
16.9817,368.237,-0.848211
16.9833,368.254,-0.848216
16.985,368.271,-0.848226
16.9867,368.287,-0.84824
16.9883,368.304,-0.848251
16.99,368.32,-0.848256
16.9917,368.337,-0.848247
16.9933,368.354,-0.848235
16.995,368.37,-0.848222
16.9967,368.387,-0.848201
16.9983,368.404,-0.848188
17,368.42,-0.84818
17.0017,368.437,-0.848178
17.0033,368.454,-0.848176
17.005,368.47,-0.848178
17.0067,368.487,-0.848182
17.0083,368.504,-0.848185
17.01,368.52,-0.848187
17.0117,368.537,-0.848183
17.0133,368.554,-0.848173
17.015,368.57,-0.848157
17.0167,368.587,-0.848142
17.0183,368.603,-0.848132
17.02,368.62,-0.848126
17.0217,368.637,-0.848133
17.0233,368.653,-0.848145
17.025,368.67,-0.848165
17.0267,368.687,-0.848194
17.0283,368.703,-0.848224
17.03,368.72,-0.848255
17.0317,368.737,-0.848284
17.0333,368.753,-0.848309
17.035,368.77,-0.848327
17.0367,368.786,-0.848334
17.0383,368.803,-0.84833
17.04,368.82,-0.848322
17.0417,368.836,-0.848311
17.0433,368.853,-0.848301
17.045,368.87,-0.848295
17.0467,368.886,-0.848286
17.0483,368.903,-0.848282
17.05,368.919,-0.848282
17.0517,368.936,-0.848289
17.0533,368.953,-0.848301
17.055,368.969,-0.848302
17.0567,368.986,-0.848308
17.0583,369.002,-0.848321
17.06,369.019,-0.848339
17.0617,369.036,-0.848356
17.0633,369.052,-0.848369
17.065,369.069,-0.848383
17.0667,369.086,-0.848397
17.0683,369.103,-0.848411
17.07,369.119,-0.848433
17.0717,369.136,-0.848445
17.0733,369.153,-0.848444
17.075,369.169,-0.848446
17.0767,369.186,-0.848441
17.0783,369.203,-0.848435
17.08,369.219,-0.848424
17.0817,369.236,-0.848409
17.0833,369.253,-0.84839
17.085,369.27,-0.848372
17.0867,369.286,-0.84836
17.0883,369.302,-0.848351
17.09,369.319,-0.848345
17.0917,369.336,-0.848342
17.0933,369.352,-0.848352
17.095,369.369,-0.848367
17.0967,369.386,-0.848383
17.0983,369.402,-0.848399
17.1,369.419,-0.848417
17.1017,369.436,-0.848429
17.1033,369.452,-0.848441
17.105,369.469,-0.848445
17.1067,369.486,-0.848451
17.1083,369.502,-0.848461
17.11,369.519,-0.84847
17.1117,369.536,-0.848474
17.1133,369.552,-0.848471
17.115,369.569,-0.84847
17.1167,369.586,-0.848465
17.1183,369.602,-0.848462
17.12,369.619,-0.848461
17.1217,369.636,-0.848453
17.1233,369.652,-0.848458
17.125,369.669,-0.848475
17.1267,369.685,-0.848486
17.1283,369.702,-0.848501
17.13,369.719,-0.848523
17.1317,369.736,-0.848546
17.1333,369.753,-0.848584
17.135,369.769,-0.848612
17.1367,369.786,-0.848638
17.1383,369.802,-0.848659
17.14,369.819,-0.848677
17.1417,369.835,-0.848693
17.1433,369.852,-0.848704
17.145,369.868,-0.848701
17.1467,369.885,-0.848694
17.1483,369.901,-0.848677
17.15,369.918,-0.848656
17.1517,369.935,-0.84864
17.1533,369.952,-0.848617
17.155,369.969,-0.8486
17.1567,369.985,-0.848575
17.1583,370.002,-0.848556
17.16,370.018,-0.848534
17.1617,370.035,-0.848516
17.1633,370.051,-0.848495
17.165,370.068,-0.848479
17.1667,370.085,-0.848473
17.1683,370.101,-0.848467
17.17,370.118,-0.848468
17.1717,370.135,-0.848466
17.1733,370.151,-0.848466
17.175,370.168,-0.848471
17.1767,370.185,-0.848475
17.1783,370.201,-0.848477
17.18,370.218,-0.848476
17.1817,370.235,-0.848481
17.1833,370.251,-0.848496
17.185,370.268,-0.848515
17.1867,370.285,-0.848527
17.1883,370.302,-0.84854
17.19,370.318,-0.848553
17.1917,370.335,-0.848553
17.1933,370.351,-0.848555
17.195,370.368,-0.848556
17.1967,370.385,-0.848563
17.1983,370.401,-0.848557
17.2,370.418,-0.848545
17.2017,370.434,-0.848532
17.2033,370.451,-0.84852
17.205,370.468,-0.848508
17.2067,370.485,-0.848498
17.2083,370.501,-0.848492
17.21,370.518,-0.848482
17.2117,370.534,-0.84848
17.2133,370.551,-0.848486
17.215,370.567,-0.848497
17.2167,370.584,-0.848511
17.2183,370.6,-0.848525
17.22,370.617,-0.848539
17.2217,370.634,-0.848557
17.2233,370.65,-0.848571
17.225,370.667,-0.848575
17.2267,370.684,-0.848577
17.2283,370.701,-0.848569
17.23,370.717,-0.848563
17.2317,370.734,-0.84856
17.2333,370.75,-0.848552
17.235,370.767,-0.848543
17.2367,370.784,-0.848533
17.2383,370.8,-0.848521
17.24,370.817,-0.848516
17.2417,370.834,-0.848507
17.2433,370.85,-0.848495
17.245,370.867,-0.848483
17.2467,370.883,-0.848462
17.2483,370.9,-0.848447
17.25,370.917,-0.848429
17.2517,370.933,-0.848407
17.2533,370.95,-0.848385
17.255,370.967,-0.848367
17.2567,370.983,-0.848359
17.2583,371,-0.848359
17.26,371.017,-0.848356
17.2617,371.033,-0.84834
17.2633,371.05,-0.848329
17.265,371.067,-0.848319
17.2667,371.084,-0.848305
17.2683,371.1,-0.848296
17.27,371.117,-0.848289
17.2717,371.134,-0.848286
17.2733,371.15,-0.848285
17.275,371.167,-0.848291
17.2767,371.183,-0.848309
17.2783,371.2,-0.848335
17.28,371.217,-0.848364
17.2817,371.233,-0.848389
17.2833,371.25,-0.848403
17.285,371.267,-0.848417
17.2867,371.283,-0.848428
17.2883,371.3,-0.848439
17.29,371.316,-0.848449
17.2917,371.333,-0.848459
17.2933,371.35,-0.848469
17.295,371.366,-0.848473
17.2967,371.383,-0.848477
17.2983,371.4,-0.848477
17.3,371.416,-0.84847
17.3017,371.433,-0.848455
17.3033,371.449,-0.848443
17.305,371.466,-0.848432
17.3067,371.483,-0.848425
17.3083,371.499,-0.848427
17.31,371.516,-0.848429
17.3117,371.533,-0.84844
17.3133,371.549,-0.848456
17.315,371.566,-0.848479
17.3167,371.582,-0.848492
17.3183,371.599,-0.848503
17.32,371.616,-0.848514
17.3217,371.633,-0.848519
17.3233,371.649,-0.848519
17.325,371.666,-0.848518
17.3267,371.683,-0.848514
17.3283,371.699,-0.848514
17.33,371.716,-0.848511
17.3317,371.733,-0.848493
17.3333,371.749,-0.848468
17.335,371.766,-0.848444
17.3367,371.783,-0.848412
17.3383,371.799,-0.848388
17.34,371.816,-0.848358
17.3417,371.832,-0.848339
17.3433,371.849,-0.848327
17.345,371.866,-0.848324
17.3467,371.882,-0.848328
17.3483,371.899,-0.848332
17.35,371.915,-0.848342
17.3517,371.932,-0.848361
17.3533,371.949,-0.84838
17.355,371.966,-0.848397
17.3567,371.982,-0.848421
17.3583,371.999,-0.848439
17.36,372.016,-0.848457
17.3617,372.032,-0.848471
17.3633,372.049,-0.848478
17.365,372.066,-0.848484
17.3667,372.082,-0.848497
17.3683,372.099,-0.848519
17.37,372.115,-0.848542
17.3717,372.132,-0.848565
17.3733,372.149,-0.848585
17.375,372.165,-0.848591
17.3767,372.182,-0.848588
17.3783,372.199,-0.848582
17.38,372.215,-0.848572
17.3817,372.232,-0.848555
17.3833,372.249,-0.848544
17.385,372.265,-0.848541
17.3867,372.282,-0.848537
17.3883,372.299,-0.848537
17.39,372.315,-0.848546
17.3917,372.332,-0.848552
17.3933,372.349,-0.848562
17.395,372.365,-0.848565
17.3967,372.382,-0.848561
17.3983,372.398,-0.84856
17.4,372.415,-0.848549
17.4017,372.432,-0.848538
17.4033,372.448,-0.848528
17.405,372.465,-0.848517
17.4067,372.482,-0.848513
17.4083,372.498,-0.848515
17.41,372.515,-0.848515
17.4117,372.532,-0.848517
17.4133,372.548,-0.848522
17.415,372.565,-0.848523
17.4167,372.581,-0.848523
17.4183,372.598,-0.848515
17.42,372.614,-0.84851
17.4217,372.631,-0.848506
17.4233,372.648,-0.848507
17.425,372.664,-0.848503
17.4267,372.681,-0.848499
17.4283,372.698,-0.848494
17.43,372.714,-0.848492
17.4317,372.731,-0.848493
17.4333,372.748,-0.84849
17.435,372.764,-0.848483
17.4367,372.781,-0.848467
17.4383,372.798,-0.848451
17.44,372.814,-0.848438
17.4417,372.831,-0.848422
17.4433,372.848,-0.8484
17.445,372.865,-0.84838
17.4467,372.881,-0.848371
17.4483,372.898,-0.848367
17.45,372.915,-0.848366
17.4517,372.931,-0.848374
17.4533,372.948,-0.848386
17.455,372.965,-0.8484
17.4567,372.981,-0.848414
17.4583,372.998,-0.84843
17.46,373.014,-0.84844
17.4617,373.031,-0.848449
17.4633,373.047,-0.848461
17.465,373.064,-0.848473
17.4667,373.08,-0.848486
17.4683,373.097,-0.848501
17.47,373.114,-0.848528
17.4717,373.13,-0.848559
17.4733,373.147,-0.848586
17.475,373.164,-0.848622
17.4767,373.18,-0.848658
17.4783,373.197,-0.848693
17.48,373.214,-0.84872
17.4817,373.23,-0.84874
17.4833,373.247,-0.848742
17.485,373.264,-0.848742
17.4867,373.28,-0.848732
17.4883,373.297,-0.848721
17.49,373.314,-0.848702
17.4917,373.33,-0.848678
17.4933,373.347,-0.848658
17.495,373.363,-0.848638
17.4967,373.38,-0.848619
17.4983,373.397,-0.848601
17.5,373.413,-0.848583
17.5017,373.43,-0.848571
17.5033,373.447,-0.848552
17.505,373.464,-0.848541
