Ramp 10.00 °C/min to 375.00 °C,,
Time,Temperature,Heat Flow (Normalized)
min,°C,W/g
40.3783,249.91,-0.182206
40.38,249.91,-0.182212
40.3817,249.91,-0.182214
40.3833,249.91,-0.182207
40.385,249.91,-0.182192
40.3867,249.91,-0.182177
40.3883,249.91,-0.182169
40.39,249.911,-0.182164
40.3917,249.911,-0.182162
40.3933,249.911,-0.182156
40.395,249.911,-0.182154
40.3967,249.911,-0.182156
40.3983,249.911,-0.182164
40.4,249.911,-0.182173
40.4017,249.912,-0.182183
40.4033,249.913,-0.182196
40.405,249.913,-0.182213
40.4067,249.914,-0.182232
40.4083,249.915,-0.182256
40.41,249.915,-0.182289
40.4117,249.916,-0.182321
40.4133,249.917,-0.182353
40.415,249.918,-0.18238
40.4167,249.92,-0.182399
40.4183,249.921,-0.182416
40.42,249.922,-0.182425
40.4217,249.924,-0.182421
40.4233,249.925,-0.182409
40.425,249.927,-0.182382
40.4267,249.929,-0.182292
40.4283,249.931,-0.182088
40.43,249.933,-0.181616
40.4317,249.935,-0.180702
40.4333,249.938,-0.178994
40.435,249.941,-0.176591
40.4367,249.943,-0.173044
40.4383,249.946,-0.16906
40.44,249.949,-0.164435
40.4417,249.952,-0.159913
40.4433,249.955,-0.154379
40.445,249.959,-0.149381
40.4467,249.963,-0.144294
40.4483,249.967,-0.139236
40.45,249.971,-0.134072
40.4517,249.975,-0.129138
40.4533,249.979,-0.124138
40.455,249.984,-0.12021
40.4567,249.989,-0.11753
40.4583,249.994,-0.11522
40.46,249.999,-0.112296
40.4617,250.004,-0.109429
40.4633,250.01,-0.107714
40.465,250.016,-0.106697
40.4667,250.022,-0.106603
40.4683,250.029,-0.10689
40.47,250.035,-0.107199
40.4717,250.042,-0.107539
40.4733,250.049,-0.108325
40.475,250.056,-0.109307
40.4767,250.063,-0.110274
40.4783,250.07,-0.111061
40.48,250.078,-0.113868
40.4817,250.086,-0.115741
40.4833,250.094,-0.116973
40.485,250.102,-0.117602
40.4867,250.11,-0.118137
40.4883,250.119,-0.11883
40.49,250.127,-0.120016
40.4917,250.136,-0.121909
40.4933,250.145,-0.125779
40.495,250.154,-0.13285
40.4967,250.164,-0.141746
40.4983,250.173,-0.153349
40.5,250.182,-0.166814
40.5017,250.193,-0.180074
40.5033,250.203,-0.191175
40.505,250.213,-0.200452
40.5067,250.223,-0.207854
40.5083,250.234,-0.216443
40.51,250.244,-0.225145
40.5117,250.254,-0.234008
40.5133,250.265,-0.242362
40.515,250.276,-0.250314
40.5167,250.287,-0.259294
40.5183,250.298,-0.26784
40.52,250.309,-0.275991
40.5217,250.32,-0.283255
40.5233,250.332,-0.290281
40.525,250.344,-0.29719
40.5267,250.355,-0.30462
40.5283,250.367,-0.312894
40.53,250.379,-0.320635
40.5317,250.391,-0.328213
40.5333,250.403,-0.336331
40.535,250.415,-0.344047
40.5367,250.428,-0.351222
40.5383,250.44,-0.356271
40.54,250.452,-0.361804
40.5417,250.465,-0.370348
40.5433,250.478,-0.377224
40.545,250.49,-0.383924
40.5467,250.503,-0.392054
40.5483,250.516,-0.398667
40.55,250.529,-0.405006
40.5517,250.542,-0.411539
40.5533,250.555,-0.417979
40.555,250.568,-0.424757
40.5567,250.581,-0.429729
40.5583,250.594,-0.435722
40.56,250.607,-0.441264
40.5617,250.621,-0.446568
40.5633,250.634,-0.45208
40.565,250.648,-0.457547
40.5667,250.661,-0.462874
40.5683,250.675,-0.467883
40.57,250.689,-0.47328
40.5717,250.703,-0.479131
40.5733,250.716,-0.484101
40.575,250.73,-0.488283
40.5767,250.745,-0.492607
40.5783,250.758,-0.496109
40.58,250.772,-0.500237
40.5817,250.786,-0.504773
40.5833,250.8,-0.508788
40.585,250.814,-0.512109
40.5867,250.829,-0.516032
40.5883,250.843,-0.520554
40.59,250.857,-0.5244
40.5917,250.872,-0.528344
40.5933,250.886,-0.532379
40.595,250.9,-0.536536
40.5967,250.915,-0.541844
40.5983,250.93,-0.545784
40.6,250.944,-0.549646
40.6017,250.959,-0.553323
40.6033,250.974,-0.55625
40.605,250.988,-0.559869
40.6067,251.003,-0.563677
40.6083,251.018,-0.567172
40.61,251.032,-0.569659
40.6117,251.048,-0.572012
40.6133,251.062,-0.575254
40.615,251.077,-0.578649
40.6167,251.092,-0.580873
40.6183,251.107,-0.583214
40.62,251.122,-0.585719
40.6217,251.137,-0.589012
40.6233,251.152,-0.591885
40.625,251.167,-0.594085
40.6267,251.183,-0.597859
40.6283,251.198,-0.600099
40.63,251.213,-0.60352
40.6317,251.228,-0.607192
40.6333,251.243,-0.611365
40.635,251.259,-0.615305
40.6367,251.274,-0.6185
40.6383,251.289,-0.620088
40.64,251.305,-0.621409
40.6417,251.32,-0.623192
40.6433,251.335,-0.624657
40.645,251.351,-0.626328
40.6467,251.367,-0.627224
40.6483,251.382,-0.629599
40.65,251.398,-0.631869
40.6517,251.413,-0.633149
40.6533,251.428,-0.635755
40.655,251.444,-0.638221
40.6567,251.46,-0.640867
40.6583,251.475,-0.642793
40.66,251.49,-0.644697
40.6617,251.506,-0.647099
40.6633,251.522,-0.648168
40.665,251.537,-0.650232
40.6667,251.553,-0.652434
40.6683,251.568,-0.654506
40.67,251.584,-0.655369
40.6717,251.6,-0.655747
40.6733,251.616,-0.6564
40.675,251.632,-0.657792
40.6767,251.647,-0.658771
40.6783,251.663,-0.660251
40.68,251.679,-0.66171
40.6817,251.695,-0.662512
40.6833,251.71,-0.663653
40.685,251.726,-0.664874
40.6867,251.742,-0.666436
40.6883,251.757,-0.667993
40.69,251.774,-0.669675
40.6917,251.79,-0.670834
40.6933,251.806,-0.672574
40.695,251.821,-0.674273
40.6967,251.838,-0.675823
40.6983,251.853,-0.677451
40.7,251.869,-0.678612
40.7017,251.885,-0.679734
40.7033,251.901,-0.68059
40.705,251.918,-0.681616
40.7067,251.933,-0.682354
40.7083,251.949,-0.683517
40.71,251.965,-0.684513
40.7117,251.981,-0.685651
40.7133,251.997,-0.686328
40.715,252.013,-0.687215
40.7167,252.029,-0.68792
40.7183,252.045,-0.688468
40.72,252.061,-0.689112
40.7217,252.077,-0.689861
40.7233,252.093,-0.690646
40.725,252.109,-0.691554
40.7267,252.125,-0.692666
40.7283,252.142,-0.694021
40.73,252.157,-0.69509
40.7317,252.174,-0.695978
40.7333,252.19,-0.696636
40.735,252.206,-0.697627
40.7367,252.222,-0.698287
40.7383,252.239,-0.698857
40.74,252.255,-0.699016
40.7417,252.271,-0.699129
40.7433,252.287,-0.699273
40.745,252.302,-0.699409
40.7467,252.319,-0.699542
40.7483,252.335,-0.699922
40.75,252.351,-0.700486
40.7517,252.367,-0.701213
40.7533,252.383,-0.70229
40.755,252.4,-0.703459
40.7567,252.416,-0.704372
40.7583,252.432,-0.705098
40.76,252.448,-0.705774
40.7617,252.465,-0.706343
40.7633,252.481,-0.706977
40.765,252.497,-0.707461
40.7667,252.513,-0.707932
40.7683,252.53,-0.708458
40.77,252.546,-0.708945
40.7717,252.562,-0.709572
40.7733,252.578,-0.710092
40.775,252.594,-0.710687
40.7767,252.611,-0.71134
40.7783,252.627,-0.711927
40.78,252.643,-0.712538
40.7817,252.66,-0.713183
40.7833,252.676,-0.713894
40.785,252.692,-0.714703
40.7867,252.708,-0.715513
40.7883,252.724,-0.715873
40.79,252.741,-0.716079
40.7917,252.757,-0.7163
40.7933,252.773,-0.716464
40.795,252.789,-0.716522
40.7967,252.806,-0.716563
40.7983,252.822,-0.716665
40.8,252.838,-0.716776
40.8017,252.854,-0.716914
40.8033,252.871,-0.717122
40.805,252.887,-0.717369
40.8067,252.903,-0.717682
40.8083,252.919,-0.717948
40.81,252.936,-0.718223
40.8117,252.952,-0.718521
40.8133,252.968,-0.718826
40.815,252.984,-0.71914
40.8167,253.001,-0.719498
40.8183,253.017,-0.72001
40.82,253.034,-0.720625
40.8217,253.05,-0.72129
40.8233,253.066,-0.721943
40.825,253.082,-0.722458
40.8267,253.099,-0.722932
40.8283,253.115,-0.723401
40.83,253.132,-0.723748
40.8317,253.148,-0.72404
40.8333,253.164,-0.724182
40.835,253.181,-0.724322
40.8367,253.197,-0.724447
40.8383,253.213,-0.724547
40.84,253.23,-0.724645
40.8417,253.246,-0.724756
40.8433,253.263,-0.724883
40.845,253.279,-0.725013
40.8467,253.295,-0.725196
40.8483,253.311,-0.725388
40.85,253.328,-0.725566
40.8517,253.344,-0.725775
40.8533,253.36,-0.72594
40.855,253.377,-0.726105
40.8567,253.393,-0.726248
40.8583,253.41,-0.726391
40.86,253.426,-0.726579
40.8617,253.442,-0.7268
40.8633,253.458,-0.727063
40.865,253.475,-0.727339
40.8667,253.492,-0.727595
40.8683,253.508,-0.727827
40.87,253.524,-0.728037
40.8717,253.54,-0.728226
40.8733,253.557,-0.728404
40.875,253.574,-0.728578
40.8767,253.59,-0.728697
40.8783,253.606,-0.728765
40.88,253.623,-0.728826
40.8817,253.639,-0.728883
40.8833,253.655,-0.728946
40.885,253.671,-0.729009
40.8867,253.688,-0.729074
40.8883,253.704,-0.729165
40.89,253.721,-0.729264
40.8917,253.737,-0.729365
40.8933,253.753,-0.729497
40.895,253.77,-0.72961
40.8967,253.786,-0.729727
40.8983,253.803,-0.729822
40.9,253.82,-0.729895
40.9017,253.836,-0.729971
40.9033,253.852,-0.730071
40.905,253.869,-0.730256
40.9067,253.885,-0.730396
40.9083,253.902,-0.730547
40.91,253.918,-0.730679
40.9117,253.934,-0.730781
40.9133,253.951,-0.730937
40.915,253.967,-0.731087
40.9167,253.983,-0.731252
40.9183,254,-0.731423
40.92,254.016,-0.731527
40.9217,254.033,-0.731625
40.9233,254.049,-0.731724
40.925,254.066,-0.731807
40.9267,254.082,-0.73203
40.9283,254.098,-0.732108
40.93,254.115,-0.732191
40.9317,254.132,-0.732274
40.9333,254.148,-0.732361
40.935,254.165,-0.732449
40.9367,254.181,-0.732541
40.9383,254.198,-0.732631
40.94,254.214,-0.732716
40.9417,254.231,-0.732808
40.9433,254.247,-0.732905
40.945,254.263,-0.733003
40.9467,254.28,-0.733102
40.9483,254.296,-0.733197
40.95,254.313,-0.733299
40.9517,254.329,-0.733484
40.9533,254.346,-0.733629
40.955,254.362,-0.733751
40.9567,254.379,-0.733853
40.9583,254.395,-0.733944
40.96,254.412,-0.734041
40.9617,254.428,-0.734146
40.9633,254.444,-0.734353
40.965,254.461,-0.734566
40.9667,254.477,-0.734851
40.9683,254.494,-0.735203
40.97,254.51,-0.735513
40.9717,254.527,-0.735801
40.9733,254.543,-0.735995
40.975,254.559,-0.736151
40.9767,254.576,-0.736263
40.9783,254.592,-0.73637
40.98,254.609,-0.736474
40.9817,254.625,-0.736581
40.9833,254.641,-0.736689
40.985,254.658,-0.736801
40.9867,254.675,-0.736908
40.9883,254.691,-0.73702
40.99,254.708,-0.737124
40.9917,254.724,-0.737268
40.9933,254.741,-0.737354
40.995,254.757,-0.737435
40.9967,254.773,-0.73752
40.9983,254.789,-0.737607
41,254.806,-0.737707
41.0017,254.822,-0.737795
41.0033,254.839,-0.737895
41.005,254.856,-0.737999
41.0067,254.872,-0.738106
41.0083,254.889,-0.738214
41.01,254.905,-0.73832
41.0117,254.921,-0.738422
41.0133,254.938,-0.738522
41.015,254.954,-0.738624
41.0167,254.971,-0.738724
41.0183,254.987,-0.738827
41.02,255.004,-0.738928
41.0217,255.021,-0.739035
41.0233,255.037,-0.739139
41.025,255.053,-0.739244
41.0267,255.07,-0.739352
41.0283,255.087,-0.739466
41.03,255.103,-0.739584
41.0317,255.12,-0.739704
41.0333,255.136,-0.739824
41.035,255.152,-0.740005
41.0367,255.169,-0.740206
41.0383,255.185,-0.740372
41.04,255.201,-0.740495
41.0417,255.218,-0.740607
41.0433,255.235,-0.740716
41.045,255.251,-0.740817
41.0467,255.267,-0.74091
41.0483,255.284,-0.741001
41.05,255.301,-0.741097
41.0517,255.317,-0.741188
41.0533,255.334,-0.741282
41.055,255.351,-0.741386
41.0567,255.367,-0.741495
41.0583,255.383,-0.741642
41.06,255.4,-0.741855
41.0617,255.416,-0.742114
41.0633,255.432,-0.742343
41.065,255.449,-0.742468
41.0667,255.465,-0.742668
41.0683,255.482,-0.742822
41.07,255.499,-0.742941
41.0717,255.515,-0.743052
41.0733,255.532,-0.743156
41.075,255.548,-0.743258
41.0767,255.565,-0.74337
41.0783,255.581,-0.743473
41.08,255.598,-0.743584
41.0817,255.614,-0.743695
41.0833,255.63,-0.743808
41.085,255.647,-0.74391
41.0867,255.663,-0.744009
41.0883,255.68,-0.744095
41.09,255.697,-0.744169
41.0917,255.713,-0.744242
41.0933,255.73,-0.744317
41.095,255.746,-0.744397
41.0967,255.762,-0.744477
41.0983,255.779,-0.744553
41.1,255.795,-0.744638
41.1017,255.812,-0.744733
41.1033,255.828,-0.744832
41.105,255.845,-0.744938
41.1067,255.862,-0.745047
41.1083,255.878,-0.745159
41.11,255.894,-0.745276
41.1117,255.911,-0.745508
41.1133,255.928,-0.745708
41.115,255.944,-0.745866
41.1167,255.961,-0.745984
41.1183,255.977,-0.746092
41.12,255.994,-0.746189
41.1217,256.01,-0.746275
41.1233,256.027,-0.746358
41.125,256.043,-0.746443
41.1267,256.06,-0.746527
41.1283,256.076,-0.746613
41.13,256.093,-0.746703
41.1317,256.109,-0.746802
41.1333,256.126,-0.746908
41.135,256.142,-0.747016
41.1367,256.159,-0.74712
41.1383,256.176,-0.747227
41.14,256.192,-0.747327
41.1417,256.209,-0.747434
41.1433,256.225,-0.747538
41.145,256.242,-0.747645
41.1467,256.258,-0.747762
41.1483,256.274,-0.747876
41.15,256.291,-0.747984
41.1517,256.308,-0.748094
41.1533,256.324,-0.748204
41.155,256.341,-0.748319
41.1567,256.358,-0.748438
41.1583,256.374,-0.748568
41.16,256.39,-0.748702
41.1617,256.407,-0.748844
41.1633,256.424,-0.749034
41.165,256.44,-0.749291
41.1667,256.456,-0.749497
41.1683,256.473,-0.749631
41.17,256.49,-0.749754
41.1717,256.506,-0.749867
41.1733,256.523,-0.749972
41.175,256.539,-0.750067
41.1767,256.556,-0.750165
41.1783,256.572,-0.750271
41.18,256.589,-0.750375
41.1817,256.605,-0.750478
41.1833,256.622,-0.750577
41.185,256.638,-0.750675
41.1867,256.655,-0.750784
41.1883,256.671,-0.750899
41.19,256.688,-0.751008
41.1917,256.704,-0.751113
41.1933,256.721,-0.751216
41.195,256.737,-0.751326
41.1967,256.754,-0.75143
41.1983,256.77,-0.751531
41.2,256.787,-0.751626
41.2017,256.804,-0.751713
41.2033,256.82,-0.751798
41.205,256.837,-0.751881
41.2067,256.853,-0.751961
41.2083,256.87,-0.752041
41.21,256.886,-0.752115
41.2117,256.903,-0.752188
41.2133,256.92,-0.752267
41.215,256.937,-0.752347
41.2167,256.953,-0.752429
41.2183,256.97,-0.752516
41.22,256.986,-0.752605
41.2217,257.002,-0.752701
41.2233,257.019,-0.752801
41.225,257.036,-0.752897
41.2267,257.052,-0.75299
41.2283,257.069,-0.753069
41.23,257.085,-0.753149
41.2317,257.102,-0.753239
41.2333,257.118,-0.753334
41.235,257.135,-0.753429
41.2367,257.152,-0.75353
41.2383,257.169,-0.753643
41.24,257.185,-0.753758
41.2417,257.202,-0.753912
41.2433,257.218,-0.75402
41.245,257.235,-0.754125
41.2467,257.251,-0.754227
41.2483,257.268,-0.75432
41.25,257.284,-0.7544
41.2517,257.301,-0.754487
41.2533,257.317,-0.754574
41.255,257.334,-0.754666
41.2567,257.35,-0.754759
41.2583,257.367,-0.754848
41.26,257.383,-0.754942
41.2617,257.4,-0.755033
41.2633,257.416,-0.755125
41.265,257.433,-0.755221
41.2667,257.449,-0.755312
41.2683,257.466,-0.755403
41.27,257.483,-0.755495
41.2717,257.499,-0.755589
41.2733,257.516,-0.755686
41.275,257.533,-0.755774
41.2767,257.549,-0.755853
41.2783,257.566,-0.755927
41.28,257.582,-0.755995
41.2817,257.599,-0.756068
41.2833,257.616,-0.756147
41.285,257.632,-0.756229
41.2867,257.648,-0.75631
41.2883,257.665,-0.756396
41.29,257.682,-0.756489
41.2917,257.698,-0.756591
41.2933,257.715,-0.7567
41.295,257.731,-0.75681
41.2967,257.748,-0.75693
41.2983,257.765,-0.757037
41.3,257.781,-0.757138
41.3017,257.798,-0.757236
41.3033,257.814,-0.75732
41.305,257.831,-0.757398
41.3067,257.847,-0.757471
41.3083,257.864,-0.757535
41.31,257.88,-0.757599
41.3117,257.897,-0.757661
41.3133,257.914,-0.757722
41.315,257.93,-0.757789
41.3167,257.947,-0.757861
41.3183,257.963,-0.757941
41.32,257.98,-0.758027
41.3217,257.996,-0.758114
41.3233,258.013,-0.758209
41.325,258.03,-0.75831
41.3267,258.046,-0.758417
41.3283,258.063,-0.758523
41.33,258.08,-0.758628
41.3317,258.096,-0.758726
41.3333,258.112,-0.758822
41.335,258.129,-0.758907
41.3367,258.146,-0.758984
41.3383,258.162,-0.759047
41.34,258.179,-0.759107
41.3417,258.195,-0.759166
41.3433,258.212,-0.759221
41.345,258.228,-0.759281
41.3467,258.245,-0.759338
41.3483,258.261,-0.759401
41.35,258.278,-0.759462
41.3517,258.295,-0.759526
41.3533,258.311,-0.759599
41.355,258.328,-0.759667
41.3567,258.345,-0.759733
41.3583,258.362,-0.759812
41.36,258.378,-0.75989
41.3617,258.395,-0.759967
41.3633,258.411,-0.760052
41.365,258.428,-0.760133
41.3667,258.444,-0.760214
41.3683,258.461,-0.760296
41.37,258.477,-0.760375
41.3717,258.493,-0.760446
41.3733,258.51,-0.760509
41.375,258.527,-0.760572
41.3767,258.543,-0.76064
41.3783,258.56,-0.760704
41.38,258.577,-0.760776
41.3817,258.594,-0.760852
41.3833,258.61,-0.760927
41.385,258.627,-0.761011
41.3867,258.644,-0.761103
41.3883,258.66,-0.761195
41.39,258.677,-0.761285
41.3917,258.694,-0.761374
41.3933,258.71,-0.761466
41.395,258.727,-0.761556
41.3967,258.743,-0.761638
41.3983,258.759,-0.761721
41.4,258.776,-0.761806
41.4017,258.792,-0.761879
41.4033,258.809,-0.761951
41.405,258.825,-0.762014
41.4067,258.842,-0.762077
41.4083,258.859,-0.762139
41.41,258.875,-0.762194
41.4117,258.892,-0.762252
41.4133,258.909,-0.762313
41.415,258.925,-0.762382
41.4167,258.943,-0.762457
41.4183,258.959,-0.762533
41.42,258.976,-0.762608
41.4217,258.992,-0.762686
41.4233,259.009,-0.762768
41.425,259.025,-0.762846
41.4267,259.042,-0.762923
41.4283,259.058,-0.762994
41.43,259.075,-0.763064
41.4317,259.092,-0.763125
41.4333,259.108,-0.763183
41.435,259.125,-0.763244
41.4367,259.141,-0.763305
41.4383,259.158,-0.763358
41.44,259.174,-0.763416
41.4417,259.191,-0.763476
41.4433,259.207,-0.763532
41.445,259.224,-0.763599
41.4467,259.241,-0.763665
41.4483,259.257,-0.76373
41.45,259.273,-0.763784
41.4517,259.29,-0.76384
41.4533,259.307,-0.763897
41.455,259.323,-0.763954
41.4567,259.34,-0.76401
41.4583,259.357,-0.764072
41.46,259.373,-0.764133
41.4617,259.39,-0.7642
41.4633,259.407,-0.764284
41.465,259.423,-0.764369
41.4667,259.44,-0.764451
41.4683,259.457,-0.764525
41.47,259.473,-0.76459
41.4717,259.49,-0.764657
41.4733,259.506,-0.764724
41.475,259.523,-0.764778
41.4767,259.539,-0.764832
41.4783,259.556,-0.764883
41.48,259.572,-0.764928
41.4817,259.589,-0.764981
41.4833,259.605,-0.76504
41.485,259.622,-0.765104
41.4867,259.639,-0.765164
41.4883,259.656,-0.765223
41.49,259.672,-0.765296
41.4917,259.689,-0.765367
41.4933,259.706,-0.765433
41.495,259.722,-0.765491
41.4967,259.739,-0.765556
41.4983,259.755,-0.765622
41.5,259.772,-0.76569
41.5017,259.788,-0.76576
41.5033,259.805,-0.765827
41.505,259.821,-0.765892
41.5067,259.838,-0.765958
41.5083,259.855,-0.766027
41.51,259.871,-0.766099
41.5117,259.888,-0.766168
41.5133,259.904,-0.766228
41.515,259.921,-0.766287
41.5167,259.937,-0.766342
41.5183,259.953,-0.766396
41.52,259.97,-0.766456
41.5217,259.987,-0.766515
41.5233,260.003,-0.76657
41.525,260.02,-0.766623
41.5267,260.036,-0.766667
41.5283,260.053,-0.766723
41.53,260.07,-0.76678
41.5317,260.087,-0.766833
41.5333,260.104,-0.766884
41.535,260.12,-0.76694
41.5367,260.137,-0.766995
41.5383,260.154,-0.767059
41.54,260.17,-0.767122
41.5417,260.187,-0.767194
41.5433,260.204,-0.767263
41.545,260.22,-0.767328
41.5467,260.237,-0.767389
41.5483,260.254,-0.767459
41.55,260.27,-0.767529
41.5517,260.287,-0.767601
41.5533,260.303,-0.767665
41.555,260.32,-0.767725
41.5567,260.337,-0.767784
41.5583,260.353,-0.767846
41.56,260.37,-0.767906
41.5617,260.386,-0.767956
41.5633,260.403,-0.768003
41.565,260.42,-0.768044
41.5667,260.437,-0.768085
41.5683,260.453,-0.768131
41.57,260.47,-0.768182
41.5717,260.486,-0.768229
41.5733,260.503,-0.768278
41.575,260.519,-0.768337
41.5767,260.536,-0.768392
41.5783,260.553,-0.768444
41.58,260.57,-0.768498
41.5817,260.586,-0.768549
41.5833,260.602,-0.768604
41.585,260.619,-0.768656
41.5867,260.635,-0.768719
41.5883,260.652,-0.768787
41.59,260.668,-0.768845
41.5917,260.685,-0.768903
41.5933,260.702,-0.768959
41.595,260.718,-0.769017
41.5967,260.735,-0.769072
41.5983,260.751,-0.769134
41.6,260.768,-0.769199
41.6017,260.785,-0.76927
41.6033,260.802,-0.769341
41.605,260.819,-0.769419
41.6067,260.835,-0.769501
41.6083,260.852,-0.769612
41.61,260.868,-0.769697
41.6117,260.885,-0.769771
41.6133,260.901,-0.769837
41.615,260.918,-0.769902
41.6167,260.935,-0.769958
41.6183,260.951,-0.770005
41.62,260.968,-0.770045
41.6217,260.984,-0.770077
41.6233,261.001,-0.770104
41.625,261.018,-0.770138
41.6267,261.034,-0.770178
41.6283,261.051,-0.770213
41.63,261.068,-0.770251
41.6317,261.084,-0.770293
41.6333,261.101,-0.770336
41.635,261.118,-0.770385
41.6367,261.134,-0.770431
41.6383,261.151,-0.770481
41.64,261.168,-0.770537
41.6417,261.184,-0.770591
41.6433,261.201,-0.770654
41.645,261.217,-0.770714
41.6467,261.234,-0.770766
41.6483,261.251,-0.770828
41.65,261.267,-0.770884
41.6517,261.284,-0.770925
41.6533,261.3,-0.770964
41.655,261.317,-0.771001
41.6567,261.333,-0.77104
41.6583,261.35,-0.771078
41.66,261.366,-0.771112
41.6617,261.383,-0.771151
41.6633,261.399,-0.771189
41.665,261.416,-0.771225
41.6667,261.433,-0.771263
41.6683,261.449,-0.771313
41.67,261.466,-0.77136
41.6717,261.483,-0.771404
41.6733,261.5,-0.771457
41.675,261.516,-0.771513
41.6767,261.533,-0.771575
41.6783,261.549,-0.77164
41.68,261.566,-0.771697
41.6817,261.583,-0.771748
41.6833,261.6,-0.771802
41.685,261.616,-0.771858
41.6867,261.633,-0.771915
41.6883,261.649,-0.771971
41.69,261.666,-0.772023
41.6917,261.682,-0.772073
41.6933,261.699,-0.772122
41.695,261.716,-0.772169
41.6967,261.732,-0.772218
41.6983,261.749,-0.772265
41.7,261.765,-0.772309
41.7017,261.782,-0.772357
41.7033,261.799,-0.772415
41.705,261.815,-0.772472
41.7067,261.832,-0.772535
41.7083,261.849,-0.772597
41.71,261.865,-0.772654
41.7117,261.882,-0.772705
41.7133,261.899,-0.772753
41.715,261.915,-0.772793
41.7167,261.932,-0.772828
41.7183,261.948,-0.772863
41.72,261.965,-0.7729
41.7217,261.982,-0.772936
41.7233,261.998,-0.772976
41.725,262.015,-0.773019
41.7267,262.032,-0.773064
41.7283,262.048,-0.773111
41.73,262.065,-0.773166
41.7317,262.081,-0.77322
41.7333,262.098,-0.773274
41.735,262.115,-0.773322
41.7367,262.131,-0.773367
41.7383,262.148,-0.773411
41.74,262.165,-0.773461
41.7417,262.182,-0.773504
41.7433,262.198,-0.773541
41.745,262.215,-0.773579
41.7467,262.231,-0.773618
41.7483,262.248,-0.773652
41.75,262.264,-0.773679
41.7517,262.281,-0.773717
41.7533,262.298,-0.773764
41.755,262.314,-0.773812
41.7567,262.331,-0.773859
41.7583,262.348,-0.77391
41.76,262.364,-0.773965
41.7617,262.381,-0.77402
41.7633,262.397,-0.77408
41.765,262.414,-0.774137
41.7667,262.43,-0.774186
41.7683,262.447,-0.774231
41.77,262.463,-0.774271
41.7717,262.48,-0.774316
41.7733,262.497,-0.774361
41.775,262.514,-0.774412
41.7767,262.531,-0.774465
41.7783,262.547,-0.774516
41.78,262.564,-0.774569
41.7817,262.58,-0.774625
41.7833,262.597,-0.77468
41.785,262.614,-0.77474
41.7867,262.63,-0.774799
41.7883,262.647,-0.774864
41.79,262.663,-0.774922
41.7917,262.68,-0.774974
41.7933,262.696,-0.775032
41.795,262.713,-0.775088
41.7967,262.73,-0.775141
41.7983,262.746,-0.775191
41.8,262.763,-0.775239
41.8017,262.78,-0.775278
41.8033,262.796,-0.775314
41.805,262.813,-0.775348
41.8067,262.83,-0.775372
41.8083,262.846,-0.775387
41.81,262.863,-0.775399
41.8117,262.879,-0.77541
41.8133,262.896,-0.77542
41.815,262.913,-0.775433
41.8167,262.929,-0.775455
41.8183,262.946,-0.775484
41.82,262.963,-0.775518
41.8217,262.979,-0.775564
41.8233,262.996,-0.775612
41.825,263.013,-0.775661
41.8267,263.029,-0.775712
41.8283,263.046,-0.775761
41.83,263.062,-0.775807
41.8317,263.079,-0.775847
41.8333,263.096,-0.775885
41.835,263.112,-0.77592
41.8367,263.129,-0.775955
41.8383,263.146,-0.775993
41.84,263.162,-0.776033
41.8417,263.179,-0.776072
41.8433,263.196,-0.776111
41.845,263.212,-0.776146
41.8467,263.229,-0.776178
41.8483,263.246,-0.776209
41.85,263.262,-0.776235
41.8517,263.279,-0.776255
41.8533,263.295,-0.776272
41.855,263.312,-0.776286
41.8567,263.328,-0.776309
41.8583,263.345,-0.776337
41.86,263.361,-0.77638
41.8617,263.378,-0.776421
41.8633,263.395,-0.776468
41.865,263.412,-0.776521
41.8667,263.428,-0.776578
41.8683,263.444,-0.776638
41.87,263.461,-0.776693
41.8717,263.478,-0.776735
41.8733,263.495,-0.776769
41.875,263.512,-0.776798
41.8767,263.528,-0.77682
41.8783,263.545,-0.776841
41.88,263.561,-0.776859
41.8817,263.578,-0.77688
41.8833,263.594,-0.776905
41.885,263.611,-0.776932
41.8867,263.627,-0.776963
41.8883,263.644,-0.777004
41.89,263.66,-0.777048
41.8917,263.677,-0.777094
41.8933,263.694,-0.77713
41.895,263.711,-0.77717
41.8967,263.727,-0.777207
41.8983,263.744,-0.777246
41.9,263.761,-0.777285
41.9017,263.777,-0.777324
41.9033,263.794,-0.777354
41.905,263.811,-0.777381
41.9067,263.827,-0.777403
41.9083,263.844,-0.777427
41.91,263.86,-0.777446
41.9117,263.877,-0.777456
41.9133,263.893,-0.777471
41.915,263.91,-0.777494
41.9167,263.927,-0.777515
41.9183,263.944,-0.77755
41.92,263.96,-0.77759
41.9217,263.977,-0.777633
41.9233,263.994,-0.777676
41.925,264.01,-0.777714
41.9267,264.027,-0.777747
41.9283,264.043,-0.777768
41.93,264.06,-0.777783
41.9317,264.076,-0.777791
41.9333,264.093,-0.777797
41.935,264.109,-0.777807
41.9367,264.125,-0.777827
41.9383,264.142,-0.77785
41.94,264.159,-0.77788
41.9417,264.175,-0.777921
41.9433,264.193,-0.777974
41.945,264.209,-0.778033
41.9467,264.226,-0.77812
41.9483,264.242,-0.778176
41.95,264.259,-0.778227
41.9517,264.276,-0.778282
41.9533,264.293,-0.778333
41.955,264.309,-0.77838
41.9567,264.326,-0.77842
41.9583,264.343,-0.778462
41.96,264.359,-0.778505
41.9617,264.376,-0.778548
41.9633,264.393,-0.778584
41.965,264.409,-0.778621
41.9667,264.426,-0.77866
41.9683,264.443,-0.77869
41.97,264.459,-0.778716
41.9717,264.476,-0.778742
41.9733,264.493,-0.778761
41.975,264.509,-0.778777
41.9767,264.526,-0.778795
41.9783,264.542,-0.778807
41.98,264.559,-0.778816
41.9817,264.576,-0.778822
41.9833,264.592,-0.778829
41.985,264.609,-0.778841
41.9867,264.626,-0.778853
41.9883,264.642,-0.778868
41.99,264.659,-0.778891
41.9917,264.675,-0.778923
41.9933,264.692,-0.77897
41.995,264.709,-0.779044
41.9967,264.725,-0.77919
41.9983,264.742,-0.779327
42,264.759,-0.779426
42.0017,264.776,-0.779482
42.0033,264.792,-0.779528
42.005,264.809,-0.779566
42.0067,264.825,-0.779588
42.0083,264.842,-0.779601
42.01,264.859,-0.77961
42.0117,264.875,-0.77962
42.0133,264.892,-0.779636
42.015,264.909,-0.779661
42.0167,264.925,-0.779691
42.0183,264.942,-0.779735
42.02,264.959,-0.779775
42.0217,264.975,-0.779818
42.0233,264.992,-0.779864
42.025,265.009,-0.77991
42.0267,265.025,-0.779956
42.0283,265.042,-0.77999
42.03,265.059,-0.780024
42.0317,265.075,-0.780053
42.0333,265.092,-0.780079
42.035,265.109,-0.780117
42.0367,265.125,-0.780154
42.0383,265.142,-0.780194
42.04,265.158,-0.780234
42.0417,265.175,-0.780275
42.0433,265.192,-0.780322
42.045,265.208,-0.780368
42.0467,265.225,-0.780404
42.0483,265.242,-0.780434
42.05,265.258,-0.780458
42.0517,265.275,-0.780476
42.0533,265.292,-0.780494
42.055,265.309,-0.780509
42.0567,265.325,-0.780528
42.0583,265.341,-0.780548
42.06,265.358,-0.780571
42.0617,265.374,-0.780605
42.0633,265.391,-0.780643
42.065,265.408,-0.780681
42.0667,265.424,-0.780722
42.0683,265.441,-0.780759
42.07,265.458,-0.780793
42.0717,265.474,-0.780823
42.0733,265.491,-0.780851
42.075,265.508,-0.780879
42.0767,265.525,-0.780911
42.0783,265.541,-0.780943
42.08,265.558,-0.780983
42.0817,265.575,-0.78102
42.0833,265.592,-0.781053
42.085,265.608,-0.781079
42.0867,265.625,-0.781098
42.0883,265.641,-0.781111
42.09,265.658,-0.781127
42.0917,265.674,-0.781142
42.0933,265.691,-0.781155
42.095,265.707,-0.781171
42.0967,265.724,-0.781188
42.0983,265.741,-0.781206
42.1,265.758,-0.781232
42.1017,265.774,-0.781255
42.1033,265.791,-0.781273
42.105,265.807,-0.781287
42.1067,265.824,-0.781308
42.1083,265.841,-0.78133
42.11,265.858,-0.78135
42.1117,265.874,-0.781375
42.1133,265.89,-0.7814
42.115,265.907,-0.781427
42.1167,265.924,-0.781458
42.1183,265.94,-0.781494
42.12,265.958,-0.781534
42.1217,265.974,-0.781573
42.1233,265.991,-0.781615
42.125,266.007,-0.781664
42.1267,266.024,-0.781709
42.1283,266.041,-0.781751
42.13,266.057,-0.781794
42.1317,266.074,-0.781835
42.1333,266.091,-0.781867
42.135,266.107,-0.781903
42.1367,266.124,-0.781936
42.1383,266.14,-0.781964
42.14,266.157,-0.781983
42.1417,266.174,-0.781997
42.1433,266.191,-0.782012
42.145,266.207,-0.782023
42.1467,266.224,-0.782042
42.1483,266.241,-0.782057
42.15,266.257,-0.782072
42.1517,266.274,-0.782093
42.1533,266.291,-0.782117
42.155,266.307,-0.782142
42.1567,266.324,-0.782168
42.1583,266.341,-0.782193
42.16,266.357,-0.782214
42.1617,266.374,-0.782229
42.1633,266.39,-0.782243
42.165,266.407,-0.782257
42.1667,266.424,-0.782273
42.1683,266.441,-0.782292
42.17,266.457,-0.782308
42.1717,266.474,-0.782325
42.1733,266.49,-0.782336
42.175,266.507,-0.782354
42.1767,266.524,-0.782382
42.1783,266.54,-0.782417
42.18,266.557,-0.782447
42.1817,266.573,-0.782472
42.1833,266.59,-0.782503
42.185,266.606,-0.782539
42.1867,266.623,-0.782577
42.1883,266.64,-0.782606
42.19,266.657,-0.78263
42.1917,266.673,-0.782651
42.1933,266.69,-0.782676
42.195,266.706,-0.782703
42.1967,266.723,-0.782725
42.1983,266.74,-0.782741
42.2,266.756,-0.78275
42.2017,266.773,-0.782769
42.2033,266.79,-0.782792
42.205,266.807,-0.782813
42.2067,266.823,-0.782842
42.2083,266.839,-0.782871
42.21,266.857,-0.782903
42.2117,266.873,-0.782941
42.2133,266.89,-0.782977
42.215,266.906,-0.783008
42.2167,266.923,-0.783029
42.2183,266.939,-0.78305
42.22,266.956,-0.783079
42.2217,266.972,-0.783106
42.2233,266.989,-0.783128
42.225,267.006,-0.783146
42.2267,267.023,-0.783164
42.2283,267.039,-0.783177
42.23,267.056,-0.783197
42.2317,267.073,-0.783218
42.2333,267.089,-0.783249
42.235,267.106,-0.783277
42.2367,267.123,-0.783309
42.2383,267.139,-0.783348
42.24,267.155,-0.783394
42.2417,267.172,-0.783446
42.2433,267.189,-0.783491
42.245,267.206,-0.783535
42.2467,267.222,-0.783573
42.2483,267.239,-0.783603
42.25,267.256,-0.783631
42.2517,267.273,-0.783654
42.2533,267.289,-0.78367
42.255,267.306,-0.783683
42.2567,267.322,-0.783691
42.2583,267.339,-0.783694
42.26,267.355,-0.783708
42.2617,267.372,-0.783724
42.2633,267.389,-0.783742
42.265,267.405,-0.783758
42.2667,267.422,-0.783771
42.2683,267.439,-0.78378
42.27,267.455,-0.783797
42.2717,267.472,-0.78382
42.2733,267.488,-0.783836
42.275,267.505,-0.783845
42.2767,267.522,-0.783855
42.2783,267.538,-0.78388
42.28,267.555,-0.783919
42.2817,267.572,-0.783956
42.2833,267.588,-0.783998
42.285,267.605,-0.784047
42.2867,267.622,-0.784098
42.2883,267.638,-0.784148
42.29,267.655,-0.7842
42.2917,267.672,-0.784239
42.2933,267.688,-0.784273
42.295,267.705,-0.784298
42.2967,267.721,-0.784323
42.2983,267.738,-0.784344
42.3,267.755,-0.784358
42.3017,267.772,-0.784365
42.3033,267.788,-0.784377
42.305,267.805,-0.784388
42.3067,267.822,-0.784395
42.3083,267.838,-0.784403
42.31,267.855,-0.784413
42.3117,267.872,-0.784433
42.3133,267.888,-0.784459
42.315,267.905,-0.784492
42.3167,267.921,-0.784537
42.3183,267.938,-0.784586
42.32,267.955,-0.784625
42.3217,267.972,-0.784665
42.3233,267.988,-0.784699
42.325,268.005,-0.784728
42.3267,268.021,-0.784756
42.3283,268.038,-0.784775
42.33,268.055,-0.784795
42.3317,268.072,-0.784822
42.3333,268.088,-0.784852
42.335,268.105,-0.784887
42.3367,268.121,-0.784926
42.3383,268.138,-0.784964
42.34,268.155,-0.785002
42.3417,268.172,-0.785035
42.3433,268.188,-0.785066
42.345,268.205,-0.785084
42.3467,268.222,-0.785102
42.3483,268.238,-0.785109
42.35,268.255,-0.785116
42.3517,268.272,-0.785126
42.3533,268.288,-0.785139
42.355,268.305,-0.785163
42.3567,268.321,-0.785191
42.3583,268.338,-0.785225
42.36,268.355,-0.785268
42.3617,268.371,-0.785318
42.3633,268.388,-0.785375
42.365,268.405,-0.785423
42.3667,268.421,-0.785466
42.3683,268.438,-0.785506
42.37,268.455,-0.785537
42.3717,268.471,-0.785563
42.3733,268.488,-0.785584
42.375,268.505,-0.785596
42.3767,268.521,-0.785606
42.3783,268.538,-0.785622
42.38,268.555,-0.785643
42.3817,268.572,-0.785669
42.3833,268.588,-0.78569
42.385,268.605,-0.785716
42.3867,268.621,-0.785742
42.3883,268.638,-0.78577
42.39,268.654,-0.785796
42.3917,268.671,-0.785816
42.3933,268.688,-0.785836
42.395,268.704,-0.785863
42.3967,268.721,-0.785893
42.3983,268.738,-0.785924
42.4,268.754,-0.785961
42.4017,268.771,-0.785993
42.4033,268.787,-0.786028
42.405,268.804,-0.786061
42.4067,268.821,-0.78609
42.4083,268.838,-0.786121
42.41,268.854,-0.786145
42.4117,268.871,-0.786169
42.4133,268.888,-0.78619
42.415,268.905,-0.786216
42.4167,268.921,-0.786249
42.4183,268.938,-0.786277
42.42,268.954,-0.786305
42.4217,268.971,-0.78633
42.4233,268.988,-0.786362
42.425,269.005,-0.786393
42.4267,269.021,-0.786418
42.4283,269.038,-0.786448
42.43,269.054,-0.786481
42.4317,269.071,-0.786518
42.4333,269.088,-0.786555
42.435,269.104,-0.786588
42.4367,269.121,-0.786626
42.4383,269.137,-0.786661
42.44,269.154,-0.786687
42.4417,269.171,-0.786716
42.4433,269.187,-0.786748
42.445,269.204,-0.786769
42.4467,269.22,-0.786792
42.4483,269.237,-0.786809
42.45,269.254,-0.786827
42.4517,269.271,-0.786842
42.4533,269.288,-0.786852
42.455,269.304,-0.786872
42.4567,269.321,-0.786904
42.4583,269.338,-0.786939
42.46,269.354,-0.786983
42.4617,269.371,-0.787031
42.4633,269.388,-0.787084
42.465,269.404,-0.787131
42.4667,269.421,-0.787171
42.4683,269.437,-0.7872
42.47,269.454,-0.787228
42.4717,269.47,-0.787245
42.4733,269.487,-0.787262
42.475,269.504,-0.787275
42.4767,269.521,-0.787288
42.4783,269.537,-0.787296
42.48,269.554,-0.787314
42.4817,269.571,-0.787331
42.4833,269.588,-0.787358
42.485,269.604,-0.78738
42.4867,269.62,-0.787399
42.4883,269.637,-0.787417
42.49,269.654,-0.78743
42.4917,269.67,-0.787442
42.4933,269.687,-0.787456
42.495,269.704,-0.787472
42.4967,269.72,-0.787494
42.4983,269.737,-0.787513
42.5,269.753,-0.787537
42.5017,269.77,-0.78758
42.5033,269.787,-0.787626
42.505,269.804,-0.787669
42.5067,269.82,-0.78771
42.5083,269.837,-0.787751
42.51,269.854,-0.787792
42.5117,269.87,-0.787826
42.5133,269.887,-0.787858
42.515,269.903,-0.787891
42.5167,269.92,-0.78792
42.5183,269.937,-0.78795
42.52,269.954,-0.787974
42.5217,269.97,-0.787996
42.5233,269.987,-0.788014
42.525,270.003,-0.788026
42.5267,270.02,-0.788039
42.5283,270.037,-0.788053
42.53,270.053,-0.788065
42.5317,270.07,-0.788086
42.5333,270.087,-0.788112
42.535,270.104,-0.788146
42.5367,270.12,-0.788178
42.5383,270.137,-0.788208
42.54,270.153,-0.788236
42.5417,270.17,-0.788261
42.5433,270.187,-0.78828
42.545,270.203,-0.788293
42.5467,270.22,-0.788299
42.5483,270.237,-0.788303
42.55,270.253,-0.788305
42.5517,270.27,-0.788307
42.5533,270.286,-0.788315
42.555,270.303,-0.78832
42.5567,270.32,-0.788326
42.5583,270.336,-0.788336
42.56,270.353,-0.78835
42.5617,270.37,-0.788369
42.5633,270.386,-0.788384
42.565,270.403,-0.788394
42.5667,270.42,-0.78841
42.5683,270.436,-0.788426
42.57,270.453,-0.78844
42.5717,270.47,-0.788453
42.5733,270.486,-0.788477
42.575,270.503,-0.788504
42.5767,270.52,-0.788536
42.5783,270.536,-0.788567
42.58,270.553,-0.788607
42.5817,270.57,-0.78865
42.5833,270.586,-0.788693
42.585,270.603,-0.788741
42.5867,270.619,-0.788789
42.5883,270.636,-0.788833
42.59,270.653,-0.788868
42.5917,270.669,-0.788898
42.5933,270.686,-0.788927
42.595,270.703,-0.788956
42.5967,270.719,-0.788984
42.5983,270.736,-0.789014
42.6,270.753,-0.789042
42.6017,270.77,-0.789066
42.6033,270.787,-0.789096
42.605,270.803,-0.789126
42.6067,270.82,-0.789154
42.6083,270.836,-0.789186
42.61,270.853,-0.789215
42.6117,270.87,-0.789248
42.6133,270.886,-0.789282
42.615,270.903,-0.789313
42.6167,270.92,-0.789343
42.6183,270.936,-0.789367
42.62,270.953,-0.789393
42.6217,270.97,-0.789417
42.6233,270.986,-0.78944
42.625,271.003,-0.789468
42.6267,271.02,-0.789497
42.6283,271.037,-0.789533
42.63,271.053,-0.789564
42.6317,271.07,-0.789594
42.6333,271.086,-0.789621
42.635,271.103,-0.789646
42.6367,271.12,-0.789666
42.6383,271.136,-0.78968
42.64,271.153,-0.789691
42.6417,271.169,-0.789712
42.6433,271.186,-0.789734
42.645,271.203,-0.789746
42.6467,271.219,-0.78976
42.6483,271.236,-0.789778
42.65,271.253,-0.7898
42.6517,271.269,-0.789828
42.6533,271.286,-0.789861
42.655,271.303,-0.789891
42.6567,271.32,-0.789921
42.6583,271.336,-0.789952
42.66,271.353,-0.789983
42.6617,271.37,-0.790013
42.6633,271.386,-0.790039
42.665,271.403,-0.790066
42.6667,271.42,-0.790089
42.6683,271.436,-0.790114
42.67,271.453,-0.790144
42.6717,271.47,-0.790175
42.6733,271.486,-0.790201
42.675,271.503,-0.790235
42.6767,271.52,-0.790272
42.6783,271.536,-0.790314
42.68,271.553,-0.790353
42.6817,271.57,-0.790385
42.6833,271.586,-0.790418
42.685,271.603,-0.790449
42.6867,271.619,-0.790476
42.6883,271.636,-0.790499
42.69,271.653,-0.790513
42.6917,271.669,-0.790522
42.6933,271.687,-0.790531
42.695,271.703,-0.790552
42.6967,271.72,-0.790579
42.6983,271.736,-0.790612
42.7,271.753,-0.790643
42.7017,271.77,-0.790671
42.7033,271.786,-0.790703
42.705,271.803,-0.790732
42.7067,271.819,-0.79076
42.7083,271.836,-0.790781
42.71,271.853,-0.790796
42.7117,271.869,-0.79082
42.7133,271.886,-0.790849
42.715,271.903,-0.79088
42.7167,271.919,-0.790914
42.7183,271.936,-0.790948
42.72,271.952,-0.790982
42.7217,271.969,-0.791007
42.7233,271.986,-0.79103
42.725,272.003,-0.791048
42.7267,272.019,-0.791068
42.7283,272.036,-0.791087
42.73,272.053,-0.791109
42.7317,272.069,-0.791132
42.7333,272.086,-0.791159
42.735,272.103,-0.791194
42.7367,272.119,-0.791227
42.7383,272.136,-0.791259
42.74,272.153,-0.791297
42.7417,272.17,-0.791339
42.7433,272.186,-0.791377
42.745,272.203,-0.791414
42.7467,272.22,-0.79145
42.7483,272.236,-0.791484
42.75,272.253,-0.791512
42.7517,272.269,-0.791535
42.7533,272.286,-0.791558
42.755,272.302,-0.791574
42.7567,272.319,-0.791589
42.7583,272.335,-0.791604
42.76,272.352,-0.791625
42.7617,272.369,-0.791654
42.7633,272.386,-0.791691
42.765,272.402,-0.79173
42.7667,272.419,-0.791773
42.7683,272.436,-0.791811
42.77,272.452,-0.791844
42.7717,272.469,-0.791889
42.7733,272.485,-0.791927
42.775,272.502,-0.79197
42.7767,272.519,-0.792011
42.7783,272.535,-0.792051
42.78,272.552,-0.792083
42.7817,272.569,-0.792119
42.7833,272.586,-0.792156
42.785,272.602,-0.792198
42.7867,272.619,-0.79223
42.7883,272.635,-0.792268
42.79,272.652,-0.792307
42.7917,272.669,-0.792343
42.7933,272.685,-0.792384
42.795,272.702,-0.792418
42.7967,272.718,-0.792445
42.7983,272.735,-0.792473
42.8,272.752,-0.792499
42.8017,272.769,-0.792508
42.8033,272.785,-0.792509
42.805,272.802,-0.792512
42.8067,272.819,-0.79251
42.8083,272.835,-0.792504
42.81,272.852,-0.792502
42.8117,272.869,-0.792508
42.8133,272.885,-0.792529
42.815,272.902,-0.792551
42.8167,272.918,-0.792567
42.8183,272.935,-0.792593
42.82,272.952,-0.792628
42.8217,272.968,-0.79266
42.8233,272.985,-0.792687
42.825,273.001,-0.792716
42.8267,273.018,-0.792738
42.8283,273.035,-0.792765
42.83,273.052,-0.792795
42.8317,273.068,-0.792826
42.8333,273.085,-0.792861
42.835,273.102,-0.792898
42.8367,273.119,-0.792936
42.8383,273.135,-0.792973
42.84,273.152,-0.79301
42.8417,273.169,-0.793049
42.8433,273.185,-0.793089
42.845,273.202,-0.793125
42.8467,273.218,-0.793165
42.8483,273.235,-0.793198
42.85,273.252,-0.793235
42.8517,273.268,-0.793269
42.8533,273.285,-0.793304
42.855,273.301,-0.793336
42.8567,273.318,-0.793363
42.8583,273.335,-0.79338
42.86,273.352,-0.793396
42.8617,273.369,-0.793414
42.8633,273.385,-0.793434
42.865,273.402,-0.793451
42.8667,273.419,-0.793464
42.8683,273.435,-0.79347
42.87,273.452,-0.79348
42.8717,273.468,-0.793488
42.8733,273.485,-0.793499
42.875,273.501,-0.793507
42.8767,273.518,-0.793513
42.8783,273.534,-0.793511
42.88,273.551,-0.793517
42.8817,273.568,-0.793527
42.8833,273.584,-0.79354
42.885,273.601,-0.793559
42.8867,273.618,-0.793579
42.8883,273.635,-0.793605
42.89,273.651,-0.793649
42.8917,273.668,-0.793706
42.8933,273.685,-0.793793
42.895,273.701,-0.793906
42.8967,273.718,-0.793973
42.8983,273.734,-0.794029
42.9,273.751,-0.794072
42.9017,273.768,-0.794108
42.9033,273.784,-0.794131
42.905,273.801,-0.794147
42.9067,273.818,-0.79416
42.9083,273.834,-0.794191
42.91,273.851,-0.79422
42.9117,273.867,-0.794245
42.9133,273.884,-0.794277
42.915,273.901,-0.794325
42.9167,273.917,-0.794375
42.9183,273.934,-0.794411
42.92,273.951,-0.794447
42.9217,273.967,-0.794471
42.9233,273.984,-0.794481
42.925,274.001,-0.794493
42.9267,274.017,-0.794508
42.9283,274.034,-0.794522
42.93,274.051,-0.794536
42.9317,274.068,-0.794556
42.9333,274.084,-0.794585
42.935,274.101,-0.794615
42.9367,274.118,-0.794652
42.9383,274.134,-0.794684
42.94,274.151,-0.794713
42.9417,274.168,-0.794738
42.9433,274.184,-0.794757
42.945,274.201,-0.794783
42.9467,274.217,-0.794812
42.9483,274.234,-0.794845
42.95,274.25,-0.794878
42.9517,274.267,-0.794905
42.9533,274.284,-0.79493
42.955,274.3,-0.794957
42.9567,274.317,-0.794981
42.9583,274.334,-0.795004
42.96,274.351,-0.795033
42.9617,274.368,-0.795061
42.9633,274.384,-0.795087
42.965,274.401,-0.795125
42.9667,274.417,-0.795166
42.9683,274.434,-0.795206
42.97,274.451,-0.795244
42.9717,274.467,-0.795278
42.9733,274.483,-0.795308
42.975,274.499,-0.795336
42.9767,274.516,-0.795369
42.9783,274.533,-0.795406
42.98,274.55,-0.795441
42.9817,274.566,-0.79547
42.9833,274.583,-0.795499
42.985,274.6,-0.795526
42.9867,274.616,-0.795554
42.9883,274.633,-0.795588
42.99,274.65,-0.79562
42.9917,274.667,-0.795648
42.9933,274.683,-0.795672
42.995,274.699,-0.79569
42.9967,274.717,-0.79571
42.9983,274.733,-0.795723
43,274.75,-0.795739
43.0017,274.767,-0.795763
43.0033,274.783,-0.795783
43.005,274.8,-0.795802
43.0067,274.816,-0.795829
43.0083,274.833,-0.795865
43.01,274.85,-0.795909
43.0117,274.866,-0.795954
43.0133,274.883,-0.795995
43.015,274.899,-0.796048
43.0167,274.916,-0.796101
43.0183,274.933,-0.796153
43.02,274.95,-0.796206
43.0217,274.966,-0.796255
43.0233,274.983,-0.796295
43.025,275,-0.796329
43.0267,275.016,-0.79636
43.0283,275.033,-0.796381
43.03,275.05,-0.796407
43.0317,275.067,-0.796424
43.0333,275.083,-0.796434
43.035,275.1,-0.796449
43.0367,275.117,-0.796456
43.0383,275.133,-0.796462
43.04,275.15,-0.796468
43.0417,275.166,-0.796478
43.0433,275.183,-0.796494
43.045,275.199,-0.796526
43.0467,275.216,-0.796556
43.0483,275.233,-0.796591
43.05,275.249,-0.796629
43.0517,275.266,-0.796663
43.0533,275.283,-0.796692
43.055,275.3,-0.796721
43.0567,275.316,-0.796754
43.0583,275.333,-0.796795
43.06,275.35,-0.796833
43.0617,275.366,-0.796883
43.0633,275.383,-0.796936
43.065,275.399,-0.796999
43.0667,275.416,-0.79706
43.0683,275.433,-0.797117
43.07,275.449,-0.797169
43.0717,275.466,-0.797219
43.0733,275.483,-0.79726
43.075,275.5,-0.797291
43.0767,275.516,-0.79732
43.0783,275.533,-0.797348
43.08,275.55,-0.797373
43.0817,275.566,-0.7974
43.0833,275.583,-0.797421
43.085,275.6,-0.797451
43.0867,275.616,-0.797483
43.0883,275.633,-0.797514
43.09,275.65,-0.797546
43.0917,275.666,-0.797579
43.0933,275.683,-0.797615
43.095,275.699,-0.797652
43.0967,275.716,-0.797681
43.0983,275.733,-0.797708
43.1,275.749,-0.79773
43.1017,275.766,-0.79775
43.1033,275.782,-0.797774
43.105,275.799,-0.797798
43.1067,275.816,-0.797823
43.1083,275.832,-0.797844
43.11,275.849,-0.797855
43.1117,275.866,-0.797865
43.1133,275.883,-0.797867
43.115,275.899,-0.797871
43.1167,275.916,-0.797882
43.1183,275.932,-0.797902
43.12,275.949,-0.797935
43.1217,275.966,-0.797966
43.1233,275.982,-0.798001
43.125,275.999,-0.798043
43.1267,276.015,-0.798084
43.1283,276.032,-0.798116
43.13,276.049,-0.79814
43.1317,276.065,-0.798169
43.1333,276.082,-0.798196
43.135,276.099,-0.798216
43.1367,276.116,-0.798241
43.1383,276.132,-0.798269
43.14,276.149,-0.79829
43.1417,276.166,-0.798309
43.1433,276.182,-0.798335
43.145,276.199,-0.798366
43.1467,276.216,-0.798405
43.1483,276.232,-0.798452
43.15,276.249,-0.798521
43.1517,276.266,-0.798655
43.1533,276.282,-0.798801
43.155,276.299,-0.798888
43.1567,276.315,-0.798958
43.1583,276.332,-0.799015
43.16,276.349,-0.799047
43.1617,276.365,-0.79906
43.1633,276.382,-0.799063
43.165,276.398,-0.799058
43.1667,276.415,-0.799054
43.1683,276.432,-0.799052
43.17,276.448,-0.799062
43.1717,276.465,-0.799083
43.1733,276.482,-0.799109
43.175,276.498,-0.799143
43.1767,276.515,-0.799192
43.1783,276.531,-0.799241
43.18,276.549,-0.799292
43.1817,276.565,-0.799343
43.1833,276.582,-0.799391
43.185,276.598,-0.799438
43.1867,276.615,-0.799481
43.1883,276.632,-0.799513
43.19,276.649,-0.799541
43.1917,276.665,-0.799562
43.1933,276.682,-0.79958
43.195,276.698,-0.799602
43.1967,276.715,-0.799621
43.1983,276.732,-0.799639
43.2,276.749,-0.799656
43.2017,276.765,-0.799678
43.2033,276.782,-0.799712
43.205,276.798,-0.79974
43.2067,276.815,-0.79977
43.2083,276.831,-0.799793
43.21,276.848,-0.799819
43.2117,276.865,-0.799841
43.2133,276.881,-0.799863
43.215,276.898,-0.799885
43.2167,276.915,-0.799902
43.2183,276.931,-0.799926
43.22,276.948,-0.799967
43.2217,276.965,-0.80002
43.2233,276.981,-0.800077
43.225,276.998,-0.80017
43.2267,277.015,-0.800232
43.2283,277.031,-0.80029
43.23,277.048,-0.800343
43.2317,277.065,-0.800401
43.2333,277.081,-0.800454
43.235,277.098,-0.800495
43.2367,277.115,-0.800536
43.2383,277.132,-0.800573
43.24,277.148,-0.800611
43.2417,277.165,-0.800648
43.2433,277.182,-0.800693
43.245,277.198,-0.800726
43.2467,277.215,-0.80075
43.2483,277.231,-0.800766
43.25,277.248,-0.800779
43.2517,277.265,-0.800786
43.2533,277.282,-0.800794
43.255,277.299,-0.800799
43.2567,277.315,-0.800808
43.2583,277.332,-0.800821
43.26,277.348,-0.80084
43.2617,277.365,-0.800869
43.2633,277.381,-0.800898
43.265,277.398,-0.800934
43.2667,277.415,-0.800977
43.2683,277.431,-0.801011
43.27,277.448,-0.801041
43.2717,277.464,-0.801068
43.2733,277.481,-0.801088
43.275,277.498,-0.801103
43.2767,277.514,-0.801113
43.2783,277.531,-0.801124
43.28,277.548,-0.801135
43.2817,277.565,-0.801154
43.2833,277.581,-0.801185
43.285,277.598,-0.801224
43.2867,277.614,-0.801274
43.2883,277.631,-0.80133
43.29,277.648,-0.801414
43.2917,277.665,-0.80148
43.2933,277.681,-0.801542
43.295,277.698,-0.801595
43.2967,277.715,-0.801637
43.2983,277.731,-0.801672
43.3,277.748,-0.801694
43.3017,277.764,-0.801707
43.3033,277.781,-0.801713
43.305,277.798,-0.801716
43.3067,277.814,-0.801715
43.3083,277.831,-0.801712
43.31,277.847,-0.801703
43.3117,277.864,-0.801695
43.3133,277.881,-0.801692
43.315,277.897,-0.80169
43.3167,277.915,-0.801688
43.3183,277.932,-0.801695
43.32,277.948,-0.801717
43.3217,277.965,-0.80175
43.3233,277.981,-0.801793
43.325,277.998,-0.801843
43.3267,278.015,-0.801893
43.3283,278.031,-0.801939
43.33,278.048,-0.801977
43.3317,278.064,-0.802011
43.3333,278.081,-0.802038
43.335,278.098,-0.802051
43.3367,278.115,-0.802058
43.3383,278.131,-0.802065
43.34,278.148,-0.802074
43.3417,278.165,-0.802088
43.3433,278.181,-0.802111
43.345,278.198,-0.802139
43.3467,278.214,-0.802172
43.3483,278.231,-0.802204
43.35,278.247,-0.802239
43.3517,278.264,-0.802271
43.3533,278.281,-0.802303
43.355,278.297,-0.802336
43.3567,278.314,-0.802373
43.3583,278.331,-0.802402
43.36,278.348,-0.802437
43.3617,278.365,-0.802477
43.3633,278.381,-0.802526
43.365,278.398,-0.802574
43.3667,278.414,-0.80262
43.3683,278.431,-0.802668
43.37,278.448,-0.802716
43.3717,278.464,-0.802766
43.3733,278.481,-0.80281
43.375,278.497,-0.802859
43.3767,278.514,-0.802907
43.3783,278.531,-0.802961
43.38,278.547,-0.80301
43.3817,278.564,-0.803053
43.3833,278.581,-0.803089
43.385,278.597,-0.803128
43.3867,278.614,-0.803168
43.3883,278.631,-0.803209
43.39,278.647,-0.803241
43.3917,278.664,-0.803265
43.3933,278.681,-0.803278
43.395,278.698,-0.803286
43.3967,278.714,-0.803292
43.3983,278.731,-0.803291
43.4,278.747,-0.803287
43.4017,278.764,-0.803288
43.4033,278.781,-0.803287
43.405,278.797,-0.803292
43.4067,278.814,-0.803306
43.4083,278.831,-0.80333
43.41,278.847,-0.803363
43.4117,278.864,-0.803398
43.4133,278.881,-0.803441
43.415,278.898,-0.803478
43.4167,278.914,-0.80352
43.4183,278.931,-0.80356
43.42,278.947,-0.803601
43.4217,278.964,-0.803638
43.4233,278.98,-0.803664
43.425,278.996,-0.803692
43.4267,279.013,-0.80373
43.4283,279.03,-0.803764
43.43,279.047,-0.803787
43.4317,279.064,-0.803812
43.4333,279.081,-0.80383
43.435,279.097,-0.803851
43.4367,279.114,-0.80386
43.4383,279.131,-0.803874
43.44,279.147,-0.803884
43.4417,279.164,-0.803896
43.4433,279.181,-0.803911
43.445,279.197,-0.803936
43.4467,279.214,-0.803976
43.4483,279.23,-0.804021
43.45,279.247,-0.80407
43.4517,279.264,-0.804116
43.4533,279.28,-0.804162
43.455,279.297,-0.804209
43.4567,279.314,-0.804254
43.4583,279.33,-0.804284
43.46,279.347,-0.804313
43.4617,279.364,-0.804347
43.4633,279.38,-0.804383
43.465,279.397,-0.804425
43.4667,279.414,-0.804463
43.4683,279.431,-0.804498
43.47,279.447,-0.804529
43.4717,279.464,-0.804553
43.4733,279.481,-0.804579
43.475,279.497,-0.804601
43.4767,279.513,-0.804616
43.4783,279.53,-0.804617
43.48,279.546,-0.804615
43.4817,279.563,-0.804619
43.4833,279.58,-0.80463
43.485,279.597,-0.804641
43.4867,279.614,-0.804649
43.4883,279.631,-0.804654
43.49,279.648,-0.804669
43.4917,279.664,-0.804695
43.4933,279.681,-0.804722
43.495,279.697,-0.804753
43.4967,279.714,-0.804793
43.4983,279.73,-0.804833
43.5,279.747,-0.804879
43.5017,279.764,-0.804925
43.5033,279.78,-0.804969
43.505,279.796,-0.805021
43.5067,279.813,-0.805077
43.5083,279.83,-0.805133
43.51,279.847,-0.8052
43.5117,279.864,-0.805259
43.5133,279.88,-0.805315
43.515,279.897,-0.805359
43.5167,279.914,-0.805398
43.5183,279.931,-0.80543
43.52,279.947,-0.805453
43.5217,279.964,-0.805465
43.5233,279.98,-0.805469
43.525,279.997,-0.805467
43.5267,280.014,-0.805469
43.5283,280.03,-0.805471
43.53,280.046,-0.805473
43.5317,280.063,-0.805477
43.5333,280.08,-0.805483
43.535,280.097,-0.805491
43.5367,280.114,-0.805506
43.5383,280.13,-0.805527
43.54,280.147,-0.805549
43.5417,280.163,-0.80558
43.5433,280.18,-0.805622
43.545,280.197,-0.80567
43.5467,280.213,-0.805725
43.5483,280.23,-0.805782
43.55,280.247,-0.805835
43.5517,280.264,-0.805882
43.5533,280.28,-0.805921
43.555,280.297,-0.805956
43.5567,280.314,-0.805982
43.5583,280.33,-0.805987
43.56,280.347,-0.805985
43.5617,280.363,-0.805968
43.5633,280.38,-0.805952
43.565,280.397,-0.805947
43.5667,280.413,-0.805952
43.5683,280.43,-0.80597
43.57,280.447,-0.805985
43.5717,280.463,-0.806006
43.5733,280.48,-0.806039
43.575,280.497,-0.806076
43.5767,280.514,-0.806113
43.5783,280.53,-0.806144
43.58,280.547,-0.806172
43.5817,280.563,-0.8062
43.5833,280.58,-0.806225
43.585,280.596,-0.806248
43.5867,280.613,-0.806268
43.5883,280.629,-0.806287
43.59,280.646,-0.806302
43.5917,280.663,-0.806333
43.5933,280.68,-0.806369
43.595,280.696,-0.806414
43.5967,280.713,-0.806457
43.5983,280.73,-0.806495
43.6,280.746,-0.806538
43.6017,280.763,-0.806581
43.6033,280.78,-0.806611
43.605,280.796,-0.806637
43.6067,280.813,-0.80667
43.6083,280.829,-0.806704
43.61,280.846,-0.806736
43.6117,280.863,-0.806776
43.6133,280.88,-0.806819
43.615,280.896,-0.806868
43.6167,280.913,-0.806913
43.6183,280.93,-0.806962
43.62,280.946,-0.807002
43.6217,280.963,-0.807037
43.6233,280.979,-0.807062
43.625,280.996,-0.807083
43.6267,281.013,-0.807107
43.6283,281.029,-0.807132
43.63,281.046,-0.807159
43.6317,281.063,-0.807186
43.6333,281.079,-0.807216
43.635,281.096,-0.807246
43.6367,281.112,-0.807273
43.6383,281.129,-0.807301
43.64,281.146,-0.807331
43.6417,281.162,-0.807347
43.6433,281.179,-0.807353
43.645,281.195,-0.807355
43.6467,281.212,-0.807356
43.6483,281.229,-0.807362
43.65,281.246,-0.807377
43.6517,281.262,-0.807395
43.6533,281.279,-0.807416
43.655,281.296,-0.807449
43.6567,281.313,-0.807493
43.6583,281.329,-0.807546
43.66,281.345,-0.807595
43.6617,281.362,-0.807652
43.6633,281.379,-0.807708
43.665,281.395,-0.807761
43.6667,281.412,-0.807814
43.6683,281.429,-0.807872
43.67,281.446,-0.807921
43.6717,281.462,-0.80797
43.6733,281.479,-0.808016
43.675,281.496,-0.808065
43.6767,281.512,-0.808111
43.6783,281.528,-0.808146
43.68,281.545,-0.808178
43.6817,281.562,-0.808204
43.6833,281.579,-0.808227
43.685,281.595,-0.80825
43.6867,281.612,-0.80827
43.6883,281.629,-0.808288
43.69,281.645,-0.80831
43.6917,281.662,-0.808324
43.6933,281.678,-0.808345
43.695,281.695,-0.808368
43.6967,281.712,-0.808386
43.6983,281.729,-0.808408
43.7,281.745,-0.808437
43.7017,281.762,-0.808465
43.7033,281.779,-0.808501
43.705,281.796,-0.80854
43.7067,281.812,-0.808581
43.7083,281.829,-0.808622
43.71,281.845,-0.808661
43.7117,281.862,-0.808688
43.7133,281.879,-0.808708
43.715,281.895,-0.808723
43.7167,281.912,-0.808734
43.7183,281.928,-0.808751
43.72,281.945,-0.808762
43.7217,281.962,-0.808767
43.7233,281.979,-0.808769
43.725,281.995,-0.808782
43.7267,282.012,-0.808797
43.7283,282.029,-0.808812
43.73,282.046,-0.808835
43.7317,282.062,-0.808851
43.7333,282.079,-0.808874
43.735,282.095,-0.808908
43.7367,282.112,-0.808952
43.7383,282.129,-0.808994
43.74,282.145,-0.809037
43.7417,282.162,-0.809093
43.7433,282.178,-0.809157
43.745,282.195,-0.809211
43.7467,282.212,-0.809266
43.7483,282.228,-0.809322
43.75,282.245,-0.809367
43.7517,282.262,-0.809411
43.7533,282.278,-0.809453
43.755,282.295,-0.809491
43.7567,282.312,-0.809522
43.7583,282.328,-0.809543
43.76,282.345,-0.809572
43.7617,282.361,-0.809598
43.7633,282.378,-0.809627
43.765,282.395,-0.809654
43.7667,282.412,-0.809666
43.7683,282.428,-0.809683
43.77,282.445,-0.809699
43.7717,282.461,-0.80972
43.7733,282.478,-0.809743
43.775,282.495,-0.809764
43.7767,282.512,-0.809793
43.7783,282.528,-0.809825
43.78,282.545,-0.809868
43.7817,282.562,-0.809916
43.7833,282.578,-0.80997
43.785,282.595,-0.810019
43.7867,282.612,-0.810062
43.7883,282.628,-0.810106
43.79,282.645,-0.810152
43.7917,282.661,-0.810192
43.7933,282.678,-0.810224
43.795,282.695,-0.810253
43.7967,282.712,-0.810283
43.7983,282.729,-0.810309
43.8,282.745,-0.810332
43.8017,282.762,-0.810364
43.8033,282.778,-0.810392
43.805,282.795,-0.810418
43.8067,282.811,-0.810449
43.8083,282.828,-0.810479
43.81,282.844,-0.810507
43.8117,282.861,-0.810529
43.8133,282.878,-0.810544
43.815,282.894,-0.810565
43.8167,282.911,-0.810579
43.8183,282.928,-0.810592
43.82,282.944,-0.810608
43.8217,282.961,-0.810628
43.8233,282.978,-0.810646
43.825,282.994,-0.810659
43.8267,283.011,-0.810675
43.8283,283.028,-0.810694
43.83,283.044,-0.810715
43.8317,283.061,-0.810735
43.8333,283.078,-0.810754
43.835,283.094,-0.810772
43.8367,283.111,-0.810793
43.8383,283.128,-0.810816
43.84,283.144,-0.810849
43.8417,283.161,-0.810887
43.8433,283.177,-0.810927
43.845,283.194,-0.810967
43.8467,283.211,-0.811014
43.8483,283.228,-0.811068
43.85,283.244,-0.811113
43.8517,283.261,-0.811148
43.8533,283.278,-0.811179
43.855,283.294,-0.81121
43.8567,283.311,-0.811233
43.8583,283.328,-0.811255
43.86,283.344,-0.811286
43.8617,283.361,-0.811338
43.8633,283.378,-0.811396
43.865,283.394,-0.811457
43.8667,283.411,-0.811554
43.8683,283.428,-0.811657
43.87,283.444,-0.811746
43.8717,283.461,-0.8118
43.8733,283.477,-0.811849
43.875,283.494,-0.811892
43.8767,283.511,-0.811917
43.8783,283.528,-0.811936
43.88,283.544,-0.811968
43.8817,283.561,-0.812003
43.8833,283.577,-0.812036
43.885,283.594,-0.812069
43.8867,283.61,-0.812106
43.8883,283.627,-0.812138
43.89,283.644,-0.812165
43.8917,283.66,-0.812184
43.8933,283.677,-0.812199
43.895,283.694,-0.812212
43.8967,283.71,-0.812234
43.8983,283.727,-0.812254
43.9,283.743,-0.812279
43.9017,283.76,-0.812313
43.9033,283.777,-0.812347
43.905,283.793,-0.812383
43.9067,283.81,-0.812417
43.9083,283.827,-0.812451
43.91,283.843,-0.812483
43.9117,283.86,-0.812505
43.9133,283.876,-0.812533
43.915,283.894,-0.812562
43.9167,283.91,-0.812599
43.9183,283.927,-0.812634
43.92,283.944,-0.812663
43.9217,283.96,-0.812694
43.9233,283.976,-0.812727
43.925,283.993,-0.812759
43.9267,284.01,-0.81279
43.9283,284.027,-0.812821
43.93,284.043,-0.812848
43.9317,284.06,-0.812867
43.9333,284.076,-0.812883
43.935,284.093,-0.812905
43.9367,284.11,-0.812938
43.9383,284.126,-0.812979
43.94,284.143,-0.813027
43.9417,284.159,-0.813079
43.9433,284.176,-0.813125
43.945,284.193,-0.813177
43.9467,284.21,-0.813227
43.9483,284.226,-0.81327
43.95,284.243,-0.813312
43.9517,284.259,-0.81334
43.9533,284.276,-0.813364
43.955,284.293,-0.813383
43.9567,284.309,-0.813398
43.9583,284.326,-0.813411
43.96,284.343,-0.813422
43.9617,284.359,-0.813434
43.9633,284.376,-0.813456
43.965,284.393,-0.813478
43.9667,284.409,-0.813503
43.9683,284.426,-0.813527
43.97,284.443,-0.813556
43.9717,284.459,-0.813588
43.9733,284.476,-0.81362
43.975,284.493,-0.813661
43.9767,284.509,-0.813705
43.9783,284.526,-0.813754
43.98,284.543,-0.813805
43.9817,284.559,-0.813859
43.9833,284.576,-0.813909
43.985,284.593,-0.81396
43.9867,284.609,-0.814012
43.9883,284.626,-0.814052
43.99,284.643,-0.814092
43.9917,284.659,-0.814128
43.9933,284.676,-0.814159
43.995,284.693,-0.814201
43.9967,284.709,-0.814243
43.9983,284.726,-0.814282
44,284.742,-0.81433
44.0017,284.759,-0.814384
44.0033,284.776,-0.81444
44.005,284.792,-0.814498
44.0067,284.809,-0.814551
44.0083,284.826,-0.814604
44.01,284.843,-0.814648
44.0117,284.859,-0.81469
44.0133,284.876,-0.814727
44.015,284.892,-0.814752
44.0167,284.909,-0.814772
44.0183,284.925,-0.814802
44.02,284.942,-0.814836
44.0217,284.958,-0.81488
44.0233,284.975,-0.814923
44.025,284.992,-0.814967
44.0267,285.009,-0.815013
44.0283,285.025,-0.815052
44.03,285.042,-0.815078
44.0317,285.059,-0.815104
44.0333,285.075,-0.815122
44.035,285.092,-0.81514
44.0367,285.109,-0.815164
44.0383,285.125,-0.815197
44.04,285.142,-0.815234
44.0417,285.159,-0.815274
44.0433,285.175,-0.815318
44.045,285.192,-0.81537
44.0467,285.208,-0.815423
44.0483,285.225,-0.815467
44.05,285.242,-0.815511
44.0517,285.258,-0.815554
44.0533,285.275,-0.815591
44.055,285.291,-0.815626
44.0567,285.308,-0.815651
44.0583,285.325,-0.815674
44.06,285.342,-0.815709
44.0617,285.358,-0.815749
44.0633,285.375,-0.815791
44.065,285.392,-0.815836
44.0667,285.408,-0.815887
44.0683,285.425,-0.815941
44.07,285.441,-0.815984
44.0717,285.458,-0.816025
44.0733,285.475,-0.816069
44.075,285.491,-0.816115
44.0767,285.508,-0.816158
44.0783,285.525,-0.816207
44.08,285.541,-0.816262
44.0817,285.558,-0.816307
44.0833,285.574,-0.816355
44.085,285.591,-0.816396
44.0867,285.608,-0.816438
44.0883,285.624,-0.816484
44.09,285.641,-0.816521
44.0917,285.658,-0.816555
44.0933,285.675,-0.816588
44.095,285.691,-0.816623
44.0967,285.708,-0.816655
44.0983,285.724,-0.816693
44.1,285.741,-0.816726
44.1017,285.758,-0.816763
44.1033,285.774,-0.816795
44.105,285.791,-0.816831
44.1067,285.808,-0.816862
44.1083,285.825,-0.81689
44.11,285.842,-0.816924
44.1117,285.858,-0.816958
44.1133,285.875,-0.816984
44.115,285.891,-0.817009
44.1167,285.908,-0.81704
44.1183,285.925,-0.817077
44.12,285.941,-0.817126
44.1217,285.958,-0.817171
44.1233,285.975,-0.817224
44.125,285.991,-0.817276
44.1267,286.008,-0.817335
44.1283,286.025,-0.817398
44.13,286.041,-0.817464
44.1317,286.058,-0.817517
44.1333,286.075,-0.817566
44.135,286.091,-0.817605
44.1367,286.108,-0.81765
44.1383,286.125,-0.817697
44.14,286.141,-0.817737
44.1417,286.158,-0.817783
44.1433,286.175,-0.817821
44.145,286.191,-0.817872
44.1467,286.208,-0.817924
44.1483,286.224,-0.817982
44.15,286.241,-0.818037
44.1517,286.258,-0.818093
44.1533,286.274,-0.818147
44.155,286.291,-0.818193
44.1567,286.307,-0.818236
44.1583,286.324,-0.818273
44.16,286.341,-0.818312
44.1617,286.357,-0.818353
44.1633,286.374,-0.818397
44.165,286.391,-0.818432
44.1667,286.407,-0.818472
44.1683,286.424,-0.818508
44.17,286.441,-0.818549
44.1717,286.457,-0.818588
44.1733,286.474,-0.818629
44.175,286.491,-0.818669
44.1767,286.508,-0.81871
44.1783,286.524,-0.81875
44.18,286.541,-0.818784
44.1817,286.557,-0.818822
44.1833,286.574,-0.818854
44.185,286.591,-0.818885
44.1867,286.607,-0.818925
44.1883,286.624,-0.818969
44.19,286.641,-0.81901
44.1917,286.657,-0.819057
44.1933,286.674,-0.819104
44.195,286.69,-0.819152
44.1967,286.707,-0.819202
44.1983,286.723,-0.819239
44.2,286.741,-0.81928
44.2017,286.757,-0.819319
44.2033,286.773,-0.819361
44.205,286.79,-0.819405
44.2067,286.807,-0.819445
44.2083,286.824,-0.819491
44.21,286.841,-0.81954
44.2117,286.857,-0.819587
44.2133,286.874,-0.819629
44.215,286.89,-0.81966
44.2167,286.907,-0.819683
44.2183,286.924,-0.819701
44.22,286.94,-0.819714
44.2217,286.957,-0.819726
44.2233,286.974,-0.819745
44.225,286.99,-0.819765
44.2267,287.007,-0.819785
44.2283,287.023,-0.819814
44.23,287.04,-0.819859
44.2317,287.056,-0.819922
44.2333,287.073,-0.820055
44.235,287.09,-0.820187
44.2367,287.107,-0.820314
44.2383,287.123,-0.820383
44.24,287.14,-0.820497
44.2417,287.157,-0.820609
44.2433,287.174,-0.820686
44.245,287.19,-0.82075
44.2467,287.208,-0.820814
44.2483,287.224,-0.820869
44.25,287.241,-0.820929
44.2517,287.257,-0.821
44.2533,287.274,-0.82107
44.255,287.29,-0.821123
44.2567,287.307,-0.821175
44.2583,287.323,-0.821223
44.26,287.34,-0.821275
44.2617,287.357,-0.821316
44.2633,287.374,-0.821345
44.265,287.391,-0.821369
44.2667,287.407,-0.821382
44.2683,287.423,-0.821394
44.27,287.441,-0.821417
44.2717,287.457,-0.821445
44.2733,287.474,-0.82148
44.275,287.491,-0.821525
44.2767,287.508,-0.821581
44.2783,287.524,-0.821646
44.28,287.541,-0.821715
44.2817,287.557,-0.821782
44.2833,287.574,-0.821846
44.285,287.59,-0.821908
44.2867,287.607,-0.821966
44.2883,287.624,-0.822029
44.29,287.64,-0.822083
44.2917,287.657,-0.822145
44.2933,287.673,-0.822209
44.295,287.69,-0.822274
44.2967,287.707,-0.822341
44.2983,287.723,-0.822408
44.3,287.74,-0.822472
44.3017,287.757,-0.822538
44.3033,287.773,-0.822608
44.305,287.79,-0.822675
44.3067,287.807,-0.822733
44.3083,287.823,-0.822791
44.31,287.84,-0.822846
44.3117,287.857,-0.822899
44.3133,287.874,-0.822958
44.315,287.89,-0.823017
44.3167,287.907,-0.823081
44.3183,287.923,-0.823142
44.32,287.94,-0.823198
44.3217,287.957,-0.823252
44.3233,287.974,-0.823308
44.325,287.99,-0.823357
44.3267,288.007,-0.823407
44.3283,288.023,-0.823458
44.33,288.04,-0.82351
44.3317,288.057,-0.823563
44.3333,288.073,-0.823612
44.335,288.09,-0.823661
44.3367,288.107,-0.823706
44.3383,288.123,-0.823759
44.34,288.14,-0.823815
44.3417,288.157,-0.823869
44.3433,288.173,-0.823917
44.345,288.19,-0.823976
44.3467,288.206,-0.82403
44.3483,288.223,-0.82408
44.35,288.24,-0.824132
44.3517,288.256,-0.824188
44.3533,288.273,-0.824251
44.355,288.289,-0.82433
44.3567,288.306,-0.824426
44.3583,288.322,-0.824511
44.36,288.339,-0.824601
44.3617,288.356,-0.824672
44.3633,288.372,-0.824736
44.365,288.389,-0.824793
44.3667,288.406,-0.824838
44.3683,288.423,-0.824869
44.37,288.439,-0.8249
44.3717,288.456,-0.824935
44.3733,288.473,-0.824968
44.375,288.489,-0.82501
44.3767,288.506,-0.825058
44.3783,288.523,-0.825112
44.38,288.539,-0.82517
44.3817,288.556,-0.825226
44.3833,288.573,-0.82528
44.385,288.59,-0.82533
44.3867,288.606,-0.825384
44.3883,288.623,-0.825427
44.39,288.639,-0.82547
44.3917,288.656,-0.825514
44.3933,288.673,-0.825556
44.395,288.689,-0.825598
44.3967,288.706,-0.825641
44.3983,288.722,-0.825699
44.4,288.739,-0.825772
44.4017,288.756,-0.825836
44.4033,288.772,-0.825909
44.405,288.789,-0.825985
44.4067,288.806,-0.826064
44.4083,288.823,-0.826137
44.41,288.839,-0.826202
44.4117,288.856,-0.826267
44.4133,288.873,-0.826323
44.415,288.889,-0.826374
44.4167,288.906,-0.826422
44.4183,288.923,-0.82647
44.42,288.939,-0.82652
44.4217,288.956,-0.826577
44.4233,288.973,-0.826636
44.425,288.989,-0.826696
44.4267,289.005,-0.826758
44.4283,289.022,-0.826816
44.43,289.039,-0.826869
44.4317,289.056,-0.826917
44.4333,289.072,-0.826959
44.435,289.089,-0.826991
44.4367,289.106,-0.827024
44.4383,289.122,-0.827061
44.44,289.139,-0.827095
44.4417,289.156,-0.827137
44.4433,289.173,-0.827183
44.445,289.189,-0.827242
44.4467,289.206,-0.827314
44.4483,289.223,-0.8274
44.45,289.24,-0.82748
44.4517,289.256,-0.827551
44.4533,289.273,-0.827615
44.455,289.29,-0.827682
44.4567,289.306,-0.827743
44.4583,289.323,-0.827803
44.46,289.339,-0.827868
44.4617,289.356,-0.827928
44.4633,289.373,-0.827991
44.465,289.389,-0.828053
44.4667,289.406,-0.828118
44.4683,289.422,-0.828189
44.47,289.439,-0.828257
44.4717,289.456,-0.828323
44.4733,289.473,-0.828391
44.475,289.489,-0.828467
44.4767,289.506,-0.828546
44.4783,289.522,-0.828631
44.48,289.539,-0.828717
44.4817,289.556,-0.828842
44.4833,289.572,-0.828927
44.485,289.589,-0.829009
44.4867,289.606,-0.829079
44.4883,289.622,-0.829144
44.49,289.639,-0.829199
44.4917,289.656,-0.829243
44.4933,289.673,-0.829279
44.495,289.689,-0.829311
44.4967,289.706,-0.829341
44.4983,289.722,-0.829365
44.5,289.739,-0.829397
44.5017,289.756,-0.829446
44.5033,289.772,-0.829505
44.505,289.789,-0.829581
44.5067,289.806,-0.829677
44.5083,289.822,-0.829813
44.51,289.84,-0.829945
44.5117,289.856,-0.830087
44.5133,289.873,-0.830195
44.515,289.889,-0.83028
44.5167,289.906,-0.830358
44.5183,289.922,-0.830435
44.52,289.939,-0.83051
44.5217,289.956,-0.830583
44.5233,289.972,-0.830656
44.525,289.989,-0.830732
44.5267,290.006,-0.830807
44.5283,290.023,-0.830875
44.53,290.039,-0.830942
44.5317,290.056,-0.831001
44.5333,290.072,-0.831055
44.535,290.089,-0.831088
44.5367,290.106,-0.831116
44.5383,290.122,-0.831136
44.54,290.139,-0.831154
44.5417,290.155,-0.831171
44.5433,290.172,-0.831192
44.545,290.189,-0.83122
44.5467,290.206,-0.831257
44.5483,290.222,-0.831309
44.55,290.239,-0.831369
44.5517,290.255,-0.831443
44.5533,290.272,-0.831516
44.555,290.288,-0.831587
44.5567,290.305,-0.831656
44.5583,290.322,-0.83172
44.56,290.339,-0.831783
44.5617,290.355,-0.831852
44.5633,290.372,-0.831912
44.565,290.389,-0.831969
44.5667,290.405,-0.832027
44.5683,290.422,-0.832086
44.57,290.439,-0.832152
44.5717,290.455,-0.832211
44.5733,290.472,-0.832266
44.575,290.489,-0.832318
44.5767,290.505,-0.832369
44.5783,290.522,-0.832416
44.58,290.538,-0.83246
44.5817,290.555,-0.832507
44.5833,290.572,-0.832563
44.585,290.588,-0.832627
44.5867,290.605,-0.832693
44.5883,290.622,-0.832758
44.59,290.638,-0.832826
44.5917,290.655,-0.832901
44.5933,290.671,-0.832981
44.595,290.688,-0.833055
44.5967,290.705,-0.833132
44.5983,290.722,-0.833204
44.6,290.738,-0.833279
44.6017,290.755,-0.833353
44.6033,290.772,-0.833424
44.605,290.788,-0.833493
44.6067,290.805,-0.833566
44.6083,290.822,-0.83363
44.61,290.838,-0.833692
44.6117,290.855,-0.833751
44.6133,290.872,-0.833809
44.615,290.889,-0.833876
44.6167,290.905,-0.833944
44.6183,290.922,-0.834008
44.62,290.938,-0.834061
44.6217,290.955,-0.834117
44.6233,290.972,-0.83416
44.625,290.988,-0.834206
44.6267,291.005,-0.834258
44.6283,291.022,-0.834303
44.63,291.038,-0.834359
44.6317,291.055,-0.834418
44.6333,291.072,-0.834479
44.635,291.088,-0.834544
44.6367,291.105,-0.834608
44.6383,291.121,-0.834673
44.64,291.138,-0.834734
44.6417,291.155,-0.834801
44.6433,291.171,-0.834869
44.645,291.188,-0.834937
44.6467,291.205,-0.835009
44.6483,291.221,-0.835078
44.65,291.238,-0.835151
44.6517,291.255,-0.835218
44.6533,291.271,-0.835274
44.655,291.288,-0.835334
44.6567,291.305,-0.835392
44.6583,291.321,-0.835441
44.66,291.338,-0.835498
44.6617,291.355,-0.835556
44.6633,291.371,-0.83562
44.665,291.388,-0.835683
44.6667,291.405,-0.835753
44.6683,291.421,-0.835826
44.67,291.438,-0.835904
44.6717,291.454,-0.835985
44.6733,291.471,-0.836074
44.675,291.488,-0.836187
44.6767,291.505,-0.836274
44.6783,291.521,-0.83636
44.68,291.538,-0.836444
44.6817,291.555,-0.836521
44.6833,291.571,-0.836588
44.685,291.588,-0.836656
44.6867,291.604,-0.836724
44.6883,291.621,-0.836786
44.69,291.638,-0.836845
44.6917,291.655,-0.836903
44.6933,291.672,-0.836959
44.695,291.688,-0.837014
44.6967,291.705,-0.837062
44.6983,291.721,-0.837109
44.7,291.738,-0.83715
44.7017,291.755,-0.837187
44.7033,291.771,-0.837224
44.705,291.788,-0.837265
44.7067,291.805,-0.837308
44.7083,291.821,-0.837348
44.71,291.838,-0.8374
44.7117,291.855,-0.837456
44.7133,291.871,-0.837513
44.715,291.888,-0.837582
44.7167,291.905,-0.83766
44.7183,291.921,-0.837745
44.72,291.938,-0.837832
44.7217,291.954,-0.837944
44.7233,291.971,-0.838027
44.725,291.988,-0.83811
44.7267,292.004,-0.838184
44.7283,292.021,-0.83826
44.73,292.038,-0.838333
44.7317,292.054,-0.838406
44.7333,292.071,-0.83846
44.735,292.088,-0.838508
44.7367,292.104,-0.838556
44.7383,292.121,-0.838597
44.74,292.138,-0.838642
44.7417,292.154,-0.838691
44.7433,292.171,-0.838737
44.745,292.188,-0.838788
44.7467,292.204,-0.838844
44.7483,292.221,-0.838903
44.75,292.238,-0.838961
44.7517,292.254,-0.839015
44.7533,292.271,-0.839072
44.755,292.287,-0.839125
44.7567,292.304,-0.839187
44.7583,292.321,-0.839249
44.76,292.338,-0.83932
44.7617,292.354,-0.839395
44.7633,292.371,-0.839476
44.765,292.387,-0.839556
44.7667,292.404,-0.839635
44.7683,292.421,-0.839716
44.77,292.437,-0.839792
44.7717,292.454,-0.839868
44.7733,292.471,-0.839945
44.775,292.487,-0.84002
44.7767,292.504,-0.840104
44.7783,292.521,-0.840175
44.78,292.538,-0.840238
44.7817,292.554,-0.840291
44.7833,292.571,-0.840338
44.785,292.588,-0.840381
44.7867,292.604,-0.84043
44.7883,292.621,-0.84047
44.79,292.637,-0.840509
44.7917,292.654,-0.840555
44.7933,292.671,-0.840596
44.795,292.687,-0.840647
44.7967,292.704,-0.840706
44.7983,292.72,-0.840763
44.8,292.737,-0.840811
44.8017,292.754,-0.84086
44.8033,292.771,-0.840917
44.805,292.787,-0.840971
44.8067,292.804,-0.841034
44.8083,292.821,-0.841098
44.81,292.837,-0.841169
44.8117,292.854,-0.84124
44.8133,292.871,-0.841305
44.815,292.887,-0.841376
44.8167,292.904,-0.841449
44.8183,292.921,-0.841524
44.82,292.937,-0.841599
44.8217,292.954,-0.841674
44.8233,292.971,-0.841749
44.825,292.987,-0.841824
44.8267,293.004,-0.841894
44.8283,293.02,-0.841971
44.83,293.037,-0.842051
44.8317,293.054,-0.842123
44.8333,293.07,-0.842197
44.835,293.087,-0.842275
44.8367,293.104,-0.842354
44.8383,293.121,-0.842434
44.84,293.137,-0.842499
44.8417,293.154,-0.842551
44.8433,293.171,-0.842589
44.845,293.187,-0.842628
44.8467,293.204,-0.842663
44.8483,293.22,-0.842693
44.85,293.237,-0.842721
44.8517,293.253,-0.842751
44.8533,293.27,-0.842784
44.855,293.287,-0.842822
44.8567,293.304,-0.842865
44.8583,293.32,-0.842906
44.86,293.337,-0.842959
44.8617,293.353,-0.843018
44.8633,293.37,-0.843076
44.865,293.386,-0.843134
44.8667,293.403,-0.843194
44.8683,293.42,-0.843266
44.87,293.437,-0.84334
44.8717,293.454,-0.843404
44.8733,293.47,-0.843467
44.875,293.487,-0.843529
44.8767,293.504,-0.843592
44.8783,293.52,-0.843663
44.88,293.537,-0.843729
44.8817,293.553,-0.843791
44.8833,293.57,-0.843847
44.885,293.587,-0.843902
44.8867,293.603,-0.843953
44.8883,293.62,-0.844005
44.89,293.637,-0.844062
44.8917,293.653,-0.844112
44.8933,293.67,-0.844156
44.895,293.687,-0.844206
44.8967,293.703,-0.844253
44.8983,293.72,-0.844298
44.9,293.736,-0.844346
44.9017,293.753,-0.8444
44.9033,293.77,-0.844451
44.905,293.786,-0.844517
44.9067,293.803,-0.844578
44.9083,293.82,-0.844645
44.91,293.837,-0.844704
44.9117,293.854,-0.844752
44.9133,293.87,-0.8448
44.915,293.887,-0.844846
44.9167,293.903,-0.84489
44.9183,293.92,-0.844932
44.92,293.936,-0.84497
44.9217,293.953,-0.845008
44.9233,293.97,-0.845057
44.925,293.986,-0.845111
44.9267,294.003,-0.845168
44.9283,294.02,-0.845235
44.93,294.036,-0.845312
44.9317,294.053,-0.845387
44.9333,294.07,-0.845468
44.935,294.087,-0.845552
44.9367,294.103,-0.845633
44.9383,294.12,-0.845708
44.94,294.136,-0.845775
44.9417,294.153,-0.845833
44.9433,294.17,-0.845879
44.945,294.186,-0.845924
44.9467,294.203,-0.845966
44.9483,294.22,-0.846
44.95,294.236,-0.84603
44.9517,294.253,-0.846057
44.9533,294.269,-0.846094
44.955,294.286,-0.84613
44.9567,294.303,-0.846173
44.9583,294.32,-0.846228
44.96,294.336,-0.846284
44.9617,294.353,-0.846352
44.9633,294.37,-0.846426
44.965,294.387,-0.846501
44.9667,294.403,-0.846573
44.9683,294.42,-0.846646
44.97,294.436,-0.846721
44.9717,294.453,-0.846799
44.9733,294.469,-0.846868
44.975,294.486,-0.846916
44.9767,294.503,-0.846952
44.9783,294.52,-0.846982
44.98,294.536,-0.847008
44.9817,294.553,-0.847036
44.9833,294.569,-0.847069
44.985,294.586,-0.847101
44.9867,294.602,-0.847136
44.9883,294.619,-0.847169
44.99,294.636,-0.847208
44.9917,294.653,-0.847258
44.9933,294.669,-0.847296
44.995,294.686,-0.847329
44.9967,294.703,-0.847369
44.9983,294.719,-0.847419
45,294.736,-0.847477
45.0017,294.753,-0.847547
45.0033,294.769,-0.847618
45.005,294.786,-0.84771
45.0067,294.802,-0.847818
45.0083,294.819,-0.847896
45.01,294.836,-0.847976
45.0117,294.853,-0.848057
45.0133,294.869,-0.848135
45.015,294.886,-0.848203
45.0167,294.903,-0.848268
45.0183,294.92,-0.848347
45.02,294.937,-0.848423
45.0217,294.953,-0.848484
45.0233,294.97,-0.848539
45.025,294.986,-0.848594
45.0267,295.003,-0.848635
45.0283,295.019,-0.848672
45.03,295.036,-0.848701
45.0317,295.053,-0.848728
45.0333,295.069,-0.848761
45.035,295.086,-0.8488
45.0367,295.103,-0.848848
45.0383,295.119,-0.848886
45.04,295.137,-0.848925
45.0417,295.153,-0.848969
45.0433,295.17,-0.849017
45.045,295.186,-0.849077
45.0467,295.203,-0.849136
45.0483,295.219,-0.849196
45.05,295.236,-0.849262
45.0517,295.253,-0.849325
45.0533,295.269,-0.849388
45.055,295.286,-0.849447
45.0567,295.302,-0.849505
45.0583,295.319,-0.849563
45.06,295.336,-0.849617
45.0617,295.352,-0.849671
45.0633,295.369,-0.849719
45.065,295.385,-0.849766
45.0667,295.402,-0.849821
45.0683,295.419,-0.849883
45.07,295.436,-0.849946
45.0717,295.452,-0.850013
45.0733,295.469,-0.850077
45.075,295.486,-0.850135
45.0767,295.502,-0.850179
45.0783,295.519,-0.850212
45.08,295.536,-0.850233
45.0817,295.552,-0.850247
45.0833,295.569,-0.850266
45.085,295.586,-0.850292
45.0867,295.602,-0.850323
45.0883,295.619,-0.850363
45.09,295.635,-0.850417
45.0917,295.652,-0.850487
45.0933,295.669,-0.850561
45.095,295.685,-0.850645
45.0967,295.702,-0.850751
45.0983,295.719,-0.850825
45.1,295.736,-0.850892
45.1017,295.752,-0.850951
45.1033,295.769,-0.851005
45.105,295.786,-0.851057
45.1067,295.803,-0.851107
45.1083,295.819,-0.851152
45.11,295.836,-0.851194
45.1117,295.852,-0.851238
45.1133,295.869,-0.851278
45.115,295.885,-0.851321
45.1167,295.902,-0.851361
45.1183,295.918,-0.8514
45.12,295.935,-0.851445
45.1217,295.952,-0.851495
45.1233,295.969,-0.851549
45.125,295.986,-0.851611
45.1267,296.002,-0.851679
45.1283,296.019,-0.851745
45.13,296.036,-0.851815
45.1317,296.052,-0.851876
45.1333,296.069,-0.851931
45.135,296.085,-0.851986
45.1367,296.101,-0.852031
45.1383,296.118,-0.852065
45.14,296.135,-0.852095
45.1417,296.152,-0.852122
45.1433,296.168,-0.852151
45.145,296.185,-0.852187
45.1467,296.201,-0.852231
45.1483,296.218,-0.852274
45.15,296.235,-0.852323
45.1517,296.252,-0.852377
45.1533,296.268,-0.852443
45.155,296.285,-0.852518
45.1567,296.301,-0.852588
45.1583,296.318,-0.852657
45.16,296.335,-0.85273
45.1617,296.352,-0.852802
45.1633,296.368,-0.852864
45.165,296.384,-0.852913
45.1667,296.401,-0.85296
45.1683,296.418,-0.853009
45.17,296.435,-0.853054
45.1717,296.451,-0.853099
45.1733,296.468,-0.853143
45.175,296.485,-0.853176
45.1767,296.502,-0.853216
45.1783,296.518,-0.853259
45.18,296.535,-0.853301
45.1817,296.551,-0.85334
45.1833,296.568,-0.853372
45.185,296.584,-0.853401
45.1867,296.601,-0.85344
45.1883,296.618,-0.853476
45.19,296.634,-0.853515
45.1917,296.651,-0.85356
45.1933,296.668,-0.853601
45.195,296.685,-0.853651
45.1967,296.702,-0.853708
45.1983,296.718,-0.853768
45.2,296.735,-0.853831
45.2017,296.751,-0.853901
45.2033,296.768,-0.853956
45.205,296.784,-0.854001
45.2067,296.801,-0.854036
45.2083,296.817,-0.854075
45.21,296.834,-0.854108
45.2117,296.851,-0.854142
45.2133,296.868,-0.854179
45.215,296.884,-0.854225
45.2167,296.901,-0.854275
45.2183,296.917,-0.854332
45.22,296.934,-0.85439
45.2217,296.951,-0.854453
45.2233,296.968,-0.854519
45.225,296.984,-0.854578
45.2267,297.001,-0.854639
45.2283,297.018,-0.854696
45.23,297.034,-0.854757
45.2317,297.051,-0.854816
45.2333,297.068,-0.854872
45.235,297.085,-0.854928
45.2367,297.102,-0.854993
45.2383,297.118,-0.855051
45.24,297.134,-0.855107
45.2417,297.151,-0.855166
45.2433,297.168,-0.855211
45.245,297.184,-0.85524
45.2467,297.201,-0.855274
45.2483,297.217,-0.855298
45.25,297.234,-0.855314
45.2517,297.25,-0.855329
45.2533,297.267,-0.855349
45.255,297.284,-0.855375
45.2567,297.301,-0.855411
45.2583,297.317,-0.855454
45.26,297.334,-0.855498
45.2617,297.351,-0.855543
45.2633,297.368,-0.855591
45.265,297.384,-0.855634
45.2667,297.401,-0.85569
45.2683,297.417,-0.855748
45.27,297.434,-0.855809
45.2717,297.451,-0.855868
45.2733,297.467,-0.855929
45.275,297.484,-0.855999
45.2767,297.501,-0.85607
45.2783,297.517,-0.856146
45.28,297.534,-0.856213
45.2817,297.551,-0.85627
45.2833,297.567,-0.856317
45.285,297.584,-0.856374
45.2867,297.6,-0.85643
45.2883,297.617,-0.856487
45.29,297.634,-0.856542
45.2917,297.65,-0.856591
45.2933,297.667,-0.856645
45.295,297.684,-0.856693
45.2967,297.701,-0.856741
45.2983,297.717,-0.856788
45.3,297.734,-0.856833
45.3017,297.751,-0.856878
45.3033,297.767,-0.856923
45.305,297.784,-0.856972
45.3067,297.801,-0.85702
45.3083,297.818,-0.857072
45.31,297.834,-0.857128
45.3117,297.851,-0.857183
45.3133,297.867,-0.857243
45.315,297.884,-0.857304
45.3167,297.901,-0.857362
45.3183,297.917,-0.857426
45.32,297.934,-0.857484
45.3217,297.95,-0.857538
45.3233,297.967,-0.857586
45.325,297.984,-0.857625
45.3267,298,-0.857657
45.3283,298.017,-0.857691
45.33,298.034,-0.857717
45.3317,298.051,-0.85775
45.3333,298.067,-0.857781
45.335,298.084,-0.857824
45.3367,298.1,-0.857874
45.3383,298.117,-0.857921
45.34,298.133,-0.857974
45.3417,298.15,-0.858031
45.3433,298.167,-0.858089
45.345,298.184,-0.858147
45.3467,298.2,-0.858211
45.3483,298.217,-0.85827
45.35,298.233,-0.85833
45.3517,298.25,-0.858389
45.3533,298.267,-0.858453
45.355,298.283,-0.858515
45.3567,298.3,-0.85857
45.3583,298.317,-0.858626
45.36,298.334,-0.858677
45.3617,298.35,-0.858735
45.3633,298.367,-0.858786
45.365,298.383,-0.858832
45.3667,298.4,-0.858879
45.3683,298.417,-0.858925
45.37,298.433,-0.85897
45.3717,298.45,-0.859016
45.3733,298.466,-0.859064
45.375,298.483,-0.859116
45.3767,298.5,-0.859167
45.3783,298.517,-0.859218
45.38,298.533,-0.859258
45.3817,298.55,-0.859299
45.3833,298.567,-0.859337
45.385,298.583,-0.859371
45.3867,298.6,-0.859407
45.3883,298.617,-0.859447
45.39,298.633,-0.859484
45.3917,298.65,-0.859529
45.3933,298.666,-0.85958
45.395,298.683,-0.859638
45.3967,298.7,-0.859693
45.3983,298.716,-0.859748
45.4,298.733,-0.859805
45.4017,298.749,-0.859865
45.4033,298.766,-0.85993
45.405,298.783,-0.860002
45.4067,298.799,-0.860074
45.4083,298.816,-0.860143
45.41,298.833,-0.860208
45.4117,298.849,-0.860275
45.4133,298.866,-0.860335
45.415,298.883,-0.860387
45.4167,298.9,-0.860439
45.4183,298.916,-0.860488
45.42,298.933,-0.860544
45.4217,298.949,-0.860606
45.4233,298.966,-0.86067
45.425,298.983,-0.860734
45.4267,299,-0.860796
45.4283,299.016,-0.86085
45.43,299.033,-0.860896
45.4317,299.05,-0.860938
45.4333,299.066,-0.86098
45.435,299.083,-0.86102
45.4367,299.1,-0.861051
45.4383,299.116,-0.86107
45.44,299.133,-0.861083
45.4417,299.149,-0.861097
45.4433,299.166,-0.861108
45.445,299.183,-0.861119
45.4467,299.199,-0.861139
45.4483,299.216,-0.861165
45.45,299.233,-0.861194
45.4517,299.25,-0.861235
45.4533,299.266,-0.86129
45.455,299.283,-0.861347
45.4567,299.299,-0.861396
45.4583,299.316,-0.861443
45.46,299.333,-0.861495
45.4617,299.35,-0.86155
45.4633,299.366,-0.861601
45.465,299.382,-0.861645
45.4667,299.399,-0.861691
45.4683,299.416,-0.861739
45.47,299.433,-0.861796
45.4717,299.449,-0.861855
45.4733,299.466,-0.861914
45.475,299.482,-0.861967
45.4767,299.499,-0.862031
45.4783,299.516,-0.862101
45.48,299.533,-0.862173
45.4817,299.549,-0.862247
45.4833,299.565,-0.862314
45.485,299.582,-0.862367
45.4867,299.599,-0.862413
45.4883,299.616,-0.862454
45.49,299.632,-0.862495
45.4917,299.649,-0.862538
45.4933,299.666,-0.862581
45.495,299.682,-0.862624
45.4967,299.699,-0.862668
45.4983,299.716,-0.862705
45.5,299.733,-0.862737
45.5017,299.749,-0.862765
45.5033,299.766,-0.862788
45.505,299.782,-0.862813
45.5067,299.799,-0.862831
45.5083,299.815,-0.862859
45.51,299.832,-0.862896
45.5117,299.849,-0.862938
45.5133,299.866,-0.862977
45.515,299.883,-0.863023
45.5167,299.899,-0.863071
45.5183,299.915,-0.863119
45.52,299.932,-0.86317
45.5217,299.949,-0.863219
45.5233,299.966,-0.863267
45.525,299.983,-0.863332
45.5267,299.999,-0.863411
45.5283,300.016,-0.863516
45.53,300.032,-0.863624
45.5317,300.049,-0.863765
45.5333,300.066,-0.863931
45.535,300.082,-0.864064
45.5367,300.099,-0.864139
45.5383,300.116,-0.864205
45.54,300.132,-0.864262
45.5417,300.148,-0.864313
45.5433,300.165,-0.864362
45.545,300.182,-0.864409
45.5467,300.199,-0.864455
45.5483,300.215,-0.864501
45.55,300.232,-0.864548
45.5517,300.249,-0.864594
45.5533,300.266,-0.864637
45.555,300.283,-0.864675
45.5567,300.299,-0.864709
45.5583,300.316,-0.864735
45.56,300.332,-0.864756
45.5617,300.349,-0.864782
45.5633,300.365,-0.86481
45.565,300.382,-0.864845
45.5667,300.398,-0.864889
45.5683,300.415,-0.864952
45.57,300.432,-0.865022
45.5717,300.449,-0.865094
45.5733,300.466,-0.865165
45.575,300.482,-0.865224
45.5767,300.499,-0.865274
45.5783,300.515,-0.865317
45.58,300.532,-0.865354
45.5817,300.549,-0.865393
45.5833,300.565,-0.865431
45.585,300.582,-0.865466
45.5867,300.599,-0.865502
45.5883,300.615,-0.865536
45.59,300.632,-0.865579
45.5917,300.649,-0.865628
45.5933,300.665,-0.865684
45.595,300.681,-0.865732
45.5967,300.699,-0.865785
45.5983,300.715,-0.865844
45.6,300.732,-0.865904
45.6017,300.748,-0.865966
45.6033,300.765,-0.866029
45.605,300.781,-0.866095
45.6067,300.798,-0.866159
45.6083,300.815,-0.866223
45.61,300.831,-0.866289
45.6117,300.848,-0.866347
45.6133,300.865,-0.866401
45.615,300.881,-0.866445
45.6167,300.898,-0.866487
45.6183,300.914,-0.86653
45.62,300.931,-0.866571
45.6217,300.948,-0.866602
45.6233,300.965,-0.866631
45.625,300.981,-0.866651
45.6267,300.998,-0.866665
45.6283,301.015,-0.866685
45.63,301.031,-0.866711
45.6317,301.048,-0.866737
45.6333,301.065,-0.866764
45.635,301.081,-0.866802
45.6367,301.098,-0.86685
45.6383,301.115,-0.86691
45.64,301.131,-0.866969
45.6417,301.148,-0.867029
45.6433,301.164,-0.867089
45.645,301.181,-0.867149
45.6467,301.198,-0.867202
45.6483,301.215,-0.867255
45.65,301.231,-0.86731
45.6517,301.248,-0.867359
45.6533,301.265,-0.867409
45.655,301.281,-0.867456
45.6567,301.298,-0.86751
45.6583,301.314,-0.867551
45.66,301.331,-0.867589
45.6617,301.348,-0.867635
45.6633,301.364,-0.867682
45.665,301.382,-0.86773
45.6667,301.398,-0.867771
45.6683,301.415,-0.86781
45.67,301.431,-0.867849
45.6717,301.448,-0.867882
45.6733,301.465,-0.86791
45.675,301.481,-0.867944
45.6767,301.498,-0.867975
45.6783,301.514,-0.868009
45.68,301.531,-0.868055
45.6817,301.547,-0.868107
45.6833,301.564,-0.868169
45.685,301.581,-0.868227
45.6867,301.597,-0.868277
45.6883,301.614,-0.868324
45.69,301.631,-0.868376
45.6917,301.647,-0.868423
45.6933,301.664,-0.86847
45.695,301.681,-0.868518
45.6967,301.697,-0.86857
45.6983,301.714,-0.868618
45.7,301.731,-0.86866
45.7017,301.747,-0.868708
45.7033,301.764,-0.868756
45.705,301.781,-0.86881
45.7067,301.798,-0.868868
45.7083,301.814,-0.868924
45.71,301.831,-0.868976
45.7117,301.847,-0.869027
45.7133,301.864,-0.869073
45.715,301.881,-0.869115
45.7167,301.897,-0.869161
45.7183,301.914,-0.8692
45.72,301.93,-0.869235
45.7217,301.947,-0.869261
45.7233,301.964,-0.869294
45.725,301.98,-0.869334
45.7267,301.997,-0.869377
45.7283,302.014,-0.869415
45.73,302.031,-0.869456
45.7317,302.047,-0.869496
45.7333,302.064,-0.86953
45.735,302.081,-0.869566
45.7367,302.097,-0.8696
45.7383,302.113,-0.869625
45.74,302.13,-0.869644
45.7417,302.147,-0.869666
45.7433,302.163,-0.869685
45.745,302.18,-0.86971
45.7467,302.197,-0.869741
45.7483,302.213,-0.869774
45.75,302.23,-0.869811
45.7517,302.247,-0.869856
45.7533,302.264,-0.869902
45.755,302.28,-0.869961
45.7567,302.297,-0.870018
45.7583,302.313,-0.87007
45.76,302.329,-0.870117
45.7617,302.346,-0.870156
45.7633,302.363,-0.870192
45.765,302.38,-0.870228
45.7667,302.396,-0.87027
45.7683,302.413,-0.870309
45.77,302.43,-0.870343
45.7717,302.446,-0.870378
45.7733,302.463,-0.870426
45.775,302.479,-0.870466
45.7767,302.496,-0.870505
45.7783,302.512,-0.870537
45.78,302.529,-0.870569
45.7817,302.546,-0.870599
45.7833,302.562,-0.870622
45.785,302.579,-0.870654
45.7867,302.596,-0.870679
45.7883,302.612,-0.870701
45.79,302.629,-0.870727
45.7917,302.645,-0.870757
45.7933,302.662,-0.870801
45.795,302.679,-0.870854
45.7967,302.696,-0.870917
45.7983,302.712,-0.870982
45.8,302.729,-0.871072
45.8017,302.745,-0.87114
45.8033,302.762,-0.871255
45.805,302.779,-0.871328
45.8067,302.795,-0.871385
45.8083,302.812,-0.871434
45.81,302.829,-0.871479
45.8117,302.846,-0.871516
45.8133,302.862,-0.871541
45.815,302.879,-0.871568
45.8167,302.896,-0.8716
45.8183,302.912,-0.871638
45.82,302.929,-0.871686
45.8217,302.946,-0.871734
45.8233,302.963,-0.871793
45.825,302.979,-0.871844
45.8267,302.995,-0.871894
45.8283,303.012,-0.871951
45.83,303.029,-0.87201
45.8317,303.046,-0.872054
45.8333,303.062,-0.872095
45.835,303.079,-0.872134
45.8367,303.096,-0.872173
45.8383,303.112,-0.872209
45.84,303.129,-0.872242
45.8417,303.146,-0.872276
45.8433,303.162,-0.872317
45.845,303.179,-0.872367
45.8467,303.196,-0.872422
45.8483,303.212,-0.872471
45.85,303.229,-0.872517
45.8517,303.246,-0.87257
45.8533,303.262,-0.872621
45.855,303.279,-0.872674
45.8567,303.296,-0.87272
45.8583,303.312,-0.87276
45.86,303.329,-0.872802
45.8617,303.345,-0.87284
45.8633,303.362,-0.872878
45.865,303.378,-0.872911
45.8667,303.395,-0.872938
45.8683,303.412,-0.872974
45.87,303.428,-0.873017
45.8717,303.445,-0.873053
45.8733,303.462,-0.873086
45.875,303.478,-0.873121
45.8767,303.495,-0.873151
45.8783,303.512,-0.873188
45.88,303.528,-0.873236
45.8817,303.545,-0.873289
45.8833,303.562,-0.873346
45.885,303.579,-0.873414
45.8867,303.595,-0.873505
45.8883,303.612,-0.873576
45.89,303.629,-0.873643
45.8917,303.645,-0.87371
45.8933,303.662,-0.873776
45.895,303.678,-0.873834
45.8967,303.695,-0.87389
45.8983,303.712,-0.873945
45.9,303.728,-0.874008
45.9017,303.745,-0.874066
45.9033,303.762,-0.874133
45.905,303.778,-0.874198
45.9067,303.795,-0.874257
45.9083,303.811,-0.874314
45.91,303.828,-0.874362
45.9117,303.845,-0.874403
45.9133,303.862,-0.874438
45.915,303.878,-0.874468
45.9167,303.895,-0.874492
45.9183,303.911,-0.87452
45.92,303.928,-0.874552
45.9217,303.945,-0.874591
45.9233,303.961,-0.874621
45.925,303.978,-0.874651
45.9267,303.994,-0.87469
45.9283,304.011,-0.87473
45.93,304.028,-0.874774
45.9317,304.044,-0.874827
45.9333,304.061,-0.874882
45.935,304.078,-0.874936
45.9367,304.094,-0.874986
45.9383,304.111,-0.875036
45.94,304.128,-0.875086
45.9417,304.145,-0.875127
45.9433,304.161,-0.875176
45.945,304.178,-0.875223
45.9467,304.194,-0.875271
45.9483,304.211,-0.875315
45.95,304.228,-0.875364
45.9517,304.244,-0.875414
45.9533,304.26,-0.875466
45.955,304.277,-0.875514
45.9567,304.294,-0.875563
45.9583,304.31,-0.875603
45.96,304.327,-0.875633
45.9617,304.344,-0.875666
45.9633,304.36,-0.875698
45.965,304.377,-0.875738
45.9667,304.394,-0.875779
45.9683,304.411,-0.875821
45.97,304.427,-0.875866
45.9717,304.444,-0.875921
45.9733,304.46,-0.875976
45.975,304.477,-0.876019
45.9767,304.493,-0.876058
45.9783,304.51,-0.876106
45.98,304.527,-0.876152
45.9817,304.543,-0.876198
45.9833,304.56,-0.876242
45.985,304.577,-0.876276
45.9867,304.593,-0.87631
45.9883,304.61,-0.876352
45.99,304.627,-0.876401
45.9917,304.644,-0.876459
45.9933,304.66,-0.876509
45.995,304.677,-0.876571
45.9967,304.694,-0.876641
45.9983,304.71,-0.876706
46,304.727,-0.876769
46.0017,304.744,-0.876836
46.0033,304.76,-0.876889
46.005,304.777,-0.876943
46.0067,304.793,-0.876993
46.0083,304.81,-0.87703
46.01,304.827,-0.877064
46.0117,304.843,-0.877096
46.0133,304.86,-0.877124
46.015,304.877,-0.877157
46.0167,304.893,-0.877188
46.0183,304.91,-0.877218
46.02,304.927,-0.877248
46.0217,304.943,-0.877282
46.0233,304.96,-0.877316
46.025,304.977,-0.877349
46.0267,304.993,-0.877387
46.0283,305.01,-0.877438
46.03,305.027,-0.8775
46.0317,305.043,-0.877556
46.0333,305.06,-0.877614
46.035,305.077,-0.877682
46.0367,305.093,-0.87775
46.0383,305.11,-0.877818
46.04,305.127,-0.877889
46.0417,305.143,-0.877963
46.0433,305.16,-0.878038
46.045,305.177,-0.878103
46.0467,305.194,-0.878156
46.0483,305.21,-0.878217
46.05,305.227,-0.878277
46.0517,305.243,-0.878325
46.0533,305.26,-0.87837
46.055,305.276,-0.878411
46.0567,305.293,-0.878448
46.0583,305.31,-0.878482
46.06,305.326,-0.878524
46.0617,305.343,-0.878567
46.0633,305.36,-0.878605
46.065,305.376,-0.878636
46.0667,305.393,-0.878666
46.0683,305.41,-0.878698
46.07,305.426,-0.878732
46.0717,305.443,-0.878764
46.0733,305.46,-0.878798
46.075,305.476,-0.878834
46.0767,305.493,-0.878872
46.0783,305.509,-0.878906
46.08,305.526,-0.87895
46.0817,305.542,-0.879008
46.0833,305.559,-0.879066
46.085,305.576,-0.879126
46.0867,305.593,-0.879187
46.0883,305.609,-0.879246
46.09,305.626,-0.879301
46.0917,305.643,-0.879351
46.0933,305.659,-0.879394
46.095,305.676,-0.879426
46.0967,305.692,-0.879452
46.0983,305.709,-0.879476
46.1,305.726,-0.879503
46.1017,305.743,-0.87953
46.1033,305.759,-0.879564
46.105,305.776,-0.879599
46.1067,305.792,-0.879644
46.1083,305.809,-0.879697
46.11,305.826,-0.879756
46.1117,305.842,-0.879817
46.1133,305.859,-0.879875
46.115,305.876,-0.879938
46.1167,305.893,-0.879995
46.1183,305.909,-0.880047
46.12,305.926,-0.880101
46.1217,305.943,-0.880152
46.1233,305.959,-0.880207
46.125,305.976,-0.880267
46.1267,305.993,-0.880327
46.1283,306.009,-0.88039
46.13,306.026,-0.880448
46.1317,306.043,-0.880504
46.1333,306.059,-0.880554
46.135,306.076,-0.880602
46.1367,306.093,-0.880654
46.1383,306.109,-0.880706
46.14,306.126,-0.880745
46.1417,306.143,-0.880769
46.1433,306.159,-0.880804
46.145,306.176,-0.880838
46.1467,306.192,-0.880881
46.1483,306.209,-0.880926
46.15,306.226,-0.880963
46.1517,306.242,-0.881005
46.1533,306.259,-0.88105
46.155,306.276,-0.881103
46.1567,306.293,-0.881158
46.1583,306.309,-0.881215
46.16,306.326,-0.88127
46.1617,306.342,-0.881322
46.1633,306.359,-0.881381
46.165,306.376,-0.881447
46.1667,306.393,-0.881516
46.1683,306.409,-0.881586
46.17,306.426,-0.881657
46.1717,306.443,-0.881724
46.1733,306.459,-0.881777
46.175,306.476,-0.881819
46.1767,306.493,-0.881861
46.1783,306.509,-0.881906
46.18,306.526,-0.881956
46.1817,306.543,-0.882004
46.1833,306.559,-0.882054
46.185,306.576,-0.882101
46.1867,306.593,-0.882145
46.1883,306.609,-0.882188
46.19,306.626,-0.882239
46.1917,306.643,-0.882288
46.1933,306.659,-0.882332
46.195,306.676,-0.882382
46.1967,306.692,-0.882428
46.1983,306.709,-0.882496
46.2,306.726,-0.882564
46.2017,306.742,-0.882627
46.2033,306.759,-0.882684
46.205,306.776,-0.882737
46.2067,306.792,-0.882791
46.2083,306.809,-0.882844
46.21,306.826,-0.882891
46.2117,306.842,-0.882939
46.2133,306.859,-0.882995
46.215,306.875,-0.883053
46.2167,306.892,-0.883114
46.2183,306.908,-0.883174
46.22,306.925,-0.883222
46.2217,306.942,-0.883263
46.2233,306.958,-0.883304
46.225,306.975,-0.883342
46.2267,306.992,-0.883376
46.2283,307.009,-0.883415
46.23,307.025,-0.883464
46.2317,307.042,-0.883514
46.2333,307.059,-0.883565
46.235,307.075,-0.883615
46.2367,307.092,-0.883668
46.2383,307.109,-0.883717
46.24,307.125,-0.883762
46.2417,307.142,-0.883804
46.2433,307.159,-0.883842
46.245,307.175,-0.883875
46.2467,307.192,-0.883902
46.2483,307.208,-0.883937
46.25,307.225,-0.883973
46.2517,307.242,-0.884015
46.2533,307.259,-0.884053
46.255,307.275,-0.884093
46.2567,307.292,-0.884132
46.2583,307.309,-0.884181
46.26,307.325,-0.884231
46.2617,307.342,-0.884288
46.2633,307.359,-0.884343
46.265,307.375,-0.884402
46.2667,307.392,-0.884454
46.2683,307.409,-0.884511
46.27,307.425,-0.884566
46.2717,307.442,-0.884628
46.2733,307.458,-0.884693
46.275,307.475,-0.884748
46.2767,307.492,-0.884803
46.2783,307.508,-0.884859
46.28,307.525,-0.88492
46.2817,307.542,-0.884976
46.2833,307.559,-0.885022
46.285,307.575,-0.885063
46.2867,307.592,-0.885108
46.2883,307.609,-0.885147
46.29,307.625,-0.885194
46.2917,307.642,-0.885244
46.2933,307.659,-0.8853
46.295,307.675,-0.885357
46.2967,307.692,-0.885414
46.2983,307.709,-0.88547
46.3,307.725,-0.885524
46.3017,307.742,-0.885579
46.3033,307.759,-0.885633
46.305,307.775,-0.885687
46.3067,307.792,-0.88574
46.3083,307.809,-0.885795
46.31,307.825,-0.885845
46.3117,307.842,-0.885893
46.3133,307.858,-0.885949
46.315,307.875,-0.886007
46.3167,307.892,-0.886059
46.3183,307.908,-0.886111
46.32,307.925,-0.886163
46.3217,307.942,-0.886219
46.3233,307.958,-0.886268
46.325,307.975,-0.886307
46.3267,307.992,-0.886349
46.3283,308.008,-0.886388
46.33,308.025,-0.886435
46.3317,308.042,-0.886481
46.3333,308.059,-0.886524
46.335,308.075,-0.886567
46.3367,308.092,-0.886615
46.3383,308.109,-0.886666
46.34,308.125,-0.886725
46.3417,308.142,-0.886793
46.3433,308.159,-0.886855
46.345,308.175,-0.886914
46.3467,308.192,-0.88697
46.3483,308.208,-0.887029
46.35,308.225,-0.887095
46.3517,308.242,-0.887157
46.3533,308.259,-0.887212
46.355,308.275,-0.887268
46.3567,308.292,-0.887322
46.3583,308.309,-0.887372
46.36,308.325,-0.887428
46.3617,308.342,-0.887482
46.3633,308.358,-0.887533
46.365,308.375,-0.887576
46.3667,308.392,-0.887619
46.3683,308.409,-0.887657
46.37,308.425,-0.887699
46.3717,308.442,-0.887741
46.3733,308.459,-0.887785
46.375,308.475,-0.887832
46.3767,308.492,-0.887879
46.3783,308.508,-0.887927
46.38,308.525,-0.88798
46.3817,308.542,-0.888037
46.3833,308.558,-0.888093
46.385,308.575,-0.888148
46.3867,308.592,-0.888201
46.3883,308.608,-0.88826
46.39,308.625,-0.888314
46.3917,308.642,-0.888371
46.3933,308.658,-0.888428
46.395,308.675,-0.888484
46.3967,308.691,-0.888536
46.3983,308.708,-0.888586
46.4,308.725,-0.888638
46.4017,308.741,-0.888686
46.4033,308.758,-0.888732
46.405,308.775,-0.888772
46.4067,308.792,-0.888808
46.4083,308.808,-0.888847
46.41,308.825,-0.888893
46.4117,308.842,-0.888936
46.4133,308.858,-0.888977
46.415,308.875,-0.88902
46.4167,308.892,-0.889066
46.4183,308.908,-0.889113
46.42,308.925,-0.889157
46.4217,308.942,-0.8892
46.4233,308.958,-0.88924
46.425,308.975,-0.889288
46.4267,308.992,-0.889333
46.4283,309.008,-0.889389
46.43,309.025,-0.88945
46.4317,309.042,-0.889516
46.4333,309.058,-0.889582
46.435,309.075,-0.889647
46.4367,309.092,-0.889717
46.4383,309.108,-0.889788
46.44,309.125,-0.889853
46.4417,309.141,-0.889908
46.4433,309.158,-0.88995
46.445,309.175,-0.889991
46.4467,309.191,-0.890024
46.4483,309.208,-0.890053
46.45,309.225,-0.890073
46.4517,309.241,-0.890089
46.4533,309.258,-0.890112
46.455,309.275,-0.890136
46.4567,309.291,-0.890163
46.4583,309.308,-0.890198
46.46,309.325,-0.89025
46.4617,309.341,-0.890319
46.4633,309.358,-0.890423
46.465,309.375,-0.890539
46.4667,309.391,-0.890651
46.4683,309.408,-0.890765
46.47,309.425,-0.890842
46.4717,309.441,-0.890915
46.4733,309.458,-0.890968
46.475,309.474,-0.891006
46.4767,309.491,-0.891033
46.4783,309.508,-0.891051
46.48,309.525,-0.891073
46.4817,309.541,-0.8911
46.4833,309.558,-0.891127
46.485,309.574,-0.89116
46.4867,309.591,-0.891207
46.4883,309.608,-0.891249
46.49,309.624,-0.891299
46.4917,309.641,-0.891346
46.4933,309.658,-0.891401
46.495,309.674,-0.891459
46.4967,309.691,-0.891517
46.4983,309.708,-0.891572
46.5,309.724,-0.891623
46.5017,309.741,-0.891672
46.5033,309.758,-0.891719
46.505,309.774,-0.891758
46.5067,309.791,-0.891791
46.5083,309.808,-0.891824
46.51,309.824,-0.891863
46.5117,309.841,-0.891904
46.5133,309.858,-0.891951
46.515,309.874,-0.891995
46.5167,309.891,-0.892039
46.5183,309.907,-0.892086
46.52,309.924,-0.89213
46.5217,309.941,-0.89218
46.5233,309.957,-0.892232
46.525,309.974,-0.892282
46.5267,309.991,-0.892334
46.5283,310.007,-0.89238
46.53,310.024,-0.892429
46.5317,310.041,-0.892487
46.5333,310.058,-0.892546
46.535,310.074,-0.892602
46.5367,310.091,-0.89266
46.5383,310.108,-0.892712
46.54,310.124,-0.892762
46.5417,310.141,-0.892808
46.5433,310.157,-0.892858
46.545,310.174,-0.892897
46.5467,310.191,-0.892932
46.5483,310.208,-0.892961
46.55,310.224,-0.892994
46.5517,310.241,-0.893027
46.5533,310.257,-0.893064
46.555,310.274,-0.8931
46.5567,310.291,-0.893132
46.5583,310.307,-0.893169
46.56,310.324,-0.893204
46.5617,310.34,-0.893238
46.5633,310.357,-0.893267
46.565,310.374,-0.893304
46.5667,310.39,-0.89335
46.5683,310.407,-0.893405
46.57,310.424,-0.893457
46.5717,310.44,-0.893517
46.5733,310.457,-0.893573
46.575,310.473,-0.893627
46.5767,310.49,-0.893688
46.5783,310.506,-0.893755
46.58,310.523,-0.893824
46.5817,310.539,-0.89389
46.5833,310.556,-0.893946
46.585,310.573,-0.893999
46.5867,310.59,-0.894052
46.5883,310.606,-0.89411
46.59,310.623,-0.894167
46.5917,310.639,-0.894231
46.5933,310.656,-0.894295
46.595,310.673,-0.894363
46.5967,310.69,-0.894424
46.5983,310.706,-0.894483
46.6,310.723,-0.894539
46.6017,310.739,-0.894582
46.6033,310.756,-0.894617
46.605,310.773,-0.894648
46.6067,310.789,-0.894671
46.6083,310.806,-0.894699
46.61,310.822,-0.894726
46.6117,310.839,-0.894762
46.6133,310.856,-0.89481
46.615,310.873,-0.894859
46.6167,310.889,-0.894908
46.6183,310.906,-0.894959
46.62,310.923,-0.895005
46.6217,310.939,-0.895052
46.6233,310.956,-0.895098
46.625,310.973,-0.895137
46.6267,310.989,-0.895171
46.6283,311.006,-0.895217
46.63,311.023,-0.895254
46.6317,311.04,-0.895292
46.6333,311.056,-0.895324
46.635,311.073,-0.895368
46.6367,311.089,-0.895413
46.6383,311.106,-0.895455
46.64,311.123,-0.895501
46.6417,311.139,-0.895542
46.6433,311.156,-0.895586
46.645,311.172,-0.895627
46.6467,311.189,-0.895671
46.6483,311.206,-0.895718
46.65,311.222,-0.895757
46.6517,311.239,-0.895804
46.6533,311.256,-0.895854
46.655,311.272,-0.895911
46.6567,311.289,-0.895972
46.6583,311.306,-0.896033
46.66,311.323,-0.896093
46.6617,311.339,-0.896161
46.6633,311.356,-0.896223
46.665,311.372,-0.896282
46.6667,311.389,-0.89634
46.6683,311.406,-0.896406
46.67,311.422,-0.89647
46.6717,311.439,-0.896531
46.6733,311.456,-0.896598
46.675,311.472,-0.896668
46.6767,311.489,-0.896742
46.6783,311.506,-0.896813
46.68,311.523,-0.896885
46.6817,311.539,-0.89695
46.6833,311.556,-0.897008
46.685,311.573,-0.897064
46.6867,311.59,-0.897112
46.6883,311.606,-0.897146
46.69,311.623,-0.897176
46.6917,311.64,-0.897196
46.6933,311.656,-0.89722
46.695,311.673,-0.897254
46.6967,311.689,-0.897295
46.6983,311.706,-0.897343
46.7,311.723,-0.89739
46.7017,311.739,-0.897443
46.7033,311.756,-0.897505
46.705,311.773,-0.897574
46.7067,311.789,-0.897649
46.7083,311.806,-0.897709
46.71,311.823,-0.897775
46.7117,311.839,-0.89784
46.7133,311.856,-0.897898
46.715,311.873,-0.897959
46.7167,311.889,-0.898027
46.7183,311.906,-0.898093
46.72,311.922,-0.89816
46.7217,311.939,-0.898226
46.7233,311.956,-0.898298
46.725,311.972,-0.898372
46.7267,311.989,-0.898447
46.7283,312.006,-0.898528
46.73,312.022,-0.898607
46.7317,312.039,-0.898676
46.7333,312.056,-0.898734
46.735,312.072,-0.898784
46.7367,312.089,-0.898843
46.7383,312.105,-0.898883
46.74,312.122,-0.898917
46.7417,312.139,-0.898956
46.7433,312.156,-0.898993
46.745,312.172,-0.899031
46.7467,312.189,-0.899074
46.7483,312.206,-0.899124
46.75,312.222,-0.899182
46.7517,312.239,-0.899237
46.7533,312.255,-0.899289
46.755,312.272,-0.89935
46.7567,312.289,-0.899419
46.7583,312.305,-0.899493
46.76,312.322,-0.899564
46.7617,312.338,-0.899626
46.7633,312.355,-0.899688
46.765,312.372,-0.899747
46.7667,312.388,-0.899805
46.7683,312.405,-0.899855
46.77,312.422,-0.899901
46.7717,312.439,-0.899946
46.7733,312.455,-0.899996
46.775,312.472,-0.900053
46.7767,312.488,-0.900117
46.7783,312.505,-0.900185
46.78,312.522,-0.900255
46.7817,312.538,-0.900319
46.7833,312.555,-0.900379
46.785,312.572,-0.900439
46.7867,312.588,-0.900498
46.7883,312.605,-0.900552
46.79,312.621,-0.900597
46.7917,312.638,-0.900636
46.7933,312.655,-0.900663
46.795,312.672,-0.900694
46.7967,312.688,-0.900727
46.7983,312.704,-0.900764
46.8,312.721,-0.900812
46.8017,312.738,-0.900859
46.8033,312.754,-0.900913
46.805,312.771,-0.900969
46.8067,312.788,-0.901034
46.8083,312.805,-0.901098
46.81,312.822,-0.901159
46.8117,312.838,-0.901214
46.8133,312.855,-0.901265
46.815,312.871,-0.901317
46.8167,312.888,-0.901372
46.8183,312.905,-0.901428
46.82,312.922,-0.90149
46.8217,312.938,-0.901546
46.8233,312.955,-0.901599
46.825,312.971,-0.901657
46.8267,312.988,-0.901716
46.8283,313.005,-0.901782
46.83,313.021,-0.901842
46.8317,313.038,-0.901905
46.8333,313.055,-0.901972
46.835,313.071,-0.902054
46.8367,313.088,-0.902138
46.8383,313.105,-0.902234
46.84,313.121,-0.902315
46.8417,313.138,-0.902388
46.8433,313.154,-0.902462
46.845,313.171,-0.902524
46.8467,313.188,-0.902576
46.8483,313.204,-0.902608
46.85,313.221,-0.90264
46.8517,313.238,-0.902678
46.8533,313.254,-0.902714
46.855,313.271,-0.902754
46.8567,313.288,-0.902801
46.8583,313.304,-0.902855
46.86,313.321,-0.902922
46.8617,313.337,-0.903002
46.8633,313.354,-0.903101
46.865,313.371,-0.903185
46.8667,313.388,-0.903297
46.8683,313.404,-0.903417
46.87,313.421,-0.903502
46.8717,313.437,-0.903586
46.8733,313.454,-0.903657
46.875,313.471,-0.90372
46.8767,313.487,-0.903777
46.8783,313.504,-0.903828
46.88,313.521,-0.903886
46.8817,313.537,-0.903934
46.8833,313.554,-0.903977
46.885,313.571,-0.904021
46.8867,313.587,-0.904074
46.8883,313.604,-0.904124
46.89,313.621,-0.904182
46.8917,313.637,-0.90424
46.8933,313.654,-0.904306
46.895,313.671,-0.904368
46.8967,313.687,-0.904433
46.8983,313.704,-0.904504
46.9,313.721,-0.904577
46.9017,313.737,-0.904652
46.9033,313.754,-0.904726
46.905,313.77,-0.904799
46.9067,313.787,-0.904865
46.9083,313.803,-0.904935
46.91,313.82,-0.905006
46.9117,313.837,-0.905069
46.9133,313.853,-0.90512
46.915,313.87,-0.905165
46.9167,313.887,-0.905214
46.9183,313.904,-0.905269
46.92,313.92,-0.905328
46.9217,313.937,-0.905381
46.9233,313.954,-0.905434
46.925,313.97,-0.905487
46.9267,313.987,-0.90554
46.9283,314.004,-0.905585
46.93,314.02,-0.905626
46.9317,314.037,-0.905673
46.9333,314.054,-0.905725
46.935,314.07,-0.905778
46.9367,314.087,-0.905843
46.9383,314.103,-0.905913
46.94,314.12,-0.90599
46.9417,314.136,-0.906073
46.9433,314.153,-0.906159
46.945,314.17,-0.906287
46.9467,314.186,-0.906394
46.9483,314.203,-0.90648
46.95,314.22,-0.906552
46.9517,314.236,-0.906619
46.9533,314.253,-0.906688
46.955,314.27,-0.906757
46.9567,314.286,-0.906833
46.9583,314.303,-0.906896
46.96,314.32,-0.90696
46.9617,314.336,-0.907033
46.9633,314.353,-0.907103
46.965,314.37,-0.907177
46.9667,314.387,-0.907249
46.9683,314.403,-0.907316
46.97,314.42,-0.907374
46.9717,314.436,-0.907429
46.9733,314.453,-0.907488
46.975,314.469,-0.907542
46.9767,314.486,-0.907592
46.9783,314.503,-0.907635
46.98,314.519,-0.907687
46.9817,314.536,-0.907743
46.9833,314.553,-0.907797
46.985,314.57,-0.907852
46.9867,314.586,-0.907915
46.9883,314.603,-0.907985
46.99,314.619,-0.908064
46.9917,314.636,-0.908142
46.9933,314.653,-0.908225
46.995,314.669,-0.908307
46.9967,314.686,-0.908384
46.9983,314.702,-0.908465
47,314.719,-0.908541
47.0017,314.736,-0.908611
47.0033,314.753,-0.908684
47.005,314.769,-0.908752
47.0067,314.786,-0.908822
47.0083,314.803,-0.90889
47.01,314.82,-0.908957
47.0117,314.836,-0.90903
47.0133,314.853,-0.909107
47.015,314.869,-0.909189
47.0167,314.886,-0.909277
47.0183,314.903,-0.909361
47.02,314.92,-0.909447
47.0217,314.937,-0.909524
47.0233,314.953,-0.909592
47.025,314.97,-0.909659
47.0267,314.986,-0.909723
47.0283,315.003,-0.909782
47.03,315.02,-0.909836
47.0317,315.036,-0.909884
47.0333,315.052,-0.909927
47.035,315.069,-0.909983
47.0367,315.086,-0.910049
47.0383,315.102,-0.910118
47.04,315.119,-0.910188
47.0417,315.135,-0.910256
47.0433,315.152,-0.910329
47.045,315.169,-0.910399
47.0467,315.186,-0.910467
47.0483,315.203,-0.910533
47.05,315.219,-0.910594
47.0517,315.236,-0.910657
47.0533,315.252,-0.910711
47.055,315.269,-0.910765
47.0567,315.286,-0.910828
47.0583,315.302,-0.910887
47.06,315.319,-0.910953
47.0617,315.335,-0.911025
47.0633,315.352,-0.911104
47.065,315.369,-0.911192
47.0667,315.385,-0.911296
47.0683,315.403,-0.911424
47.07,315.419,-0.911588
47.0717,315.435,-0.911722
47.0733,315.452,-0.911809
47.075,315.469,-0.911885
47.0767,315.486,-0.911942
47.0783,315.502,-0.911986
47.08,315.518,-0.912029
47.0817,315.535,-0.912067
47.0833,315.552,-0.912103
47.085,315.569,-0.912148
47.0867,315.585,-0.912204
47.0883,315.602,-0.912267
47.09,315.619,-0.912345
47.0917,315.635,-0.912422
47.0933,315.652,-0.912495
47.095,315.669,-0.912579
47.0967,315.685,-0.912667
47.0983,315.702,-0.912755
47.1,315.718,-0.912836
47.1017,315.735,-0.912917
47.1033,315.752,-0.912994
47.105,315.769,-0.913056
47.1067,315.785,-0.913112
47.1083,315.802,-0.913165
47.11,315.818,-0.913218
47.1117,315.835,-0.913264
47.1133,315.852,-0.913315
47.115,315.869,-0.913381
47.1167,315.885,-0.913455
47.1183,315.902,-0.913534
47.12,315.918,-0.913624
47.1217,315.935,-0.913772
47.1233,315.952,-0.913898
47.125,315.968,-0.91399
47.1267,315.985,-0.91408
47.1283,316.002,-0.914168
47.13,316.019,-0.914246
47.1317,316.035,-0.91432
47.1333,316.052,-0.914391
47.135,316.069,-0.914458
47.1367,316.085,-0.914522
47.1383,316.102,-0.914582
47.14,316.118,-0.914647
47.1417,316.135,-0.914717
47.1433,316.151,-0.91479
47.145,316.168,-0.914866
47.1467,316.185,-0.914946
47.1483,316.202,-0.915027
47.15,316.218,-0.915109
47.1517,316.235,-0.915189
47.1533,316.251,-0.915272
47.155,316.268,-0.915357
47.1567,316.285,-0.91544
47.1583,316.302,-0.915527
47.16,316.318,-0.915618
47.1617,316.335,-0.915701
47.1633,316.351,-0.915787
47.165,316.368,-0.915874
47.1667,316.385,-0.915954
47.1683,316.402,-0.916029
47.17,316.418,-0.916104
47.1717,316.435,-0.916185
47.1733,316.451,-0.916263
47.175,316.468,-0.916334
47.1767,316.485,-0.916404
47.1783,316.502,-0.916476
47.18,316.518,-0.916547
47.1817,316.534,-0.91661
47.1833,316.551,-0.916672
47.185,316.568,-0.916729
47.1867,316.584,-0.916788
47.1883,316.601,-0.916854
47.19,316.617,-0.916931
47.1917,316.634,-0.917014
47.1933,316.651,-0.917096
47.195,316.667,-0.917183
47.1967,316.684,-0.917318
47.1983,316.7,-0.917478
47.2,316.717,-0.917578
47.2017,316.734,-0.91767
47.2033,316.751,-0.917752
47.205,316.767,-0.917826
47.2067,316.784,-0.917895
47.2083,316.801,-0.917961
47.21,316.817,-0.918029
47.2117,316.834,-0.918097
47.2133,316.85,-0.918176
47.215,316.867,-0.918254
47.2167,316.884,-0.918334
47.2183,316.9,-0.91842
47.22,316.917,-0.918506
47.2217,316.934,-0.918591
47.2233,316.95,-0.918667
47.225,316.967,-0.918734
47.2267,316.984,-0.918797
47.2283,317,-0.918857
47.23,317.017,-0.918905
47.2317,317.034,-0.918959
47.2333,317.05,-0.919009
47.235,317.066,-0.919056
47.2367,317.083,-0.919111
47.2383,317.1,-0.919185
47.24,317.117,-0.919261
47.2417,317.133,-0.919344
47.2433,317.15,-0.919434
47.245,317.167,-0.919517
47.2467,317.184,-0.919607
47.2483,317.2,-0.91969
47.25,317.217,-0.919783
47.2517,317.234,-0.919874
47.2533,317.25,-0.919959
47.255,317.267,-0.920034
47.2567,317.283,-0.920106
47.2583,317.3,-0.920178
47.26,317.317,-0.920249
47.2617,317.334,-0.920324
47.2633,317.35,-0.920403
47.265,317.367,-0.920489
47.2667,317.383,-0.92058
47.2683,317.399,-0.920675
47.27,317.416,-0.920767
47.2717,317.433,-0.920856
47.2733,317.45,-0.920951
47.275,317.466,-0.921047
47.2767,317.483,-0.921185
47.2783,317.5,-0.9213
47.28,317.516,-0.921401
47.2817,317.533,-0.921497
47.2833,317.549,-0.921595
47.285,317.566,-0.92169
47.2867,317.583,-0.921778
47.2883,317.599,-0.921863
47.29,317.616,-0.921943
47.2917,317.633,-0.922027
47.2933,317.649,-0.922114
47.295,317.666,-0.922206
47.2967,317.683,-0.922289
47.2983,317.7,-0.922369
47.3,317.716,-0.922448
47.3017,317.733,-0.922528
47.3033,317.749,-0.922605
47.305,317.766,-0.922684
47.3067,317.782,-0.922763
47.3083,317.799,-0.92284
47.31,317.816,-0.922919
47.3117,317.832,-0.923
47.3133,317.849,-0.923089
47.315,317.865,-0.923181
47.3167,317.882,-0.923279
47.3183,317.899,-0.923376
47.32,317.916,-0.923474
47.3217,317.933,-0.92358
47.3233,317.949,-0.923681
47.325,317.966,-0.92378
47.3267,317.982,-0.923871
47.3283,317.999,-0.923949
47.33,318.015,-0.924027
47.3317,318.032,-0.924103
47.3333,318.049,-0.924182
47.335,318.065,-0.924262
47.3367,318.082,-0.924345
47.3383,318.099,-0.924425
47.34,318.116,-0.924504
47.3417,318.132,-0.92459
47.3433,318.149,-0.924677
47.345,318.165,-0.924767
47.3467,318.182,-0.924849
47.3483,318.198,-0.924936
47.35,318.215,-0.925025
47.3517,318.232,-0.925117
47.3533,318.248,-0.925207
47.355,318.265,-0.925295
47.3567,318.282,-0.925385
47.3583,318.298,-0.925477
47.36,318.315,-0.925568
47.3617,318.332,-0.925667
47.3633,318.349,-0.925773
47.365,318.365,-0.925881
47.3667,318.382,-0.925992
47.3683,318.398,-0.926128
47.37,318.415,-0.926241
47.3717,318.432,-0.926349
47.3733,318.449,-0.926455
47.375,318.465,-0.926553
47.3767,318.482,-0.926649
47.3783,318.498,-0.926745
47.38,318.515,-0.926845
47.3817,318.532,-0.926936
47.3833,318.548,-0.927024
47.385,318.565,-0.927105
47.3867,318.581,-0.927192
47.3883,318.598,-0.927287
47.39,318.615,-0.927385
47.3917,318.631,-0.927479
47.3933,318.648,-0.927577
47.395,318.665,-0.927674
47.3967,318.681,-0.927776
47.3983,318.698,-0.927876
47.4,318.715,-0.927976
47.4017,318.731,-0.928072
47.4033,318.748,-0.928164
47.405,318.764,-0.928251
47.4067,318.781,-0.928333
47.4083,318.798,-0.928408
47.41,318.815,-0.928484
47.4117,318.831,-0.928581
47.4133,318.848,-0.928687
47.415,318.864,-0.928798
47.4167,318.881,-0.928909
47.4183,318.898,-0.929023
47.42,318.914,-0.929215
47.4217,318.931,-0.929516
47.4233,318.947,-0.929671
47.425,318.964,-0.929786
47.4267,318.981,-0.929889
47.4283,318.997,-0.929986
47.43,319.014,-0.930083
47.4317,319.031,-0.930172
47.4333,319.047,-0.930254
47.435,319.064,-0.930341
47.4367,319.081,-0.930435
47.4383,319.097,-0.930542
47.44,319.114,-0.930658
47.4417,319.131,-0.930785
47.4433,319.147,-0.930932
47.445,319.164,-0.931079
47.4467,319.181,-0.931211
47.4483,319.198,-0.931334
47.45,319.214,-0.931447
47.4517,319.231,-0.931547
47.4533,319.248,-0.931651
47.455,319.264,-0.931757
47.4567,319.281,-0.931851
47.4583,319.297,-0.931947
47.46,319.314,-0.932042
47.4617,319.331,-0.932134
47.4633,319.347,-0.932221
47.465,319.364,-0.93231
47.4667,319.38,-0.932402
47.4683,319.397,-0.932501
47.47,319.414,-0.932594
47.4717,319.43,-0.932701
47.4733,319.447,-0.932816
47.475,319.463,-0.932923
47.4767,319.48,-0.933037
47.4783,319.496,-0.933152
47.48,319.513,-0.933268
47.4817,319.53,-0.933383
47.4833,319.546,-0.933495
47.485,319.563,-0.933606
47.4867,319.58,-0.933725
47.4883,319.597,-0.933842
47.49,319.613,-0.933962
47.4917,319.63,-0.934104
47.4933,319.647,-0.934233
47.495,319.664,-0.934412
47.4967,319.68,-0.934619
47.4983,319.697,-0.934822
47.5,319.713,-0.93508
47.5017,319.73,-0.935322
47.5033,319.747,-0.935446
47.505,319.763,-0.935565
47.5067,319.78,-0.935678
47.5083,319.796,-0.935788
47.51,319.813,-0.935888
47.5117,319.829,-0.935981
47.5133,319.846,-0.936067
47.515,319.862,-0.936157
47.5167,319.879,-0.936251
47.5183,319.896,-0.936343
47.52,319.912,-0.936434
47.5217,319.929,-0.936536
47.5233,319.946,-0.936643
47.525,319.963,-0.936754
47.5267,319.979,-0.93688
47.5283,319.996,-0.937002
47.53,320.013,-0.937186
47.5317,320.029,-0.937345
47.5333,320.046,-0.937505
47.535,320.063,-0.93767
47.5367,320.079,-0.937789
47.5383,320.096,-0.937906
47.54,320.113,-0.938021
47.5417,320.129,-0.938131
47.5433,320.146,-0.93824
47.545,320.162,-0.938344
47.5467,320.179,-0.938442
47.5483,320.196,-0.938545
47.55,320.212,-0.938652
47.5517,320.229,-0.938763
47.5533,320.245,-0.938879
47.555,320.262,-0.939002
47.5567,320.278,-0.93913
47.5583,320.295,-0.939354
47.56,320.312,-0.939672
47.5617,320.328,-0.939984
47.5633,320.345,-0.940161
47.565,320.362,-0.940366
47.5667,320.378,-0.940498
47.5683,320.395,-0.940656
47.57,320.412,-0.940843
47.5717,320.428,-0.941057
47.5733,320.445,-0.941354
47.575,320.462,-0.941616
47.5767,320.478,-0.941863
47.5783,320.495,-0.942167
47.58,320.512,-0.942369
47.5817,320.528,-0.942506
47.5833,320.545,-0.942636
47.585,320.561,-0.942768
47.5867,320.578,-0.942893
47.5883,320.595,-0.943016
47.59,320.612,-0.943133
47.5917,320.628,-0.943251
47.5933,320.645,-0.943368
47.595,320.662,-0.943495
47.5967,320.679,-0.943622
47.5983,320.696,-0.943745
47.6,320.713,-0.943871
47.6017,320.729,-0.943996
47.6033,320.745,-0.944116
47.605,320.762,-0.944233
47.6067,320.778,-0.944352
47.6083,320.795,-0.944476
47.61,320.812,-0.944604
47.6117,320.828,-0.944731
47.6133,320.845,-0.944866
47.615,320.861,-0.944998
47.6167,320.878,-0.945129
47.6183,320.895,-0.945264
47.62,320.912,-0.945471
47.6217,320.928,-0.945748
47.6233,320.945,-0.945882
47.625,320.962,-0.946015
47.6267,320.978,-0.946157
47.6283,320.995,-0.946296
47.63,321.012,-0.946434
47.6317,321.028,-0.946567
47.6333,321.045,-0.946686
47.635,321.061,-0.946808
47.6367,321.078,-0.946933
47.6383,321.095,-0.947069
47.64,321.111,-0.947212
47.6417,321.128,-0.947373
47.6433,321.144,-0.947602
47.645,321.161,-0.947964
47.6467,321.178,-0.948316
47.6483,321.195,-0.948798
47.65,321.211,-0.949154
47.6517,321.228,-0.949479
47.6533,321.244,-0.949861
47.655,321.261,-0.950104
47.6567,321.277,-0.950434
47.6583,321.294,-0.950797
47.66,321.31,-0.951148
47.6617,321.327,-0.951341
47.6633,321.344,-0.951503
47.665,321.361,-0.951643
47.6667,321.377,-0.951776
47.6683,321.393,-0.951912
47.67,321.41,-0.952097
47.6717,321.427,-0.952227
47.6733,321.443,-0.952382
47.675,321.46,-0.952521
47.6767,321.476,-0.952661
47.6783,321.493,-0.952784
47.68,321.51,-0.95292
47.6817,321.526,-0.953087
47.6833,321.543,-0.953307
47.685,321.56,-0.953452
47.6867,321.576,-0.953634
47.6883,321.593,-0.953848
47.69,321.61,-0.954104
47.6917,321.627,-0.954443
47.6933,321.643,-0.954705
47.695,321.659,-0.954968
47.6967,321.676,-0.955116
47.6983,321.693,-0.955259
47.7,321.709,-0.955409
47.7017,321.726,-0.955603
47.7033,321.743,-0.95575
47.705,321.759,-0.955887
47.7067,321.776,-0.956027
47.7083,321.793,-0.956176
47.71,321.809,-0.956404
47.7117,321.826,-0.956556
47.7133,321.843,-0.956729
47.715,321.86,-0.956893
47.7167,321.876,-0.957044
47.7183,321.893,-0.957209
47.72,321.909,-0.95736
47.7217,321.926,-0.957508
47.7233,321.942,-0.957648
47.725,321.959,-0.957791
47.7267,321.976,-0.957938
47.7283,321.992,-0.958091
47.73,322.009,-0.958246
47.7317,322.025,-0.958515
47.7333,322.042,-0.958908
47.735,322.058,-0.959397
47.7367,322.075,-0.96021
47.7383,322.092,-0.960995
47.74,322.108,-0.962069
47.7417,322.125,-0.962872
47.7433,322.142,-0.963625
47.745,322.158,-0.964397
47.7467,322.175,-0.965044
47.7483,322.191,-0.965519
47.75,322.208,-0.965912
47.7517,322.225,-0.966254
47.7533,322.242,-0.966504
47.755,322.258,-0.966741
47.7567,322.275,-0.966992
47.7583,322.292,-0.967149
47.76,322.308,-0.967296
47.7617,322.325,-0.967433
47.7633,322.342,-0.967571
47.765,322.358,-0.967713
47.7667,322.375,-0.967863
47.7683,322.391,-0.968039
47.77,322.408,-0.968369
47.7717,322.425,-0.968918
47.7733,322.442,-0.96947
47.775,322.458,-0.970005
47.7767,322.474,-0.970475
47.7783,322.491,-0.970794
47.78,322.508,-0.97111
47.7817,322.524,-0.971385
47.7833,322.54,-0.971667
47.785,322.557,-0.971921
47.7867,322.574,-0.972091
47.7883,322.59,-0.972286
47.79,322.607,-0.972432
47.7917,322.624,-0.972688
47.7933,322.64,-0.973074
47.795,322.657,-0.973607
47.7967,322.673,-0.974147
47.7983,322.69,-0.974715
47.8,322.707,-0.975358
47.8017,322.723,-0.976103
47.8033,322.74,-0.976634
47.805,322.757,-0.977023
47.8067,322.773,-0.9775
47.8083,322.79,-0.977868
47.81,322.807,-0.978229
47.8117,322.823,-0.978609
47.8133,322.84,-0.978971
47.815,322.856,-0.979368
47.8167,322.873,-0.979907
47.8183,322.89,-0.980443
47.82,322.906,-0.981149
47.8217,322.923,-0.981839
47.8233,322.939,-0.982606
47.825,322.956,-0.983492
47.8267,322.972,-0.984464
47.8283,322.989,-0.985403
47.83,323.006,-0.986294
47.8317,323.022,-0.987021
47.8333,323.039,-0.987875
47.835,323.056,-0.988561
47.8367,323.072,-0.989171
47.8383,323.089,-0.989596
47.84,323.105,-0.989879
47.8417,323.122,-0.990178
47.8433,323.139,-0.990445
47.845,323.156,-0.990813
47.8467,323.172,-0.991127
47.8483,323.188,-0.991417
47.85,323.205,-0.991755
47.8517,323.222,-0.992159
47.8533,323.238,-0.992624
47.855,323.254,-0.993279
47.8567,323.272,-0.993831
47.8583,323.288,-0.994305
47.86,323.305,-0.994892
47.8617,323.322,-0.995785
47.8633,323.338,-0.996798
47.865,323.355,-0.997822
47.8667,323.372,-0.998589
47.8683,323.388,-0.999375
47.87,323.405,-1.00009
47.8717,323.421,-1.00096
47.8733,323.438,-1.00174
47.875,323.454,-1.00234
47.8767,323.471,-1.00293
47.8783,323.487,-1.00355
47.88,323.504,-1.00412
47.8817,323.521,-1.00473
47.8833,323.538,-1.00517
47.885,323.554,-1.00546
47.8867,323.571,-1.00571
47.8883,323.588,-1.00588
47.89,323.604,-1.00609
47.8917,323.621,-1.00628
47.8933,323.637,-1.00664
47.895,323.654,-1.00702
47.8967,323.671,-1.00764
47.8983,323.687,-1.00855
47.9,323.704,-1.00944
47.9017,323.72,-1.01045
47.9033,323.737,-1.01176
47.905,323.753,-1.01291
47.9067,323.77,-1.01402
47.9083,323.787,-1.01516
47.91,323.803,-1.01599
47.9117,323.82,-1.01695
47.9133,323.837,-1.01795
47.915,323.853,-1.01899
47.9167,323.87,-1.01998
47.9183,323.887,-1.02127
47.92,323.904,-1.0225
47.9217,323.92,-1.02401
47.9233,323.937,-1.02545
47.925,323.954,-1.02649
47.9267,323.97,-1.02749
47.9283,323.987,-1.02831
47.93,324.003,-1.02896
47.9317,324.019,-1.02955
47.9333,324.036,-1.02998
47.935,324.053,-1.0304
47.9367,324.069,-1.03087
47.9383,324.086,-1.03133
47.94,324.103,-1.03187
47.9417,324.119,-1.03246
47.9433,324.136,-1.03314
47.945,324.152,-1.03392
47.9467,324.169,-1.03466
47.9483,324.185,-1.03557
47.95,324.202,-1.03649
47.9517,324.219,-1.03739
47.9533,324.235,-1.03851
47.955,324.252,-1.03975
47.9567,324.269,-1.04089
47.9583,324.285,-1.04207
47.96,324.302,-1.04301
47.9617,324.318,-1.044
47.9633,324.335,-1.045
47.965,324.352,-1.04589
47.9667,324.368,-1.04695
47.9683,324.385,-1.04785
47.97,324.401,-1.0486
47.9717,324.418,-1.04917
47.9733,324.435,-1.04976
47.975,324.451,-1.0506
47.9767,324.468,-1.05149
47.9783,324.484,-1.05252
47.98,324.501,-1.05365
47.9817,324.517,-1.055
47.9833,324.534,-1.05625
47.985,324.55,-1.05742
47.9867,324.567,-1.05866
47.9883,324.584,-1.05999
47.99,324.6,-1.06096
47.9917,324.617,-1.0618
47.9933,324.634,-1.06274
47.995,324.65,-1.0635
47.9967,324.667,-1.06425
47.9983,324.684,-1.06546
48,324.701,-1.0671
48.0017,324.717,-1.06911
48.0033,324.733,-1.07081
48.005,324.75,-1.07228
48.0067,324.767,-1.0739
48.0083,324.783,-1.07588
48.01,324.8,-1.07747
48.0117,324.816,-1.07871
48.0133,324.833,-1.07966
48.015,324.85,-1.08032
48.0167,324.866,-1.08095
48.0183,324.883,-1.08178
48.02,324.899,-1.08262
48.0217,324.916,-1.08332
48.0233,324.932,-1.08404
48.025,324.949,-1.08468
48.0267,324.966,-1.08539
48.0283,324.982,-1.08621
48.03,324.999,-1.08728
48.0317,325.015,-1.08846
48.0333,325.032,-1.08977
48.035,325.048,-1.09158
48.0367,325.065,-1.09347
48.0383,325.081,-1.09504
48.04,325.098,-1.09653
48.0417,325.115,-1.09788
48.0433,325.132,-1.09949
48.045,325.148,-1.10127
48.0467,325.165,-1.10272
48.0483,325.182,-1.10447
48.05,325.198,-1.10581
48.0517,325.215,-1.10725
48.0533,325.231,-1.10871
48.055,325.248,-1.11018
48.0567,325.264,-1.11146
48.0583,325.281,-1.11245
48.06,325.298,-1.11316
48.0617,325.314,-1.11415
48.0633,325.331,-1.1154
48.065,325.347,-1.1167
48.0667,325.364,-1.11834
48.0683,325.38,-1.12044
48.07,325.397,-1.12248
48.0717,325.414,-1.12461
48.0733,325.43,-1.12655
48.075,325.446,-1.1288
48.0767,325.463,-1.13058
48.0783,325.48,-1.132
48.08,325.496,-1.13317
48.0817,325.513,-1.13405
48.0833,325.529,-1.13504
48.085,325.546,-1.13639
48.0867,325.563,-1.13835
48.0883,325.579,-1.14028
48.09,325.596,-1.14198
48.0917,325.613,-1.14396
48.0933,325.629,-1.14585
48.095,325.646,-1.148
48.0967,325.662,-1.15068
48.0983,325.678,-1.15287
48.1,325.695,-1.15493
48.1017,325.711,-1.15741
48.1033,325.727,-1.15964
48.105,325.744,-1.16171
48.1067,325.76,-1.16408
48.1083,325.777,-1.16583
48.11,325.793,-1.16714
48.1117,325.81,-1.16872
48.1133,325.827,-1.17003
48.115,325.844,-1.17125
48.1167,325.861,-1.17198
48.1183,325.877,-1.17269
48.12,325.893,-1.1738
48.1217,325.91,-1.1758
48.1233,325.926,-1.17788
48.125,325.943,-1.18021
48.1267,325.959,-1.1831
48.1283,325.976,-1.18592
48.13,325.992,-1.18857
48.1317,326.009,-1.1913
48.1333,326.025,-1.1935
48.135,326.042,-1.19524
48.1367,326.059,-1.19679
48.1383,326.075,-1.19858
48.14,326.092,-1.20045
48.1417,326.108,-1.20231
48.1433,326.125,-1.2044
48.145,326.141,-1.20762
48.1467,326.158,-1.21125
48.1483,326.174,-1.21352
48.15,326.19,-1.21634
48.1517,326.207,-1.21921
48.1533,326.223,-1.22151
48.155,326.24,-1.22315
48.1567,326.257,-1.22478
48.1583,326.273,-1.22632
48.16,326.29,-1.2283
48.1617,326.307,-1.23027
48.1633,326.323,-1.23234
48.165,326.34,-1.23468
48.1667,326.356,-1.2368
48.1683,326.373,-1.23925
48.17,326.389,-1.24211
48.1717,326.406,-1.24525
48.1733,326.423,-1.24833
48.175,326.439,-1.25134
48.1767,326.456,-1.25462
48.1783,326.472,-1.25836
48.18,326.489,-1.26072
48.1817,326.505,-1.26313
48.1833,326.522,-1.26546
48.185,326.538,-1.26743
48.1867,326.554,-1.27052
48.1883,326.571,-1.27394
48.19,326.588,-1.27766
48.1917,326.604,-1.28152
48.1933,326.621,-1.28559
48.195,326.637,-1.28907
48.1967,326.653,-1.29123
48.1983,326.67,-1.29451
48.2,326.687,-1.29723
48.2017,326.703,-1.29962
48.2033,326.72,-1.30283
48.205,326.736,-1.30508
48.2067,326.753,-1.30665
48.2083,326.769,-1.30842
48.21,326.786,-1.31083
48.2117,326.802,-1.31385
48.2133,326.818,-1.31661
48.215,326.835,-1.31832
48.2167,326.851,-1.32064
48.2183,326.868,-1.32372
48.22,326.884,-1.32865
48.2217,326.901,-1.33287
48.2233,326.917,-1.33693
48.225,326.934,-1.3403
48.2267,326.95,-1.34254
48.2283,326.967,-1.34583
48.23,326.983,-1.35032
48.2317,327,-1.35356
48.2333,327.016,-1.35657
48.235,327.033,-1.35791
48.2367,327.049,-1.36142
48.2383,327.065,-1.36462
48.24,327.082,-1.36711
48.2417,327.099,-1.37054
48.2433,327.115,-1.37476
48.245,327.132,-1.37873
48.2467,327.148,-1.38268
48.2483,327.164,-1.38828
48.25,327.181,-1.39114
48.2517,327.198,-1.39446
48.2533,327.214,-1.39836
48.255,327.231,-1.40147
48.2567,327.247,-1.40387
48.2583,327.263,-1.40701
48.26,327.28,-1.40945
48.2617,327.296,-1.41344
48.2633,327.313,-1.41717
48.265,327.329,-1.41981
48.2667,327.345,-1.42439
48.2683,327.361,-1.42682
48.27,327.378,-1.42927
48.2717,327.395,-1.43305
48.2733,327.411,-1.43577
48.275,327.427,-1.43779
48.2767,327.444,-1.43984
48.2783,327.46,-1.44273
48.28,327.476,-1.44474
48.2817,327.493,-1.44849
48.2833,327.51,-1.45254
48.285,327.526,-1.45642
48.2867,327.543,-1.46138
48.2883,327.559,-1.46323
48.29,327.576,-1.46685
48.2917,327.592,-1.46953
48.2933,327.608,-1.47278
48.295,327.625,-1.47434
48.2967,327.641,-1.47768
48.2983,327.658,-1.48076
48.3,327.674,-1.48262
48.3017,327.69,-1.4848
48.3033,327.707,-1.48699
48.305,327.723,-1.49086
48.3067,327.74,-1.49179
48.3083,327.756,-1.49384
48.31,327.773,-1.49689
48.3117,327.789,-1.49999
48.3133,327.805,-1.50198
48.315,327.822,-1.5054
48.3167,327.839,-1.50854
48.3183,327.855,-1.51151
48.32,327.871,-1.51414
48.3217,327.888,-1.51661
48.3233,327.904,-1.51808
48.325,327.921,-1.51908
48.3267,327.937,-1.52033
48.3283,327.954,-1.52173
48.33,327.97,-1.52361
48.3317,327.986,-1.52399
48.3333,328.003,-1.52464
48.335,328.019,-1.5261
48.3367,328.036,-1.52704
48.3383,328.052,-1.52804
48.34,328.069,-1.52928
48.3417,328.086,-1.52965
48.3433,328.102,-1.5302
48.345,328.119,-1.53047
48.3467,328.136,-1.53053
48.3483,328.152,-1.53015
48.35,328.168,-1.52987
48.3517,328.185,-1.52922
48.3533,328.201,-1.52846
48.355,328.217,-1.52779
48.3567,328.234,-1.52719
48.3583,328.25,-1.52272
48.36,328.267,-1.52176
48.3617,328.284,-1.52062
48.3633,328.3,-1.52022
48.365,328.317,-1.51917
48.3667,328.333,-1.51839
48.3683,328.35,-1.51753
48.37,328.367,-1.51676
48.3717,328.384,-1.516
48.3733,328.4,-1.51518
48.375,328.416,-1.51414
48.3767,328.433,-1.51298
48.3783,328.45,-1.51169
48.38,328.466,-1.50999
48.3817,328.483,-1.5083
48.3833,328.499,-1.50617
48.385,328.516,-1.50372
48.3867,328.533,-1.50092
48.3883,328.55,-1.49808
48.39,328.566,-1.49486
48.3917,328.583,-1.49103
48.3933,328.6,-1.4866
48.395,328.617,-1.4814
48.3967,328.633,-1.47456
48.3983,328.65,-1.46537
48.4,328.667,-1.45563
48.4017,328.684,-1.44695
48.4033,328.7,-1.43974
48.405,328.717,-1.43423
48.4067,328.734,-1.42909
48.4083,328.75,-1.42448
48.41,328.767,-1.41976
48.4117,328.784,-1.41634
48.4133,328.801,-1.41202
48.415,328.817,-1.40716
48.4167,328.834,-1.40076
48.4183,328.851,-1.39457
48.42,328.868,-1.38773
48.4217,328.885,-1.38138
48.4233,328.901,-1.37451
48.425,328.919,-1.36937
48.4267,328.935,-1.36301
48.4283,328.952,-1.35725
48.43,328.97,-1.3514
48.4317,328.986,-1.34449
48.4333,329.003,-1.33816
48.435,329.02,-1.33044
48.4367,329.037,-1.32213
48.4383,329.053,-1.31417
48.44,329.07,-1.30694
48.4417,329.087,-1.29868
48.4433,329.104,-1.29038
48.445,329.121,-1.28369
48.4467,329.138,-1.27678
48.4483,329.155,-1.27029
48.45,329.172,-1.26303
48.4517,329.189,-1.2566
48.4533,329.206,-1.24966
48.455,329.223,-1.24293
48.4567,329.24,-1.23635
48.4583,329.257,-1.22892
48.46,329.274,-1.22272
48.4617,329.291,-1.217
48.4633,329.308,-1.21073
48.465,329.325,-1.20541
48.4667,329.342,-1.20003
48.4683,329.359,-1.19223
48.47,329.376,-1.18602
48.4717,329.393,-1.17962
48.4733,329.41,-1.17318
48.475,329.428,-1.16608
48.4767,329.445,-1.1588
48.4783,329.461,-1.1503
48.48,329.478,-1.14392
48.4817,329.495,-1.13702
48.4833,329.512,-1.13066
48.485,329.53,-1.12513
48.4867,329.547,-1.12096
48.4883,329.564,-1.115
48.49,329.581,-1.10919
48.4917,329.598,-1.10203
48.4933,329.615,-1.09547
48.495,329.632,-1.08963
48.4967,329.649,-1.08386
48.4983,329.666,-1.07688
48.5,329.683,-1.07049
48.5017,329.7,-1.06506
48.5033,329.717,-1.06172
48.505,329.734,-1.05811
48.5067,329.751,-1.0549
48.5083,329.768,-1.05072
48.51,329.785,-1.04703
48.5117,329.802,-1.04201
48.5133,329.819,-1.03668
48.515,329.836,-1.0328
48.5167,329.853,-1.02845
48.5183,329.87,-1.02313
48.52,329.887,-1.01826
48.5217,329.904,-1.01367
48.5233,329.921,-1.00967
48.525,329.938,-1.00422
48.5267,329.956,-0.999074
48.5283,329.973,-0.993795
48.53,329.989,-0.989339
48.5317,330.007,-0.984808
48.5333,330.024,-0.980694
48.535,330.04,-0.977614
48.5367,330.058,-0.97444
48.5383,330.075,-0.971122
48.54,330.091,-0.967492
48.5417,330.108,-0.964041
48.5433,330.126,-0.960701
48.545,330.142,-0.957375
48.5467,330.159,-0.952834
48.5483,330.177,-0.949757
48.55,330.194,-0.947168
48.5517,330.211,-0.945563
48.5533,330.227,-0.943837
48.555,330.244,-0.941318
48.5567,330.261,-0.939492
48.5583,330.278,-0.938381
48.56,330.295,-0.937186
48.5617,330.312,-0.934624
48.5633,330.329,-0.931806
48.565,330.346,-0.929297
48.5667,330.363,-0.926921
48.5683,330.38,-0.923299
48.57,330.396,-0.920317
48.5717,330.413,-0.917827
48.5733,330.43,-0.91496
48.575,330.448,-0.912907
48.5767,330.465,-0.911102
48.5783,330.482,-0.908907
48.58,330.499,-0.907571
48.5817,330.516,-0.905046
48.5833,330.532,-0.904222
48.585,330.55,-0.901969
48.5867,330.566,-0.899185
48.5883,330.583,-0.895777
48.59,330.6,-0.894841
48.5917,330.617,-0.894769
48.5933,330.634,-0.893068
48.595,330.651,-0.891793
48.5967,330.667,-0.891483
48.5983,330.685,-0.891162
48.6,330.701,-0.88974
48.6017,330.718,-0.889072
48.6033,330.735,-0.887841
48.605,330.752,-0.886231
48.6067,330.769,-0.884195
48.6083,330.785,-0.882735
48.61,330.802,-0.881708
48.6117,330.819,-0.880553
48.6133,330.836,-0.879149
48.615,330.853,-0.877687
48.6167,330.87,-0.876518
48.6183,330.887,-0.875486
48.62,330.903,-0.875228
48.6217,330.92,-0.875086
48.6233,330.937,-0.875287
48.625,330.954,-0.875264
48.6267,330.971,-0.874909
48.6283,330.987,-0.874614
48.63,331.004,-0.87458
48.6317,331.021,-0.874347
48.6333,331.038,-0.874088
48.635,331.055,-0.873525
48.6367,331.072,-0.872417
48.6383,331.088,-0.871376
48.64,331.105,-0.870518
48.6417,331.122,-0.869604
48.6433,331.138,-0.86846
48.645,331.155,-0.867102
48.6467,331.172,-0.865995
48.6483,331.189,-0.865253
48.65,331.206,-0.86467
48.6517,331.222,-0.863927
48.6533,331.239,-0.86342
48.655,331.256,-0.8631
48.6567,331.273,-0.862793
48.6583,331.29,-0.862493
48.66,331.306,-0.862225
48.6617,331.323,-0.861933
48.6633,331.34,-0.861607
48.665,331.356,-0.861297
48.6667,331.373,-0.861032
48.6683,331.39,-0.860814
48.67,331.407,-0.860573
48.6717,331.424,-0.86045
48.6733,331.44,-0.860362
48.675,331.457,-0.860364
48.6767,331.473,-0.860351
48.6783,331.491,-0.860334
48.68,331.507,-0.860257
48.6817,331.524,-0.860179
48.6833,331.541,-0.860018
48.685,331.557,-0.859803
48.6867,331.574,-0.859504
48.6883,331.591,-0.85933
48.69,331.608,-0.859104
48.6917,331.625,-0.858846
48.6933,331.641,-0.858473
48.695,331.658,-0.858215
48.6967,331.675,-0.857873
48.6983,331.691,-0.857365
48.7,331.708,-0.856927
48.7017,331.725,-0.856544
48.7033,331.742,-0.856135
48.705,331.759,-0.855837
48.7067,331.775,-0.855643
48.7083,331.792,-0.855544
48.71,331.808,-0.855502
48.7117,331.825,-0.855255
48.7133,331.841,-0.855346
48.715,331.858,-0.855252
48.7167,331.875,-0.855195
48.7183,331.892,-0.8552
48.72,331.908,-0.855202
48.7217,331.925,-0.855245
48.7233,331.942,-0.85522
48.725,331.959,-0.855202
48.7267,331.975,-0.855176
48.7283,331.992,-0.855107
48.73,332.009,-0.855007
48.7317,332.025,-0.854927
48.7333,332.042,-0.854841
48.735,332.059,-0.854717
48.7367,332.076,-0.854659
48.7383,332.092,-0.854613
48.74,332.109,-0.854584
48.7417,332.125,-0.854552
48.7433,332.142,-0.854515
48.745,332.159,-0.854479
48.7467,332.176,-0.854442
48.7483,332.193,-0.854396
48.75,332.21,-0.854306
48.7517,332.226,-0.854174
48.7533,332.243,-0.854075
48.755,332.259,-0.854031
48.7567,332.276,-0.853786
48.7583,332.292,-0.853605
48.76,332.309,-0.853516
48.7617,332.325,-0.853417
48.7633,332.342,-0.853404
48.765,332.359,-0.853416
48.7667,332.376,-0.853419
48.7683,332.392,-0.85341
48.77,332.409,-0.853382
48.7717,332.426,-0.853363
48.7733,332.443,-0.853337
48.775,332.459,-0.853309
48.7767,332.476,-0.853281
48.7783,332.493,-0.853246
48.78,332.509,-0.853208
48.7817,332.526,-0.853161
48.7833,332.542,-0.853115
48.785,332.559,-0.853066
48.7867,332.576,-0.853023
48.7883,332.592,-0.852968
48.79,332.609,-0.852922
48.7917,332.626,-0.852875
48.7933,332.643,-0.852815
48.795,332.659,-0.852786
48.7967,332.676,-0.852762
48.7983,332.693,-0.852745
48.8,332.709,-0.852739
48.8017,332.726,-0.852748
48.8033,332.742,-0.852761
48.805,332.759,-0.852766
48.8067,332.776,-0.852755
48.8083,332.793,-0.852735
48.81,332.81,-0.852697
48.8117,332.826,-0.852657
48.8133,332.843,-0.852612
48.815,332.859,-0.852502
48.8167,332.876,-0.852382
48.8183,332.892,-0.852286
48.82,332.909,-0.852129
48.8217,332.926,-0.851959
48.8233,332.942,-0.851879
48.825,332.959,-0.851823
48.8267,332.976,-0.851777
48.8283,332.993,-0.851715
48.83,333.009,-0.851682
48.8317,333.026,-0.851657
48.8333,333.043,-0.85163
48.835,333.059,-0.851612
48.8367,333.076,-0.851602
48.8383,333.093,-0.851585
48.84,333.109,-0.851567
48.8417,333.125,-0.851549
48.8433,333.142,-0.851531
48.845,333.159,-0.851512
48.8467,333.175,-0.851497
48.8483,333.192,-0.851471
48.85,333.209,-0.851443
48.8517,333.226,-0.851417
48.8533,333.243,-0.851395
48.855,333.259,-0.851379
48.8567,333.276,-0.851358
48.8583,333.292,-0.851341
48.86,333.309,-0.851332
48.8617,333.326,-0.851325
48.8633,333.342,-0.851318
48.865,333.359,-0.851312
48.8667,333.376,-0.85129
48.8683,333.393,-0.851259
48.87,333.409,-0.85123
48.8717,333.426,-0.851198
48.8733,333.442,-0.851163
48.875,333.459,-0.85113
48.8767,333.476,-0.851096
48.8783,333.492,-0.851066
48.88,333.509,-0.85105
48.8817,333.526,-0.851045
48.8833,333.542,-0.851043
48.885,333.559,-0.851038
48.8867,333.576,-0.851033
48.8883,333.593,-0.85102
48.89,333.609,-0.850996
48.8917,333.626,-0.850973
48.8933,333.642,-0.850945
48.895,333.659,-0.850918
48.8967,333.676,-0.850885
48.8983,333.692,-0.850855
48.9,333.709,-0.850821
48.9017,333.725,-0.850803
48.9033,333.742,-0.850783
48.905,333.759,-0.850772
48.9067,333.775,-0.85076
48.9083,333.792,-0.850744
48.91,333.809,-0.850719
48.9117,333.825,-0.850689
48.9133,333.842,-0.850659
48.915,333.859,-0.850625
48.9167,333.876,-0.850584
48.9183,333.892,-0.850542
48.92,333.909,-0.8505
48.9217,333.925,-0.850468
48.9233,333.942,-0.850439
48.925,333.959,-0.85042
48.9267,333.975,-0.850397
48.9283,333.992,-0.850368
48.93,334.009,-0.850343
48.9317,334.026,-0.850317
48.9333,334.042,-0.85029
48.935,334.059,-0.850264
48.9367,334.075,-0.850231
48.9383,334.092,-0.850198
48.94,334.108,-0.850172
48.9417,334.125,-0.85015
48.9433,334.142,-0.850129
48.945,334.159,-0.85011
48.9467,334.175,-0.850089
48.9483,334.192,-0.850066
48.95,334.209,-0.850047
48.9517,334.226,-0.850025
48.9533,334.243,-0.850016
48.955,334.259,-0.850006
48.9567,334.275,-0.849994
48.9583,334.292,-0.849983
48.96,334.309,-0.849972
48.9617,334.325,-0.849968
48.9633,334.342,-0.849958
48.965,334.359,-0.849946
48.9667,334.375,-0.849938
48.9683,334.392,-0.849932
48.97,334.409,-0.849924
48.9717,334.425,-0.84991
48.9733,334.442,-0.8499
48.975,334.459,-0.849886
48.9767,334.475,-0.84987
48.9783,334.492,-0.849846
48.98,334.509,-0.849818
48.9817,334.525,-0.849786
48.9833,334.542,-0.849749
48.985,334.559,-0.849709
48.9867,334.575,-0.84967
48.9883,334.592,-0.849626
48.99,334.608,-0.849583
48.9917,334.625,-0.849553
48.9933,334.642,-0.849528
48.995,334.658,-0.849521
48.9967,334.675,-0.849519
48.9983,334.692,-0.849523
49,334.708,-0.849532
49.0017,334.725,-0.849543
49.0033,334.742,-0.849559
49.005,334.758,-0.849578
49.0067,334.775,-0.849599
49.0083,334.792,-0.849615
49.01,334.809,-0.849629
49.0117,334.825,-0.849634
49.0133,334.842,-0.849631
49.015,334.858,-0.84962
49.0167,334.875,-0.849612
49.0183,334.892,-0.849599
49.02,334.908,-0.849582
49.0217,334.925,-0.849564
49.0233,334.942,-0.84954
49.025,334.959,-0.849517
49.0267,334.975,-0.849501
49.0283,334.992,-0.849484
49.03,335.008,-0.849462
49.0317,335.025,-0.849442
49.0333,335.042,-0.849435
49.035,335.058,-0.849431
49.0367,335.075,-0.849421
49.0383,335.091,-0.849416
49.04,335.108,-0.849414
49.0417,335.125,-0.84942
49.0433,335.141,-0.849429
49.045,335.158,-0.849433
49.0467,335.174,-0.849431
49.0483,335.191,-0.849419
49.05,335.208,-0.849407
49.0517,335.224,-0.849399
49.0533,335.241,-0.849392
49.055,335.258,-0.849387
49.0567,335.275,-0.849381
49.0583,335.291,-0.849372
49.06,335.308,-0.849366
49.0617,335.324,-0.849362
49.0633,335.341,-0.849355
49.065,335.358,-0.849344
49.0667,335.374,-0.849335
49.0683,335.391,-0.849318
49.07,335.408,-0.849295
49.0717,335.424,-0.849274
49.0733,335.441,-0.849262
49.075,335.458,-0.849247
49.0767,335.474,-0.849232
49.0783,335.491,-0.849229
49.08,335.507,-0.849233
49.0817,335.524,-0.849234
49.0833,335.541,-0.849235
49.085,335.558,-0.849233
49.0867,335.574,-0.849218
49.0883,335.591,-0.849203
49.09,335.608,-0.849183
49.0917,335.624,-0.84917
49.0933,335.641,-0.849157
49.095,335.658,-0.849137
49.0967,335.674,-0.849113
49.0983,335.691,-0.849089
49.1,335.708,-0.849068
49.1017,335.724,-0.849051
49.1033,335.741,-0.849046
49.105,335.757,-0.849039
49.1067,335.774,-0.849042
49.1083,335.791,-0.849042
49.11,335.808,-0.849045
49.1117,335.824,-0.849048
49.1133,335.841,-0.849041
49.115,335.858,-0.849038
49.1167,335.874,-0.849025
49.1183,335.891,-0.849007
49.12,335.908,-0.848992
49.1217,335.924,-0.848983
49.1233,335.941,-0.848982
49.125,335.958,-0.848984
49.1267,335.974,-0.848982
49.1283,335.991,-0.84898
49.13,336.007,-0.848981
49.1317,336.024,-0.848987
49.1333,336.041,-0.848997
49.135,336.057,-0.849006
49.1367,336.074,-0.849014
49.1383,336.091,-0.849022
49.14,336.108,-0.849026
49.1417,336.124,-0.849036
49.1433,336.141,-0.849047
49.145,336.158,-0.84905
49.1467,336.174,-0.84904
49.1483,336.191,-0.849027
49.15,336.207,-0.849015
49.1517,336.224,-0.849001
49.1533,336.241,-0.848987
49.155,336.257,-0.848973
49.1567,336.274,-0.84895
49.1583,336.29,-0.848927
49.16,336.307,-0.848912
49.1617,336.324,-0.848897
49.1633,336.341,-0.848883
49.165,336.357,-0.848867
49.1667,336.374,-0.848857
49.1683,336.391,-0.848861
49.17,336.407,-0.848872
49.1717,336.424,-0.848887
49.1733,336.441,-0.848895
49.175,336.457,-0.8489
49.1767,336.474,-0.848912
49.1783,336.49,-0.848922
49.18,336.507,-0.848932
49.1817,336.523,-0.848942
49.1833,336.54,-0.848949
49.185,336.557,-0.848953
49.1867,336.574,-0.848954
49.1883,336.59,-0.848947
49.19,336.607,-0.848927
49.1917,336.624,-0.848907
49.1933,336.64,-0.848887
49.195,336.657,-0.848869
49.1967,336.674,-0.84886
49.1983,336.69,-0.848862
49.2,336.707,-0.848873
49.2017,336.724,-0.848886
49.2033,336.74,-0.848913
49.205,336.757,-0.848943
49.2067,336.774,-0.848977
49.2083,336.79,-0.849008
49.21,336.807,-0.84904
49.2117,336.823,-0.849065
49.2133,336.84,-0.849078
49.215,336.857,-0.849082
49.2167,336.873,-0.849085
49.2183,336.89,-0.849085
49.22,336.907,-0.849076
49.2217,336.923,-0.849056
49.2233,336.94,-0.849031
49.225,336.956,-0.849006
49.2267,336.973,-0.848979
49.2283,336.99,-0.848961
49.23,337.006,-0.848948
49.2317,337.023,-0.848943
49.2333,337.039,-0.848937
49.235,337.056,-0.848934
49.2367,337.073,-0.848942
49.2383,337.089,-0.848966
49.24,337.106,-0.848991
49.2417,337.123,-0.849011
49.2433,337.139,-0.849027
49.245,337.156,-0.849034
49.2467,337.173,-0.849032
49.2483,337.19,-0.849023
49.25,337.206,-0.849017
49.2517,337.223,-0.849004
49.2533,337.24,-0.848993
49.255,337.257,-0.848994
49.2567,337.273,-0.849008
49.2583,337.29,-0.849028
49.26,337.307,-0.849055
49.2617,337.323,-0.849086
49.2633,337.339,-0.849117
49.265,337.356,-0.849142
49.2667,337.373,-0.849154
49.2683,337.39,-0.849156
49.27,337.406,-0.849148
49.2717,337.423,-0.849137
49.2733,337.439,-0.849116
49.275,337.456,-0.849093
49.2767,337.473,-0.849076
49.2783,337.489,-0.84906
49.28,337.506,-0.849049
49.2817,337.522,-0.849046
49.2833,337.539,-0.849056
49.285,337.556,-0.849073
49.2867,337.572,-0.849099
49.2883,337.589,-0.849127
49.29,337.606,-0.849161
49.2917,337.622,-0.849187
49.2933,337.639,-0.849214
49.295,337.656,-0.849248
49.2967,337.672,-0.849269
49.2983,337.689,-0.849292
49.3,337.706,-0.849315
49.3017,337.723,-0.849337
49.3033,337.739,-0.849344
49.305,337.756,-0.849349
49.3067,337.772,-0.849353
49.3083,337.789,-0.849357
49.31,337.806,-0.849359
49.3117,337.822,-0.849363
49.3133,337.839,-0.849363
49.315,337.856,-0.849372
49.3167,337.872,-0.849375
49.3183,337.889,-0.849379
49.32,337.905,-0.849382
49.3217,337.922,-0.849379
49.3233,337.939,-0.849373
49.325,337.955,-0.849366
49.3267,337.972,-0.849361
49.3283,337.989,-0.84936
49.33,338.005,-0.849354
49.3317,338.022,-0.849347
49.3333,338.038,-0.849338
49.335,338.055,-0.849338
49.3367,338.072,-0.849335
49.3383,338.089,-0.849334
49.34,338.105,-0.849334
49.3417,338.122,-0.849346
49.3433,338.139,-0.849372
49.345,338.155,-0.849397
49.3467,338.172,-0.849423
49.3483,338.188,-0.849458
49.35,338.205,-0.849515
49.3517,338.221,-0.849551
49.3533,338.238,-0.84958
49.355,338.255,-0.849595
49.3567,338.271,-0.849607
49.3583,338.288,-0.84961
49.36,338.305,-0.849612
49.3617,338.322,-0.849612
49.3633,338.338,-0.849605
49.365,338.355,-0.849594
49.3667,338.372,-0.84959
49.3683,338.388,-0.849587
49.37,338.405,-0.849587
49.3717,338.422,-0.849589
49.3733,338.439,-0.849588
49.375,338.455,-0.849591
49.3767,338.471,-0.849597
49.3783,338.488,-0.8496
49.38,338.504,-0.849613
49.3817,338.522,-0.849629
49.3833,338.538,-0.849644
49.385,338.555,-0.849655
49.3867,338.571,-0.849665
49.3883,338.588,-0.849681
49.39,338.605,-0.849701
49.3917,338.621,-0.849726
49.3933,338.638,-0.849749
49.395,338.655,-0.849765
49.3967,338.671,-0.849772
49.3983,338.688,-0.849773
49.4,338.705,-0.849771
49.4017,338.721,-0.849774
49.4033,338.738,-0.849775
49.405,338.755,-0.849774
49.4067,338.771,-0.849774
49.4083,338.788,-0.849768
49.41,338.804,-0.849767
49.4117,338.821,-0.849771
49.4133,338.838,-0.849784
49.415,338.854,-0.849803
49.4167,338.871,-0.849819
49.4183,338.887,-0.849837
49.42,338.904,-0.849859
49.4217,338.921,-0.849884
49.4233,338.937,-0.84991
49.425,338.954,-0.849934
49.4267,338.971,-0.849953
49.4283,338.987,-0.849965
49.43,339.004,-0.849976
49.4317,339.02,-0.849979
49.4333,339.037,-0.849991
49.435,339.053,-0.849998
49.4367,339.07,-0.849999
49.4383,339.087,-0.850013
49.44,339.103,-0.850024
49.4417,339.12,-0.850035
49.4433,339.137,-0.850054
49.445,339.154,-0.850076
49.4467,339.17,-0.850099
49.4483,339.187,-0.850123
49.45,339.204,-0.850152
49.4517,339.221,-0.850179
49.4533,339.237,-0.850205
49.455,339.254,-0.850232
49.4567,339.271,-0.850263
49.4583,339.287,-0.850294
49.46,339.304,-0.850312
49.4617,339.32,-0.850332
49.4633,339.337,-0.850346
49.465,339.354,-0.850351
49.4667,339.37,-0.850354
49.4683,339.387,-0.850352
49.47,339.403,-0.850355
49.4717,339.42,-0.85036
49.4733,339.437,-0.850351
49.475,339.453,-0.850357
49.4767,339.47,-0.850365
49.4783,339.487,-0.85038
49.48,339.504,-0.8504
49.4817,339.52,-0.850413
49.4833,339.537,-0.850431
49.485,339.553,-0.850455
49.4867,339.57,-0.850478
49.4883,339.586,-0.8505
49.49,339.603,-0.850522
49.4917,339.62,-0.850539
49.4933,339.637,-0.850561
49.495,339.653,-0.85058
49.4967,339.67,-0.850596
49.4983,339.686,-0.850605
49.5,339.703,-0.850609
49.5017,339.72,-0.85062
49.5033,339.737,-0.850639
49.505,339.753,-0.850646
49.5067,339.77,-0.850655
49.5083,339.787,-0.850667
49.51,339.803,-0.850678
49.5117,339.82,-0.850692
49.5133,339.836,-0.850718
49.515,339.853,-0.850754
49.5167,339.87,-0.850796
49.5183,339.887,-0.850844
49.52,339.903,-0.850916
49.5217,339.92,-0.850966
49.5233,339.936,-0.851008
49.525,339.953,-0.851041
49.5267,339.97,-0.851062
49.5283,339.986,-0.851064
49.53,340.003,-0.851054
49.5317,340.019,-0.851026
49.5333,340.036,-0.850994
49.535,340.052,-0.850969
49.5367,340.069,-0.850958
49.5383,340.086,-0.850947
49.54,340.103,-0.850938
49.5417,340.12,-0.850942
49.5433,340.136,-0.850952
49.545,340.153,-0.850966
49.5467,340.169,-0.850978
49.5483,340.186,-0.850989
49.55,340.203,-0.851
49.5517,340.219,-0.851011
49.5533,340.236,-0.851029
49.555,340.252,-0.851059
49.5567,340.269,-0.851098
49.5583,340.286,-0.851142
49.56,340.302,-0.851185
49.5617,340.319,-0.851234
49.5633,340.336,-0.851282
49.565,340.352,-0.851326
49.5667,340.369,-0.851365
49.5683,340.386,-0.851395
49.57,340.402,-0.851417
49.5717,340.419,-0.851436
49.5733,340.435,-0.851448
49.575,340.452,-0.851459
49.5767,340.469,-0.85147
49.5783,340.485,-0.851481
49.58,340.502,-0.851494
49.5817,340.519,-0.851509
49.5833,340.535,-0.851519
49.585,340.552,-0.851523
49.5867,340.569,-0.851523
49.5883,340.586,-0.851516
49.59,340.602,-0.851497
49.5917,340.619,-0.85148
49.5933,340.635,-0.85147
49.595,340.652,-0.85146
49.5967,340.669,-0.851451
49.5983,340.686,-0.851453
49.6,340.702,-0.851454
49.6017,340.719,-0.85147
49.6033,340.735,-0.851496
49.605,340.752,-0.851525
49.6067,340.769,-0.851558
49.6083,340.786,-0.851593
49.61,340.802,-0.851618
49.6117,340.819,-0.851651
49.6133,340.835,-0.851681
49.615,340.852,-0.851713
49.6167,340.869,-0.851738
49.6183,340.885,-0.85175
49.62,340.902,-0.851764
49.6217,340.919,-0.85178
49.6233,340.935,-0.851789
49.625,340.952,-0.851794
49.6267,340.969,-0.851803
49.6283,340.985,-0.851816
49.63,341.002,-0.851834
49.6317,341.019,-0.851862
49.6333,341.036,-0.851902
49.635,341.052,-0.851942
49.6367,341.069,-0.851976
49.6383,341.085,-0.852015
49.64,341.102,-0.852057
49.6417,341.118,-0.852096
49.6433,341.135,-0.852134
49.645,341.152,-0.852165
49.6467,341.168,-0.852191
49.6483,341.185,-0.852202
49.65,341.202,-0.852199
49.6517,341.219,-0.852204
49.6533,341.236,-0.852217
49.655,341.252,-0.852242
49.6567,341.268,-0.852272
49.6583,341.285,-0.852306
49.66,341.302,-0.852336
49.6617,341.319,-0.852377
49.6633,341.335,-0.852426
49.665,341.352,-0.852474
49.6667,341.368,-0.852516
49.6683,341.385,-0.852548
49.67,341.402,-0.852573
49.6717,341.418,-0.8526
49.6733,341.435,-0.852634
49.675,341.452,-0.852661
49.6767,341.469,-0.852692
49.6783,341.485,-0.852717
49.68,341.502,-0.852752
49.6817,341.519,-0.852793
49.6833,341.535,-0.852835
49.685,341.551,-0.852874
49.6867,341.568,-0.852905
49.6883,341.585,-0.852939
49.69,341.601,-0.852965
49.6917,341.618,-0.852986
49.6933,341.635,-0.852999
49.695,341.651,-0.853012
49.6967,341.668,-0.853015
49.6983,341.684,-0.85302
49.7,341.702,-0.853021
49.7017,341.718,-0.853031
49.7033,341.735,-0.853045
49.705,341.751,-0.853057
49.7067,341.768,-0.853076
49.7083,341.785,-0.853107
49.71,341.801,-0.85314
49.7117,341.818,-0.853175
49.7133,341.835,-0.853213
49.715,341.851,-0.853242
49.7167,341.867,-0.853264
49.7183,341.884,-0.853286
49.72,341.901,-0.8533
49.7217,341.918,-0.853314
49.7233,341.934,-0.853323
49.725,341.951,-0.853328
49.7267,341.968,-0.853336
49.7283,341.985,-0.853354
49.73,342.001,-0.853383
49.7317,342.018,-0.853429
49.7333,342.034,-0.853472
49.735,342.051,-0.853512
49.7367,342.068,-0.85356
49.7383,342.085,-0.853608
49.74,342.101,-0.853648
49.7417,342.117,-0.853681
49.7433,342.134,-0.853709
49.745,342.151,-0.853727
49.7467,342.167,-0.853744
49.7483,342.184,-0.853759
49.75,342.2,-0.853775
49.7517,342.217,-0.853787
49.7533,342.234,-0.853798
49.755,342.251,-0.853808
49.7567,342.267,-0.853822
49.7583,342.284,-0.85384
49.76,342.3,-0.853856
49.7617,342.317,-0.853869
49.7633,342.334,-0.853892
49.765,342.351,-0.853906
49.7667,342.367,-0.853913
49.7683,342.384,-0.853916
49.77,342.4,-0.853914
49.7717,342.417,-0.853906
49.7733,342.434,-0.853904
49.775,342.451,-0.853905
49.7767,342.467,-0.853914
49.7783,342.484,-0.853935
49.78,342.501,-0.85397
49.7817,342.517,-0.854008
49.7833,342.534,-0.854051
49.785,342.55,-0.854098
49.7867,342.567,-0.854137
49.7883,342.584,-0.854173
49.79,342.601,-0.854201
49.7917,342.617,-0.85422
49.7933,342.634,-0.854241
49.795,342.65,-0.854268
49.7967,342.667,-0.854291
49.7983,342.684,-0.854319
49.8,342.701,-0.854349
49.8017,342.717,-0.85438
49.8033,342.734,-0.854408
49.805,342.75,-0.854437
49.8067,342.767,-0.854462
49.8083,342.783,-0.854474
49.81,342.8,-0.854486
49.8117,342.817,-0.854496
49.8133,342.833,-0.854507
49.815,342.85,-0.854516
49.8167,342.867,-0.854531
49.8183,342.884,-0.854552
49.82,342.9,-0.854579
49.8217,342.917,-0.854608
49.8233,342.933,-0.85464
49.825,342.951,-0.854672
49.8267,342.967,-0.85471
49.8283,342.984,-0.85475
49.83,343,-0.854788
49.8317,343.017,-0.854823
49.8333,343.033,-0.854853
49.835,343.05,-0.854879
49.8367,343.066,-0.854902
49.8383,343.083,-0.854923
49.84,343.1,-0.854943
49.8417,343.116,-0.854957
49.8433,343.133,-0.854971
49.845,343.15,-0.854987
49.8467,343.166,-0.855011
49.8483,343.183,-0.855034
49.85,343.199,-0.855052
49.8517,343.216,-0.855082
49.8533,343.233,-0.855113
49.855,343.25,-0.855149
49.8567,343.266,-0.855183
49.8583,343.283,-0.85522
49.86,343.3,-0.855256
49.8617,343.316,-0.855292
49.8633,343.333,-0.855319
49.865,343.35,-0.85535
49.8667,343.367,-0.85538
49.8683,343.383,-0.855411
49.87,343.4,-0.85544
49.8717,343.416,-0.855464
49.8733,343.433,-0.855489
49.875,343.45,-0.855506
49.8767,343.466,-0.85552
49.8783,343.483,-0.855533
49.88,343.5,-0.855553
49.8817,343.516,-0.855572
49.8833,343.533,-0.855596
49.885,343.55,-0.855621
49.8867,343.566,-0.855649
49.8883,343.583,-0.855682
49.89,343.6,-0.855726
49.8917,343.616,-0.855772
49.8933,343.633,-0.855827
49.895,343.649,-0.855875
49.8967,343.667,-0.855913
49.8983,343.683,-0.855951
49.9,343.7,-0.855988
49.9017,343.717,-0.856013
49.9033,343.733,-0.856023
49.905,343.75,-0.856032
49.9067,343.766,-0.856037
49.9083,343.783,-0.856052
49.91,343.799,-0.856076
49.9117,343.816,-0.856104
49.9133,343.833,-0.856134
49.915,343.849,-0.856164
49.9167,343.866,-0.856199
49.9183,343.883,-0.856232
49.92,343.9,-0.856274
49.9217,343.916,-0.856309
49.9233,343.933,-0.856335
49.925,343.95,-0.856362
49.9267,343.966,-0.856392
49.9283,343.983,-0.856419
49.93,343.999,-0.856434
49.9317,344.016,-0.856441
49.9333,344.032,-0.856456
49.935,344.049,-0.856474
49.9367,344.066,-0.856497
49.9383,344.082,-0.856529
49.94,344.099,-0.856561
49.9417,344.116,-0.856606
49.9433,344.132,-0.856669
49.945,344.149,-0.856788
49.9467,344.166,-0.856947
49.9483,344.182,-0.857038
49.95,344.199,-0.857097
49.9517,344.216,-0.857156
49.9533,344.233,-0.857205
49.955,344.249,-0.857251
49.9567,344.266,-0.857284
49.9583,344.283,-0.857307
49.96,344.299,-0.857324
49.9617,344.316,-0.857344
49.9633,344.333,-0.857365
49.965,344.349,-0.857384
49.9667,344.366,-0.8574
49.9683,344.382,-0.85742
49.97,344.399,-0.857437
49.9717,344.416,-0.857455
49.9733,344.433,-0.857473
49.975,344.449,-0.857488
49.9767,344.466,-0.857503
49.9783,344.482,-0.857511
49.98,344.499,-0.857508
49.9817,344.516,-0.857502
49.9833,344.533,-0.857503
49.985,344.549,-0.857502
49.9867,344.566,-0.857505
49.9883,344.583,-0.857511
49.99,344.599,-0.857517
49.9917,344.616,-0.857519
49.9933,344.633,-0.857529
49.995,344.649,-0.857547
49.9967,344.666,-0.857578
49.9983,344.682,-0.857599
50,344.699,-0.857619
50.0017,344.716,-0.857631
50.0033,344.732,-0.857643
50.005,344.749,-0.857656
50.0067,344.766,-0.857666
50.0083,344.782,-0.857684
50.01,344.799,-0.857695
50.0117,344.816,-0.857702
50.0133,344.832,-0.857724
50.015,344.849,-0.857756
50.0167,344.865,-0.857796
50.0183,344.882,-0.85784
50.02,344.899,-0.857874
50.0217,344.915,-0.857911
50.0233,344.933,-0.85795
50.025,344.949,-0.857994
50.0267,344.966,-0.858031
50.0283,344.983,-0.858063
50.03,344.999,-0.858087
50.0317,345.016,-0.858109
50.0333,345.033,-0.858126
50.035,345.05,-0.85814
50.0367,345.066,-0.858154
50.0383,345.082,-0.858161
50.04,345.099,-0.858177
50.0417,345.116,-0.858201
50.0433,345.132,-0.858225
50.045,345.149,-0.858247
50.0467,345.166,-0.858268
50.0483,345.182,-0.858302
50.05,345.199,-0.858335
50.0517,345.215,-0.858372
50.0533,345.232,-0.85841
50.055,345.249,-0.858453
50.0567,345.266,-0.858504
50.0583,345.282,-0.858553
50.06,345.299,-0.858597
50.0617,345.316,-0.858638
50.0633,345.332,-0.858668
50.065,345.349,-0.858692
50.0667,345.365,-0.85871
50.0683,345.382,-0.858731
50.07,345.399,-0.858746
50.0717,345.415,-0.858756
50.0733,345.432,-0.858767
50.075,345.449,-0.858774
50.0767,345.466,-0.858786
50.0783,345.482,-0.858798
50.08,345.499,-0.858825
50.0817,345.515,-0.858858
50.0833,345.532,-0.858887
50.085,345.548,-0.858929
50.0867,345.565,-0.858981
50.0883,345.582,-0.859028
50.09,345.599,-0.859074
50.0917,345.615,-0.859121
50.0933,345.632,-0.859161
50.095,345.649,-0.8592
50.0967,345.665,-0.859229
50.0983,345.682,-0.859244
50.1,345.698,-0.859256
50.1017,345.715,-0.859273
50.1033,345.732,-0.859291
50.105,345.748,-0.859305
50.1067,345.765,-0.859324
50.1083,345.781,-0.859348
50.11,345.798,-0.859369
50.1117,345.815,-0.859405
50.1133,345.832,-0.859445
50.115,345.848,-0.859484
50.1167,345.865,-0.859519
50.1183,345.882,-0.859558
50.12,345.899,-0.859597
50.1217,345.915,-0.859637
50.1233,345.932,-0.859673
50.125,345.948,-0.859706
50.1267,345.965,-0.859735
50.1283,345.981,-0.859769
50.13,345.998,-0.859796
50.1317,346.015,-0.859823
50.1333,346.031,-0.85985
50.135,346.047,-0.859866
50.1367,346.064,-0.859881
50.1383,346.081,-0.859895
50.14,346.097,-0.859919
50.1417,346.114,-0.859942
50.1433,346.131,-0.859968
50.145,346.147,-0.859987
50.1467,346.164,-0.860014
50.1483,346.181,-0.860045
50.15,346.197,-0.860085
50.1517,346.214,-0.860128
50.1533,346.231,-0.86016
50.155,346.247,-0.860192
50.1567,346.264,-0.86023
50.1583,346.281,-0.860263
50.16,346.297,-0.860296
50.1617,346.314,-0.860326
50.1633,346.331,-0.860353
50.165,346.347,-0.860379
50.1667,346.364,-0.860396
50.1683,346.381,-0.860419
50.17,346.397,-0.860445
50.1717,346.414,-0.860475
50.1733,346.431,-0.860503
50.175,346.448,-0.860528
50.1767,346.464,-0.860557
50.1783,346.481,-0.860584
50.18,346.498,-0.860602
50.1817,346.514,-0.860619
50.1833,346.531,-0.860634
50.185,346.548,-0.860657
50.1867,346.564,-0.860684
50.1883,346.581,-0.860714
50.19,346.598,-0.860753
50.1917,346.614,-0.860804
50.1933,346.631,-0.860854
50.195,346.648,-0.860908
50.1967,346.664,-0.860955
50.1983,346.681,-0.861
50.2,346.697,-0.861043
50.2017,346.714,-0.861077
50.2033,346.73,-0.861097
50.205,346.747,-0.861114
50.2067,346.764,-0.861128
50.2083,346.78,-0.861147
50.21,346.797,-0.861162
50.2117,346.814,-0.861172
50.2133,346.83,-0.861189
50.215,346.847,-0.861212
50.2167,346.864,-0.86124
50.2183,346.881,-0.861282
50.22,346.897,-0.861325
50.2217,346.914,-0.861366
50.2233,346.93,-0.861407
50.225,346.947,-0.861459
50.2267,346.963,-0.861514
50.2283,346.98,-0.861566
50.23,346.997,-0.861613
50.2317,347.013,-0.861647
50.2333,347.03,-0.861679
50.235,347.047,-0.861704
50.2367,347.063,-0.861729
50.2383,347.08,-0.86176
50.24,347.097,-0.861779
50.2417,347.114,-0.861786
50.2433,347.13,-0.861794
50.245,347.147,-0.861807
50.2467,347.164,-0.861822
50.2483,347.181,-0.861837
50.25,347.197,-0.861845
50.2517,347.214,-0.861845
50.2533,347.231,-0.861844
50.255,347.247,-0.861846
50.2567,347.264,-0.861848
50.2583,347.28,-0.861861
50.26,347.297,-0.861879
50.2617,347.313,-0.861916
50.2633,347.33,-0.861958
50.265,347.347,-0.86201
50.2667,347.363,-0.862061
50.2683,347.38,-0.862116
50.27,347.396,-0.862167
50.2717,347.413,-0.862209
50.2733,347.43,-0.862242
50.275,347.447,-0.862277
50.2767,347.463,-0.862319
50.2783,347.48,-0.862354
50.28,347.497,-0.862387
50.2817,347.513,-0.862414
50.2833,347.53,-0.862441
50.285,347.546,-0.862459
50.2867,347.563,-0.862478
50.2883,347.58,-0.862502
50.29,347.596,-0.862524
50.2917,347.613,-0.862548
50.2933,347.629,-0.862579
50.295,347.646,-0.862613
50.2967,347.663,-0.862652
50.2983,347.68,-0.86269
50.3,347.696,-0.862725
50.3017,347.713,-0.862764
50.3033,347.73,-0.862789
50.305,347.746,-0.862808
50.3067,347.763,-0.862836
50.3083,347.779,-0.862857
50.31,347.796,-0.862874
50.3117,347.813,-0.862886
50.3133,347.829,-0.862901
50.315,347.846,-0.862923
50.3167,347.862,-0.862949
50.3183,347.879,-0.862981
50.32,347.896,-0.863012
50.3217,347.912,-0.863051
50.3233,347.929,-0.86309
50.325,347.946,-0.863139
50.3267,347.962,-0.863186
50.3283,347.979,-0.863229
50.33,347.996,-0.863262
50.3317,348.012,-0.863302
50.3333,348.029,-0.863334
50.335,348.046,-0.86335
50.3367,348.062,-0.86335
50.3383,348.079,-0.863347
50.34,348.096,-0.863349
50.3417,348.112,-0.863355
50.3433,348.129,-0.863367
50.345,348.145,-0.863386
50.3467,348.162,-0.863406
50.3483,348.179,-0.863435
50.35,348.196,-0.86347
50.3517,348.212,-0.863513
50.3533,348.229,-0.863568
50.355,348.246,-0.863622
50.3567,348.262,-0.86367
50.3583,348.279,-0.86372
50.36,348.296,-0.86376
50.3617,348.312,-0.863796
50.3633,348.329,-0.863836
50.365,348.345,-0.863869
50.3667,348.362,-0.863897
50.3683,348.379,-0.863923
50.37,348.395,-0.863961
50.3717,348.412,-0.864005
50.3733,348.429,-0.86405
50.375,348.445,-0.864097
50.3767,348.462,-0.864148
50.3783,348.478,-0.864197
50.38,348.495,-0.864233
50.3817,348.512,-0.86427
50.3833,348.529,-0.864305
50.385,348.545,-0.864332
50.3867,348.562,-0.86436
50.3883,348.579,-0.864382
50.39,348.595,-0.864406
50.3917,348.612,-0.86443
50.3933,348.628,-0.864456
50.395,348.645,-0.864484
50.3967,348.662,-0.864512
50.3983,348.678,-0.864527
50.4,348.695,-0.864544
50.4017,348.711,-0.864559
50.4033,348.728,-0.864578
50.405,348.745,-0.864604
50.4067,348.761,-0.864628
50.4083,348.778,-0.864661
50.41,348.795,-0.864694
50.4117,348.812,-0.864737
50.4133,348.829,-0.864789
50.415,348.845,-0.864841
50.4167,348.862,-0.864898
50.4183,348.878,-0.864955
50.42,348.895,-0.864996
50.4217,348.911,-0.865041
50.4233,348.928,-0.865087
50.425,348.945,-0.865135
50.4267,348.962,-0.86518
50.4283,348.978,-0.865222
50.43,348.995,-0.865264
50.4317,349.011,-0.865308
50.4333,349.028,-0.865342
50.435,349.045,-0.865371
50.4367,349.061,-0.865399
50.4383,349.078,-0.865418
50.44,349.094,-0.865427
50.4417,349.111,-0.865438
50.4433,349.128,-0.86545
50.445,349.144,-0.865472
50.4467,349.161,-0.865495
50.4483,349.178,-0.865518
50.45,349.194,-0.865542
50.4517,349.211,-0.86556
50.4533,349.228,-0.865589
50.455,349.244,-0.865617
50.4567,349.261,-0.865635
50.4583,349.277,-0.865651
50.46,349.294,-0.865668
50.4617,349.31,-0.865681
50.4633,349.327,-0.865692
50.465,349.344,-0.865707
50.4667,349.361,-0.865721
50.4683,349.377,-0.865745
50.47,349.394,-0.865769
50.4717,349.411,-0.8658
50.4733,349.427,-0.865838
50.475,349.444,-0.865881
50.4767,349.461,-0.865926
50.4783,349.477,-0.865966
50.48,349.494,-0.865999
50.4817,349.511,-0.866026
50.4833,349.527,-0.866042
50.485,349.544,-0.866057
50.4867,349.561,-0.866073
50.4883,349.577,-0.86609
50.49,349.594,-0.866112
50.4917,349.611,-0.866144
50.4933,349.627,-0.866174
50.495,349.644,-0.866206
50.4967,349.661,-0.866241
50.4983,349.677,-0.866275
50.5,349.694,-0.866317
50.5017,349.71,-0.866356
50.5033,349.727,-0.866389
50.505,349.743,-0.866428
50.5067,349.76,-0.866477
50.5083,349.777,-0.86653
50.51,349.794,-0.866586
50.5117,349.81,-0.866641
50.5133,349.827,-0.866694
50.515,349.843,-0.866736
50.5167,349.86,-0.866758
50.5183,349.876,-0.866775
50.52,349.893,-0.866778
50.5217,349.91,-0.866781
50.5233,349.927,-0.866789
50.525,349.943,-0.866807
50.5267,349.96,-0.866824
50.5283,349.977,-0.866849
50.53,349.993,-0.86688
50.5317,350.01,-0.866917
50.5333,350.027,-0.866956
50.535,350.043,-0.866996
50.5367,350.06,-0.867043
50.5383,350.077,-0.867087
50.54,350.093,-0.867133
50.5417,350.109,-0.867186
50.5433,350.126,-0.867244
50.545,350.143,-0.867303
50.5467,350.16,-0.867359
50.5483,350.176,-0.867407
50.55,350.193,-0.867443
50.5517,350.21,-0.867465
50.5533,350.227,-0.867475
50.555,350.243,-0.867481
50.5567,350.26,-0.867482
50.5583,350.277,-0.867478
50.56,350.293,-0.867472
50.5617,350.31,-0.867475
50.5633,350.326,-0.867489
50.565,350.343,-0.867507
50.5667,350.36,-0.867532
50.5683,350.376,-0.867566
50.57,350.393,-0.867607
50.5717,350.41,-0.867649
50.5733,350.426,-0.867699
50.575,350.443,-0.867748
50.5767,350.459,-0.867793
50.5783,350.476,-0.867829
50.58,350.492,-0.867859
50.5817,350.509,-0.867896
50.5833,350.526,-0.867944
50.585,350.543,-0.867988
50.5867,350.559,-0.868029
50.5883,350.576,-0.86807
50.59,350.593,-0.868113
50.5917,350.609,-0.86815
50.5933,350.626,-0.86819
50.595,350.642,-0.868233
50.5967,350.659,-0.868274
50.5983,350.676,-0.868314
50.6,350.693,-0.868353
50.6017,350.71,-0.8684
50.6033,350.726,-0.868448
50.605,350.743,-0.868488
50.6067,350.759,-0.868528
50.6083,350.776,-0.868563
50.61,350.792,-0.868588
50.6117,350.809,-0.868609
50.6133,350.826,-0.868629
50.615,350.842,-0.868641
50.6167,350.859,-0.868655
50.6183,350.875,-0.868671
50.62,350.893,-0.868685
50.6217,350.909,-0.868694
50.6233,350.926,-0.868697
50.625,350.943,-0.868708
50.6267,350.959,-0.868727
50.6283,350.976,-0.868746
50.63,350.993,-0.868776
50.6317,351.009,-0.868817
50.6333,351.026,-0.868858
50.635,351.042,-0.868905
50.6367,351.059,-0.868957
50.6383,351.075,-0.868995
50.64,351.092,-0.869037
50.6417,351.108,-0.869079
50.6433,351.125,-0.869112
50.645,351.142,-0.869135
50.6467,351.159,-0.869145
50.6483,351.175,-0.869156
50.65,351.192,-0.869176
50.6517,351.209,-0.869193
50.6533,351.225,-0.869214
50.655,351.242,-0.869244
50.6567,351.259,-0.86927
50.6583,351.275,-0.8693
50.66,351.292,-0.869328
50.6617,351.308,-0.869358
50.6633,351.325,-0.869394
50.665,351.342,-0.869434
50.6667,351.358,-0.869472
50.6683,351.375,-0.869507
50.67,351.391,-0.869544
50.6717,351.408,-0.869588
50.6733,351.425,-0.869636
50.675,351.442,-0.869682
50.6767,351.458,-0.869726
50.6783,351.475,-0.869771
50.68,351.492,-0.869815
50.6817,351.508,-0.869859
50.6833,351.525,-0.86989
50.685,351.542,-0.869918
50.6867,351.559,-0.869942
50.6883,351.575,-0.869958
50.69,351.591,-0.869977
50.6917,351.608,-0.869994
50.6933,351.625,-0.870016
50.695,351.642,-0.870036
50.6967,351.658,-0.870062
50.6983,351.675,-0.870094
50.7,351.692,-0.87012
50.7017,351.709,-0.870141
50.7033,351.725,-0.870154
50.705,351.742,-0.870171
50.7067,351.758,-0.870189
50.7083,351.775,-0.870212
50.71,351.791,-0.870246
50.7117,351.808,-0.870279
50.7133,351.824,-0.870311
50.715,351.841,-0.870344
50.7167,351.858,-0.87039
50.7183,351.874,-0.870431
50.72,351.891,-0.870465
50.7217,351.908,-0.870493
50.7233,351.925,-0.870519
50.725,351.942,-0.87055
50.7267,351.958,-0.87059
50.7283,351.975,-0.870636
50.73,351.991,-0.870684
50.7317,352.008,-0.870729
50.7333,352.025,-0.87077
50.735,352.042,-0.870812
50.7367,352.058,-0.870854
50.7383,352.075,-0.870891
50.74,352.091,-0.870921
50.7417,352.108,-0.87095
50.7433,352.125,-0.870981
50.745,352.141,-0.871006
50.7467,352.158,-0.871023
50.7483,352.175,-0.871044
50.75,352.191,-0.871062
50.7517,352.208,-0.871087
50.7533,352.225,-0.87112
50.755,352.242,-0.871161
50.7567,352.258,-0.871211
50.7583,352.275,-0.871267
50.76,352.292,-0.871322
50.7617,352.308,-0.871376
50.7633,352.325,-0.871429
50.765,352.341,-0.871476
50.7667,352.358,-0.871514
50.7683,352.375,-0.871544
50.77,352.391,-0.871571
50.7717,352.408,-0.871595
50.7733,352.424,-0.871619
50.775,352.441,-0.871644
50.7767,352.458,-0.871671
50.7783,352.475,-0.871704
50.78,352.492,-0.871732
50.7817,352.508,-0.871762
50.7833,352.525,-0.871782
50.785,352.542,-0.871803
50.7867,352.558,-0.871819
50.7883,352.575,-0.871838
50.79,352.591,-0.871867
50.7917,352.608,-0.871903
50.7933,352.624,-0.871945
50.795,352.641,-0.871986
50.7967,352.658,-0.872021
50.7983,352.674,-0.872052
50.8,352.691,-0.872087
50.8017,352.708,-0.872122
50.8033,352.725,-0.872156
50.805,352.741,-0.87219
50.8067,352.758,-0.872223
50.8083,352.775,-0.872256
50.81,352.791,-0.872277
50.8117,352.808,-0.872292
50.8133,352.825,-0.872299
50.815,352.841,-0.872297
50.8167,352.858,-0.872301
50.8183,352.874,-0.872296
50.82,352.891,-0.872291
50.8217,352.908,-0.872294
50.8233,352.924,-0.8723
50.825,352.941,-0.872309
50.8267,352.958,-0.872327
50.8283,352.974,-0.87234
50.83,352.991,-0.872363
50.8317,353.008,-0.872386
50.8333,353.024,-0.872409
50.835,353.041,-0.87244
50.8367,353.057,-0.87247
50.8383,353.074,-0.872502
50.84,353.091,-0.872532
50.8417,353.108,-0.872574
50.8433,353.124,-0.872626
50.845,353.141,-0.872683
50.8467,353.157,-0.872764
50.8483,353.174,-0.872832
50.85,353.191,-0.872888
50.8517,353.207,-0.872941
50.8533,353.224,-0.872985
50.855,353.241,-0.873022
50.8567,353.257,-0.873043
50.8583,353.274,-0.873061
50.86,353.29,-0.873069
50.8617,353.307,-0.87307
50.8633,353.324,-0.873069
50.865,353.341,-0.873068
50.8667,353.357,-0.873072
50.8683,353.374,-0.873081
50.87,353.39,-0.873095
50.8717,353.407,-0.873119
50.8733,353.424,-0.873145
50.875,353.44,-0.873174
50.8767,353.457,-0.87321
50.8783,353.474,-0.873248
50.88,353.49,-0.873293
50.8817,353.507,-0.87334
50.8833,353.524,-0.873392
50.885,353.54,-0.873439
50.8867,353.557,-0.873482
50.8883,353.574,-0.873517
50.89,353.59,-0.873544
50.8917,353.607,-0.873577
50.8933,353.624,-0.87361
50.895,353.64,-0.873638
50.8967,353.657,-0.873654
50.8983,353.674,-0.873678
50.9,353.69,-0.873705
50.9017,353.707,-0.873729
50.9033,353.723,-0.873749
50.905,353.74,-0.873766
50.9067,353.757,-0.873779
50.9083,353.773,-0.8738
50.91,353.79,-0.873822
50.9117,353.807,-0.873844
50.9133,353.823,-0.873862
50.915,353.839,-0.873879
50.9167,353.856,-0.873911
50.9183,353.873,-0.87395
50.92,353.889,-0.87399
50.9217,353.906,-0.874031
50.9233,353.923,-0.874078
50.925,353.94,-0.874123
50.9267,353.956,-0.874173
50.9283,353.973,-0.874216
50.93,353.99,-0.874249
50.9317,354.006,-0.874274
50.9333,354.023,-0.874283
50.935,354.04,-0.874291
50.9367,354.056,-0.874302
50.9383,354.073,-0.874308
50.94,354.09,-0.87432
50.9417,354.107,-0.874345
50.9433,354.123,-0.874377
50.945,354.14,-0.87442
50.9467,354.156,-0.874456
50.9483,354.173,-0.874489
50.95,354.189,-0.874522
50.9517,354.206,-0.874558
50.9533,354.222,-0.874589
50.955,354.239,-0.874628
50.9567,354.256,-0.87467
50.9583,354.273,-0.87471
50.96,354.289,-0.874749
50.9617,354.306,-0.874796
50.9633,354.322,-0.874851
50.965,354.339,-0.874904
50.9667,354.356,-0.874942
50.9683,354.372,-0.874975
50.97,354.389,-0.875006
50.9717,354.406,-0.875031
50.9733,354.423,-0.875049
50.975,354.439,-0.875062
50.9767,354.456,-0.875083
50.9783,354.473,-0.875107
50.98,354.489,-0.875136
50.9817,354.506,-0.875172
50.9833,354.522,-0.875209
50.985,354.539,-0.875256
50.9867,354.556,-0.875297
50.9883,354.572,-0.875337
50.99,354.589,-0.875377
50.9917,354.606,-0.87542
50.9933,354.622,-0.87545
50.995,354.639,-0.875481
50.9967,354.656,-0.875517
50.9983,354.672,-0.875552
51,354.689,-0.875585
51.0017,354.706,-0.875612
51.0033,354.723,-0.875636
51.005,354.739,-0.875663
51.0067,354.756,-0.875694
51.0083,354.772,-0.875728
51.01,354.789,-0.87576
51.0117,354.806,-0.875789
51.0133,354.822,-0.87581
51.015,354.839,-0.875837
51.0167,354.856,-0.87587
51.0183,354.872,-0.875911
51.02,354.889,-0.875949
51.0217,354.905,-0.875978
51.0233,354.923,-0.876007
51.025,354.939,-0.876036
51.0267,354.956,-0.876069
51.0283,354.972,-0.8761
51.03,354.989,-0.876124
51.0317,355.006,-0.876139
51.0333,355.022,-0.876167
51.035,355.039,-0.876201
51.0367,355.055,-0.876242
51.0383,355.072,-0.876279
51.04,355.089,-0.876324
51.0417,355.105,-0.876375
51.0433,355.122,-0.876428
51.045,355.139,-0.876481
51.0467,355.155,-0.876531
51.0483,355.172,-0.876585
51.05,355.189,-0.876634
51.0517,355.206,-0.876681
51.0533,355.223,-0.876726
51.055,355.239,-0.876766
51.0567,355.256,-0.876803
51.0583,355.272,-0.876841
51.06,355.289,-0.876873
51.0617,355.306,-0.876896
51.0633,355.323,-0.876926
51.065,355.339,-0.87696
51.0667,355.356,-0.876991
51.0683,355.373,-0.877018
51.07,355.389,-0.877046
51.0717,355.406,-0.87707
51.0733,355.422,-0.877088
51.075,355.439,-0.877115
51.0767,355.456,-0.877136
51.0783,355.472,-0.877164
51.08,355.488,-0.877192
51.0817,355.505,-0.877223
51.0833,355.522,-0.877263
51.085,355.538,-0.877312
51.0867,355.555,-0.877356
51.0883,355.572,-0.877404
51.09,355.589,-0.877457
51.0917,355.606,-0.877509
51.0933,355.622,-0.877552
51.095,355.639,-0.877603
51.0967,355.656,-0.877653
51.0983,355.672,-0.877694
51.1,355.689,-0.87773
51.1017,355.705,-0.877766
51.1033,355.722,-0.877805
51.105,355.738,-0.877837
51.1067,355.755,-0.877866
51.1083,355.771,-0.877901
51.11,355.788,-0.877935
51.1117,355.805,-0.877962
51.1133,355.822,-0.877991
51.115,355.839,-0.87802
51.1167,355.855,-0.878049
51.1183,355.872,-0.878074
51.12,355.888,-0.878098
51.1217,355.905,-0.878126
51.1233,355.922,-0.878156
51.125,355.939,-0.878187
51.1267,355.956,-0.878214
51.1283,355.972,-0.878233
51.13,355.988,-0.878248
51.1317,356.005,-0.878267
51.1333,356.022,-0.878281
51.135,356.039,-0.878296
51.1367,356.055,-0.878318
51.1383,356.072,-0.878346
51.14,356.089,-0.878378
51.1417,356.106,-0.878411
51.1433,356.122,-0.878452
51.145,356.139,-0.878497
51.1467,356.155,-0.87854
51.1483,356.172,-0.878583
51.15,356.189,-0.878618
51.1517,356.206,-0.878648
51.1533,356.222,-0.878685
51.155,356.239,-0.87873
51.1567,356.256,-0.878777
51.1583,356.272,-0.878821
51.16,356.289,-0.878859
51.1617,356.306,-0.878906
51.1633,356.322,-0.878949
51.165,356.339,-0.878986
51.1667,356.355,-0.879021
51.1683,356.372,-0.87905
51.17,356.388,-0.879072
51.1717,356.405,-0.879094
51.1733,356.422,-0.879116
51.175,356.439,-0.87913
51.1767,356.455,-0.879142
51.1783,356.472,-0.87915
51.18,356.489,-0.879161
51.1817,356.505,-0.879169
51.1833,356.522,-0.879184
51.185,356.538,-0.879207
51.1867,356.555,-0.879233
51.1883,356.572,-0.87926
51.19,356.588,-0.879295
51.1917,356.605,-0.879333
51.1933,356.622,-0.879372
51.195,356.638,-0.879414
51.1967,356.655,-0.879465
51.1983,356.671,-0.879513
51.2,356.688,-0.87956
51.2017,356.705,-0.879611
51.2033,356.721,-0.879655
51.205,356.738,-0.879696
51.2067,356.755,-0.879729
51.2083,356.771,-0.879753
51.21,356.788,-0.879768
51.2117,356.805,-0.87977
51.2133,356.821,-0.879766
51.215,356.838,-0.879756
51.2167,356.855,-0.879734
51.2183,356.872,-0.879719
51.22,356.888,-0.879704
51.2217,356.905,-0.879695
51.2233,356.922,-0.87969
51.225,356.938,-0.879697
51.2267,356.955,-0.87971
51.2283,356.972,-0.879728
51.23,356.989,-0.879752
51.2317,357.005,-0.879783
51.2333,357.021,-0.87981
51.235,357.038,-0.879832
51.2367,357.055,-0.879841
51.2383,357.072,-0.879848
51.24,357.088,-0.879866
51.2417,357.105,-0.879881
51.2433,357.122,-0.87989
51.245,357.138,-0.879909
51.2467,357.155,-0.87993
51.2483,357.172,-0.879967
51.25,357.188,-0.880014
51.2517,357.205,-0.880057
51.2533,357.221,-0.880099
51.255,357.238,-0.880134
51.2567,357.255,-0.880167
51.2583,357.271,-0.880202
51.26,357.288,-0.880234
51.2617,357.304,-0.880267
51.2633,357.321,-0.880301
51.265,357.338,-0.880333
51.2667,357.354,-0.880371
51.2683,357.371,-0.880408
51.27,357.388,-0.880439
51.2717,357.405,-0.880463
51.2733,357.421,-0.880489
51.275,357.438,-0.880507
51.2767,357.454,-0.880524
51.2783,357.471,-0.880539
51.28,357.488,-0.880563
51.2817,357.505,-0.88059
51.2833,357.521,-0.880619
51.285,357.538,-0.880655
51.2867,357.554,-0.880691
51.2883,357.571,-0.880729
51.29,357.588,-0.880759
51.2917,357.605,-0.880789
51.2933,357.621,-0.880816
51.295,357.638,-0.880843
51.2967,357.655,-0.880856
51.2983,357.671,-0.880863
51.3,357.687,-0.880868
51.3017,357.704,-0.880864
51.3033,357.721,-0.880868
51.305,357.738,-0.880879
51.3067,357.754,-0.880893
51.3083,357.771,-0.880908
51.31,357.788,-0.880927
51.3117,357.804,-0.880958
51.3133,357.821,-0.880985
51.315,357.838,-0.881016
51.3167,357.854,-0.881044
51.3183,357.871,-0.881071
51.32,357.888,-0.881092
51.3217,357.904,-0.881121
51.3233,357.921,-0.881145
51.325,357.937,-0.881168
51.3267,357.954,-0.881195
51.3283,357.971,-0.881231
51.33,357.987,-0.881266
51.3317,358.004,-0.881299
51.3333,358.02,-0.881331
51.335,358.037,-0.881366
51.3367,358.054,-0.881397
51.3383,358.07,-0.881424
51.34,358.087,-0.88146
51.3417,358.104,-0.881504
51.3433,358.12,-0.881545
51.345,358.137,-0.881591
51.3467,358.154,-0.881645
51.3483,358.17,-0.881691
51.35,358.187,-0.881737
51.3517,358.204,-0.881766
51.3533,358.22,-0.881793
51.355,358.237,-0.881812
51.3567,358.254,-0.881828
51.3583,358.27,-0.88184
51.36,358.287,-0.881846
51.3617,358.304,-0.881851
51.3633,358.32,-0.881849
51.365,358.337,-0.881859
51.3667,358.354,-0.881869
51.3683,358.37,-0.881887
51.37,358.387,-0.881908
51.3717,358.403,-0.88193
51.3733,358.42,-0.881961
51.375,358.437,-0.881993
51.3767,358.454,-0.882027
51.3783,358.47,-0.88205
51.38,358.487,-0.882065
51.3817,358.503,-0.882076
51.3833,358.52,-0.882083
51.385,358.537,-0.882094
51.3867,358.553,-0.882112
51.3883,358.569,-0.882125
51.39,358.587,-0.88214
51.3917,358.603,-0.882146
51.3933,358.62,-0.882155
51.395,358.637,-0.882164
51.3967,358.653,-0.882181
51.3983,358.67,-0.8822
51.4,358.686,-0.882212
51.4017,358.703,-0.882233
51.4033,358.72,-0.882252
51.405,358.736,-0.882272
51.4067,358.753,-0.8823
51.4083,358.77,-0.88233
51.41,358.786,-0.882355
51.4117,358.803,-0.88237
51.4133,358.819,-0.88238
51.415,358.836,-0.882393
51.4167,358.852,-0.882401
51.4183,358.869,-0.882401
51.42,358.886,-0.882402
51.4217,358.903,-0.882401
51.4233,358.919,-0.882411
51.425,358.936,-0.882429
51.4267,358.953,-0.882455
51.4283,358.969,-0.882485
51.43,358.986,-0.882515
51.4317,359.002,-0.882548
51.4333,359.019,-0.882591
51.435,359.035,-0.882634
51.4367,359.052,-0.882679
51.4383,359.069,-0.882722
51.44,359.085,-0.882758
51.4417,359.102,-0.882789
51.4433,359.119,-0.882815
51.445,359.136,-0.882834
51.4467,359.152,-0.882852
51.4483,359.168,-0.882869
51.45,359.185,-0.882879
51.4517,359.202,-0.88289
51.4533,359.219,-0.882908
51.455,359.236,-0.882933
51.4567,359.252,-0.882951
51.4583,359.269,-0.882968
51.46,359.285,-0.882995
51.4617,359.302,-0.883029
51.4633,359.319,-0.883057
51.465,359.335,-0.883078
51.4667,359.352,-0.883096
51.4683,359.368,-0.88311
51.47,359.385,-0.883123
51.4717,359.402,-0.883135
51.4733,359.418,-0.883143
51.475,359.435,-0.883148
51.4767,359.452,-0.88316
51.4783,359.469,-0.883175
51.48,359.485,-0.883195
51.4817,359.502,-0.883225
51.4833,359.518,-0.883249
51.485,359.535,-0.883277
51.4867,359.552,-0.883299
51.4883,359.569,-0.883322
51.49,359.585,-0.883349
51.4917,359.602,-0.883377
51.4933,359.618,-0.88341
51.495,359.635,-0.883442
51.4967,359.652,-0.883476
51.4983,359.668,-0.883503
51.5,359.685,-0.883541
51.5017,359.702,-0.883586
51.5033,359.718,-0.883632
51.505,359.735,-0.883669
51.5067,359.752,-0.883693
51.5083,359.768,-0.883719
51.51,359.785,-0.883736
51.5117,359.802,-0.883749
51.5133,359.818,-0.883772
51.515,359.834,-0.883796
51.5167,359.851,-0.883817
51.5183,359.868,-0.883837
51.52,359.885,-0.883856
51.5217,359.901,-0.883874
51.5233,359.918,-0.883883
51.525,359.935,-0.883884
51.5267,359.951,-0.883881
51.5283,359.968,-0.883878
51.53,359.984,-0.883873
51.5317,360.001,-0.883883
51.5333,360.018,-0.883898
51.535,360.034,-0.883922
51.5367,360.051,-0.883959
51.5383,360.068,-0.884009
51.54,360.084,-0.884091
51.5417,360.102,-0.884172
51.5433,360.118,-0.884222
51.545,360.135,-0.884268
51.5467,360.151,-0.884314
51.5483,360.168,-0.884349
51.55,360.184,-0.884368
51.5517,360.201,-0.88438
51.5533,360.217,-0.884384
51.555,360.234,-0.88439
51.5567,360.251,-0.884392
51.5583,360.268,-0.884398
51.56,360.284,-0.88441
51.5617,360.301,-0.884423
51.5633,360.317,-0.88443
51.565,360.335,-0.884446
51.5667,360.351,-0.884469
51.5683,360.368,-0.88449
51.57,360.384,-0.884507
51.5717,360.401,-0.88453
51.5733,360.418,-0.884561
51.575,360.434,-0.884591
51.5767,360.451,-0.88462
51.5783,360.468,-0.884654
51.58,360.484,-0.88468
51.5817,360.501,-0.884703
51.5833,360.518,-0.884729
51.585,360.534,-0.884743
51.5867,360.551,-0.884759
51.5883,360.567,-0.884774
51.59,360.584,-0.884791
51.5917,360.601,-0.884808
51.5933,360.617,-0.884827
51.595,360.634,-0.884843
51.5967,360.651,-0.884866
51.5983,360.667,-0.884884
51.6,360.684,-0.884907
51.6017,360.701,-0.884927
51.6033,360.718,-0.88494
51.605,360.734,-0.884953
51.6067,360.751,-0.884974
51.6083,360.768,-0.885001
51.61,360.784,-0.885024
51.6117,360.801,-0.885042
51.6133,360.817,-0.885055
51.615,360.834,-0.885069
51.6167,360.851,-0.885088
51.6183,360.867,-0.885102
51.62,360.884,-0.885112
51.6217,360.901,-0.885124
51.6233,360.917,-0.885134
51.625,360.934,-0.885156
51.6267,360.951,-0.885179
51.6283,360.967,-0.885204
51.63,360.984,-0.885231
51.6317,361.001,-0.885262
51.6333,361.017,-0.885286
51.635,361.034,-0.885311
51.6367,361.051,-0.885329
51.6383,361.068,-0.885341
51.64,361.084,-0.885357
51.6417,361.101,-0.885377
51.6433,361.118,-0.885405
51.645,361.134,-0.885432
51.6467,361.151,-0.885457
51.6483,361.167,-0.885483
51.65,361.184,-0.885516
51.6517,361.2,-0.885549
51.6533,361.217,-0.885576
51.655,361.234,-0.885606
51.6567,361.25,-0.885634
51.6583,361.267,-0.885658
51.66,361.284,-0.885674
51.6617,361.3,-0.885691
51.6633,361.317,-0.885712
51.665,361.333,-0.885734
51.6667,361.35,-0.885749
51.6683,361.367,-0.885764
51.67,361.384,-0.885786
51.6717,361.4,-0.88581
51.6733,361.417,-0.885843
51.675,361.433,-0.885881
51.6767,361.45,-0.885919
51.6783,361.466,-0.885956
51.68,361.483,-0.885988
51.6817,361.5,-0.886021
51.6833,361.517,-0.886068
51.685,361.533,-0.886107
51.6867,361.55,-0.886141
51.6883,361.566,-0.886171
51.69,361.583,-0.886203
51.6917,361.6,-0.886236
51.6933,361.617,-0.886272
51.695,361.633,-0.886305
51.6967,361.65,-0.886325
51.6983,361.667,-0.886333
51.7,361.683,-0.886344
51.7017,361.7,-0.886363
51.7033,361.717,-0.886382
51.705,361.733,-0.886397
51.7067,361.749,-0.886414
51.7083,361.766,-0.886438
51.71,361.783,-0.88647
51.7117,361.799,-0.886501
51.7133,361.816,-0.886539
51.715,361.832,-0.886575
51.7167,361.849,-0.886606
51.7183,361.866,-0.886634
51.72,361.883,-0.886668
51.7217,361.9,-0.886696
51.7233,361.916,-0.886714
51.725,361.933,-0.886732
51.7267,361.949,-0.886748
51.7283,361.966,-0.886764
51.73,361.983,-0.886778
51.7317,362,-0.88679
51.7333,362.016,-0.886793
51.735,362.033,-0.886788
51.7367,362.049,-0.886795
51.7383,362.066,-0.886802
51.74,362.082,-0.886801
51.7417,362.099,-0.88681
51.7433,362.116,-0.886818
51.745,362.132,-0.886834
51.7467,362.149,-0.886856
51.7483,362.166,-0.886875
51.75,362.182,-0.886896
51.7517,362.199,-0.886909
51.7533,362.216,-0.886924
51.755,362.232,-0.886938
51.7567,362.249,-0.886948
51.7583,362.266,-0.886953
51.76,362.282,-0.886957
51.7617,362.299,-0.88696
51.7633,362.315,-0.886959
51.765,362.332,-0.886953
51.7667,362.349,-0.886952
51.7683,362.366,-0.886956
51.77,362.382,-0.886957
51.7717,362.399,-0.886962
51.7733,362.415,-0.886974
51.775,362.432,-0.886988
51.7767,362.448,-0.887011
51.7783,362.465,-0.887045
51.78,362.482,-0.887084
51.7817,362.499,-0.887106
51.7833,362.515,-0.887125
51.785,362.532,-0.887131
51.7867,362.548,-0.887138
51.7883,362.565,-0.887151
51.79,362.581,-0.887159
51.7917,362.598,-0.887169
51.7933,362.615,-0.887173
51.795,362.631,-0.887185
51.7967,362.648,-0.887206
51.7983,362.665,-0.887228
51.8,362.681,-0.887254
51.8017,362.698,-0.887271
51.8033,362.714,-0.887286
51.805,362.731,-0.887302
51.8067,362.748,-0.887324
51.8083,362.765,-0.887354
51.81,362.781,-0.887381
51.8117,362.798,-0.887406
51.8133,362.815,-0.887428
51.815,362.831,-0.887451
51.8167,362.848,-0.887468
51.8183,362.864,-0.887481
51.82,362.881,-0.88749
51.8217,362.897,-0.887494
51.8233,362.914,-0.887488
51.825,362.931,-0.887481
51.8267,362.948,-0.887475
51.8283,362.964,-0.887475
51.83,362.981,-0.887478
51.8317,362.998,-0.887487
51.8333,363.014,-0.887509
51.835,363.031,-0.887531
51.8367,363.048,-0.887566
51.8383,363.064,-0.887598
51.84,363.081,-0.887627
51.8417,363.097,-0.887646
51.8433,363.114,-0.887664
51.845,363.13,-0.887679
51.8467,363.147,-0.887697
51.8483,363.164,-0.887714
51.85,363.181,-0.887729
51.8517,363.197,-0.88774
51.8533,363.214,-0.887748
51.855,363.23,-0.887755
51.8567,363.247,-0.887759
51.8583,363.264,-0.887759
51.86,363.281,-0.887761
51.8617,363.298,-0.88777
51.8633,363.314,-0.887791
51.865,363.331,-0.887812
51.8667,363.348,-0.887844
51.8683,363.365,-0.887878
51.87,363.381,-0.88791
51.8717,363.398,-0.887946
51.8733,363.414,-0.887986
51.875,363.43,-0.888027
51.8767,363.447,-0.888059
51.8783,363.464,-0.888089
51.88,363.48,-0.888112
51.8817,363.497,-0.88813
51.8833,363.514,-0.888135
51.885,363.53,-0.888136
51.8867,363.547,-0.888131
51.8883,363.564,-0.888101
51.89,363.58,-0.88807
51.8917,363.597,-0.888049
51.8933,363.613,-0.888037
51.895,363.63,-0.888032
51.8967,363.646,-0.888033
51.8983,363.663,-0.888049
51.9,363.68,-0.888075
51.9017,363.697,-0.888114
51.9033,363.713,-0.888154
51.905,363.73,-0.88819
51.9067,363.747,-0.888226
51.9083,363.763,-0.888252
51.91,363.78,-0.888271
51.9117,363.796,-0.888296
51.9133,363.813,-0.888313
51.915,363.83,-0.88832
51.9167,363.846,-0.88833
51.9183,363.863,-0.888334
51.92,363.88,-0.888342
51.9217,363.897,-0.888357
51.9233,363.913,-0.888376
51.925,363.93,-0.888402
51.9267,363.946,-0.888441
51.9283,363.963,-0.888474
51.93,363.98,-0.888507
51.9317,363.996,-0.888536
51.9333,364.013,-0.888562
51.935,364.029,-0.888585
51.9367,364.046,-0.8886
51.9383,364.063,-0.888604
51.94,364.079,-0.888606
51.9417,364.095,-0.888609
51.9433,364.113,-0.888612
51.945,364.129,-0.888609
51.9467,364.146,-0.888594
51.9483,364.163,-0.888584
51.95,364.18,-0.888578
51.9517,364.197,-0.888579
51.9533,364.213,-0.88858
51.955,364.229,-0.888594
51.9567,364.246,-0.888614
51.9583,364.262,-0.888635
51.96,364.279,-0.888662
51.9617,364.296,-0.888688
51.9633,364.312,-0.8887
51.965,364.329,-0.888707
51.9667,364.346,-0.888711
51.9683,364.362,-0.888719
51.97,364.379,-0.888716
51.9717,364.396,-0.888719
51.9733,364.413,-0.888729
51.975,364.429,-0.888746
51.9767,364.446,-0.88877
51.9783,364.462,-0.888795
51.98,364.479,-0.888826
51.9817,364.496,-0.888855
51.9833,364.512,-0.888883
51.985,364.529,-0.888898
51.9867,364.545,-0.888898
51.9883,364.562,-0.888899
51.99,364.578,-0.888891
51.9917,364.595,-0.888883
51.9933,364.611,-0.888877
51.995,364.628,-0.888878
51.9967,364.645,-0.888891
51.9983,364.662,-0.888906
52,364.678,-0.888937
52.0017,364.695,-0.888979
52.0033,364.712,-0.889019
52.005,364.729,-0.889064
52.0067,364.745,-0.889101
52.0083,364.762,-0.889144
52.01,364.778,-0.889187
52.0117,364.795,-0.889224
52.0133,364.812,-0.889256
52.015,364.828,-0.889295
52.0167,364.845,-0.889324
52.0183,364.862,-0.889347
52.02,364.878,-0.889374
52.0217,364.895,-0.889401
52.0233,364.912,-0.889422
52.025,364.928,-0.889436
52.0267,364.945,-0.889448
52.0283,364.962,-0.889462
52.03,364.978,-0.88948
52.0317,364.994,-0.889491
52.0333,365.011,-0.889501
52.035,365.028,-0.889519
52.0367,365.044,-0.889531
52.0383,365.061,-0.889533
52.04,365.077,-0.88953
52.0417,365.094,-0.889524
52.0433,365.111,-0.889512
52.045,365.127,-0.889499
52.0467,365.144,-0.889482
52.0483,365.16,-0.889468
52.05,365.177,-0.889457
52.0517,365.194,-0.889453
52.0533,365.211,-0.88946
52.055,365.227,-0.889471
52.0567,365.244,-0.889489
52.0583,365.261,-0.88951
52.06,365.277,-0.889534
52.0617,365.294,-0.889554
52.0633,365.31,-0.889576
52.065,365.327,-0.889599
52.0667,365.344,-0.889618
52.0683,365.36,-0.88964
52.07,365.377,-0.889664
52.0717,365.393,-0.889683
52.0733,365.41,-0.889705
52.075,365.427,-0.889734
52.0767,365.443,-0.88976
52.0783,365.46,-0.88979
52.08,365.477,-0.889816
52.0817,365.494,-0.889834
52.0833,365.51,-0.889843
52.085,365.527,-0.889851
52.0867,365.544,-0.889859
52.0883,365.56,-0.889871
52.09,365.577,-0.889882
52.0917,365.593,-0.889893
52.0933,365.61,-0.889905
52.095,365.627,-0.889924
52.0967,365.644,-0.889944
52.0983,365.66,-0.889968
52.1,365.677,-0.889994
52.1017,365.693,-0.890009
52.1033,365.71,-0.890013
52.105,365.727,-0.890004
52.1067,365.743,-0.889997
52.1083,365.76,-0.889998
52.11,365.776,-0.889999
52.1117,365.793,-0.889995
52.1133,365.81,-0.889998
52.115,365.826,-0.890011
52.1167,365.843,-0.890028
52.1183,365.86,-0.890059
52.12,365.877,-0.8901
52.1217,365.894,-0.890139
52.1233,365.91,-0.890174
52.125,365.927,-0.890204
52.1267,365.943,-0.890226
52.1283,365.96,-0.890239
52.13,365.976,-0.890245
52.1317,365.993,-0.890252
52.1333,366.01,-0.890268
52.135,366.027,-0.89029
52.1367,366.043,-0.890314
52.1383,366.06,-0.890341
52.14,366.077,-0.890357
52.1417,366.093,-0.89038
52.1433,366.11,-0.89041
52.145,366.126,-0.890432
52.1467,366.143,-0.890449
52.1483,366.16,-0.890455
52.15,366.176,-0.890455
52.1517,366.193,-0.89045
52.1533,366.208,-0.890456
52.155,366.225,-0.890463
52.1567,366.242,-0.890477
52.1583,366.258,-0.8905
52.16,366.275,-0.890524
52.1617,366.292,-0.890562
52.1633,366.309,-0.890598
52.165,366.325,-0.890647
52.1667,366.342,-0.890725
52.1683,366.359,-0.890772
52.17,366.375,-0.890821
52.1717,366.392,-0.890875
52.1733,366.409,-0.890919
52.175,366.425,-0.890965
52.1767,366.442,-0.890998
52.1783,366.459,-0.891034
52.18,366.475,-0.891061
52.1817,366.492,-0.891072
52.1833,366.509,-0.891075
52.185,366.525,-0.891074
52.1867,366.542,-0.891071
52.1883,366.558,-0.891066
52.19,366.575,-0.89107
52.1917,366.592,-0.891073
52.1933,366.608,-0.891079
52.195,366.625,-0.891087
52.1967,366.642,-0.891099
52.1983,366.658,-0.891104
52.2,366.675,-0.891111
52.2017,366.692,-0.891122
52.2033,366.708,-0.891131
52.205,366.725,-0.891144
52.2067,366.741,-0.89115
52.2083,366.758,-0.891159
52.21,366.775,-0.891166
52.2117,366.791,-0.891175
52.2133,366.807,-0.891179
52.215,366.825,-0.891178
52.2167,366.841,-0.891179
52.2183,366.858,-0.891178
52.22,366.875,-0.891178
52.2217,366.891,-0.891174
52.2233,366.908,-0.891173
52.225,366.924,-0.891175
52.2267,366.941,-0.891185
52.2283,366.958,-0.891206
52.23,366.974,-0.891227
52.2317,366.991,-0.891249
52.2333,367.008,-0.89127
52.235,367.024,-0.891301
52.2367,367.041,-0.891338
52.2383,367.058,-0.891362
52.24,367.075,-0.891381
52.2417,367.091,-0.891408
52.2433,367.108,-0.891431
52.245,367.125,-0.891457
52.2467,367.141,-0.891488
52.2483,367.158,-0.891519
52.25,367.175,-0.891544
52.2517,367.191,-0.891559
52.2533,367.208,-0.891574
52.255,367.224,-0.891593
52.2567,367.241,-0.891607
52.2583,367.257,-0.891622
52.26,367.274,-0.891634
52.2617,367.291,-0.891652
52.2633,367.308,-0.891657
52.265,367.324,-0.891661
52.2667,367.341,-0.891661
52.2683,367.358,-0.891658
52.27,367.374,-0.891654
52.2717,367.391,-0.891641
52.2733,367.408,-0.891634
52.275,367.424,-0.891641
52.2767,367.441,-0.891646
52.2783,367.458,-0.89166
52.28,367.474,-0.891678
52.2817,367.491,-0.891695
52.2833,367.507,-0.891715
52.285,367.524,-0.891741
52.2867,367.541,-0.89177
52.2883,367.558,-0.891799
52.29,367.574,-0.891822
52.2917,367.591,-0.891853
52.2933,367.608,-0.891881
52.295,367.624,-0.891902
52.2967,367.641,-0.89193
52.2983,367.658,-0.891962
52.3,367.674,-0.891989
52.3017,367.691,-0.892019
52.3033,367.707,-0.892052
52.305,367.724,-0.892081
52.3067,367.741,-0.892109
52.3083,367.758,-0.892139
52.31,367.775,-0.892179
52.3117,367.791,-0.892221
52.3133,367.808,-0.892255
52.315,367.824,-0.892276
52.3167,367.841,-0.892302
52.3183,367.858,-0.892324
52.32,367.874,-0.892335
52.3217,367.891,-0.892342
52.3233,367.908,-0.892342
52.325,367.924,-0.892336
52.3267,367.941,-0.892337
52.3283,367.958,-0.892334
52.33,367.974,-0.892337
52.3317,367.991,-0.892341
52.3333,368.007,-0.892344
52.335,368.024,-0.892345
52.3367,368.041,-0.892339
52.3383,368.057,-0.892329
52.34,368.074,-0.892321
52.3417,368.091,-0.892321
52.3433,368.108,-0.892319
52.345,368.124,-0.892326
52.3467,368.141,-0.892333
52.3483,368.158,-0.892339
52.35,368.174,-0.89235
52.3517,368.191,-0.892371
52.3533,368.207,-0.892395
52.355,368.224,-0.892417
52.3567,368.241,-0.892439
52.3583,368.257,-0.892456
52.36,368.274,-0.892472
52.3617,368.29,-0.892489
52.3633,368.307,-0.892504
52.365,368.324,-0.892521
52.3667,368.34,-0.892534
52.3683,368.357,-0.89255
52.37,368.374,-0.892575
52.3717,368.391,-0.892602
52.3733,368.407,-0.89262
52.375,368.424,-0.892628
52.3767,368.44,-0.892639
52.3783,368.457,-0.89264
52.38,368.474,-0.892627
52.3817,368.49,-0.892605
52.3833,368.507,-0.892588
52.385,368.524,-0.892565
52.3867,368.54,-0.892545
52.3883,368.557,-0.892535
52.39,368.573,-0.892535
52.3917,368.59,-0.892543
52.3933,368.607,-0.892558
52.395,368.624,-0.892582
52.3967,368.64,-0.892606
52.3983,368.657,-0.892638
52.4,368.674,-0.892671
52.4017,368.69,-0.892696
52.4033,368.707,-0.89271
52.405,368.724,-0.892717
52.4067,368.74,-0.892723
52.4083,368.757,-0.892723
52.41,368.773,-0.892721
52.4117,368.79,-0.892708
52.4133,368.807,-0.892689
52.415,368.823,-0.892682
52.4167,368.84,-0.892671
52.4183,368.857,-0.892663
52.42,368.873,-0.892662
52.4217,368.89,-0.892669
52.4233,368.907,-0.892679
52.425,368.923,-0.892685
52.4267,368.94,-0.892695
52.4283,368.956,-0.892716
52.43,368.973,-0.892731
52.4317,368.99,-0.892752
52.4333,369.007,-0.892776
52.435,369.023,-0.892803
52.4367,369.04,-0.892824
52.4383,369.056,-0.892849
52.44,369.073,-0.892874
52.4417,369.09,-0.892895
52.4433,369.106,-0.892922
52.445,369.123,-0.89295
52.4467,369.139,-0.892983
52.4483,369.156,-0.893009
52.45,369.173,-0.893034
52.4517,369.19,-0.893065
52.4533,369.207,-0.893102
52.455,369.223,-0.893145
52.4567,369.24,-0.89317
52.4583,369.257,-0.893196
52.46,369.273,-0.893212
52.4617,369.29,-0.893223
52.4633,369.307,-0.893229
52.465,369.323,-0.893231
52.4667,369.34,-0.893224
52.4683,369.356,-0.893212
52.47,369.373,-0.893204
52.4717,369.39,-0.8932
52.4733,369.406,-0.893206
52.475,369.423,-0.893211
52.4767,369.439,-0.893217
52.4783,369.456,-0.893222
52.48,369.473,-0.89322
52.4817,369.489,-0.893215
52.4833,369.506,-0.893209
52.485,369.523,-0.893204
52.4867,369.54,-0.893195
52.4883,369.556,-0.893192
52.49,369.573,-0.893187
52.4917,369.59,-0.893178
52.4933,369.606,-0.893171
52.495,369.623,-0.893163
52.4967,369.64,-0.893163
52.4983,369.656,-0.893172
52.5,369.673,-0.893189
52.5017,369.69,-0.893215
52.5033,369.706,-0.893249
52.505,369.723,-0.893309
52.5067,369.74,-0.893382
52.5083,369.756,-0.893424
52.51,369.773,-0.893462
52.5117,369.79,-0.893491
52.5133,369.807,-0.893509
52.515,369.823,-0.893516
52.5167,369.84,-0.893512
52.5183,369.856,-0.893513
52.52,369.873,-0.893518
52.5217,369.889,-0.893524
52.5233,369.906,-0.893532
52.525,369.923,-0.89354
52.5267,369.94,-0.893536
52.5283,369.956,-0.893542
52.53,369.973,-0.893554
52.5317,369.99,-0.893563
52.5333,370.006,-0.893567
52.535,370.023,-0.89356
52.5367,370.04,-0.893559
52.5383,370.057,-0.893564
52.54,370.073,-0.89357
52.5417,370.09,-0.893583
52.5433,370.106,-0.893594
52.545,370.123,-0.893603
52.5467,370.14,-0.893621
52.5483,370.156,-0.89364
52.55,370.172,-0.89366
52.5517,370.189,-0.893681
52.5533,370.206,-0.893704
52.555,370.222,-0.893723
52.5567,370.239,-0.893737
52.5583,370.256,-0.893747
52.56,370.272,-0.893751
52.5617,370.289,-0.893755
52.5633,370.306,-0.893741
52.565,370.322,-0.893715
52.5667,370.339,-0.893688
52.5683,370.355,-0.893666
52.57,370.372,-0.893649
52.5717,370.389,-0.893632
52.5733,370.405,-0.893625
52.575,370.422,-0.893625
52.5767,370.439,-0.893638
52.5783,370.456,-0.893659
52.58,370.472,-0.893677
52.5817,370.489,-0.893697
52.5833,370.506,-0.893716
52.585,370.522,-0.893729
52.5867,370.538,-0.893738
52.5883,370.555,-0.893754
52.59,370.572,-0.893765
52.5917,370.588,-0.893779
52.5933,370.605,-0.89379
52.595,370.622,-0.893797
52.5967,370.639,-0.893811
52.5983,370.656,-0.893819
52.6,370.672,-0.893824
52.6017,370.689,-0.893837
52.6033,370.705,-0.893862
52.605,370.722,-0.893887
52.6067,370.738,-0.893912
52.6083,370.755,-0.89394
52.61,370.772,-0.893969
52.6117,370.789,-0.893992
52.6133,370.805,-0.894017
52.615,370.822,-0.894035
52.6167,370.839,-0.894044
52.6183,370.855,-0.894042
52.62,370.872,-0.894038
52.6217,370.888,-0.894033
52.6233,370.905,-0.894035
52.625,370.921,-0.89404
52.6267,370.938,-0.894048
52.6283,370.954,-0.894054
52.63,370.971,-0.894067
52.6317,370.988,-0.89408
52.6333,371.004,-0.894106
52.635,371.021,-0.894137
52.6367,371.038,-0.894159
52.6383,371.054,-0.894176
52.64,371.071,-0.894188
52.6417,371.088,-0.894189
52.6433,371.105,-0.894178
52.645,371.121,-0.894165
52.6467,371.138,-0.89415
52.6483,371.155,-0.894134
52.65,371.172,-0.894117
52.6517,371.188,-0.894107
52.6533,371.205,-0.894108
52.655,371.221,-0.894121
52.6567,371.238,-0.894147
52.6583,371.255,-0.894181
52.66,371.272,-0.894218
52.6617,371.288,-0.894256
52.6633,371.305,-0.894299
52.665,371.321,-0.894337
52.6667,371.338,-0.894366
52.6683,371.355,-0.894378
52.67,371.372,-0.894384
52.6717,371.388,-0.894385
52.6733,371.404,-0.894397
52.675,371.421,-0.894403
52.6767,371.438,-0.894403
52.6783,371.455,-0.894405
52.68,371.471,-0.894414
52.6817,371.488,-0.89443
52.6833,371.505,-0.894453
52.685,371.522,-0.894484
52.6867,371.538,-0.894513
52.6883,371.555,-0.894555
52.69,371.571,-0.894607
52.6917,371.588,-0.894644
52.6933,371.605,-0.89469
52.695,371.621,-0.894734
52.6967,371.638,-0.894758
52.6983,371.655,-0.894772
52.7,371.671,-0.894774
52.7017,371.688,-0.894774
52.7033,371.704,-0.894769
52.705,371.721,-0.89475
52.7067,371.738,-0.894735
52.7083,371.754,-0.894722
52.71,371.771,-0.894717
52.7117,371.788,-0.894719
52.7133,371.804,-0.894725
52.715,371.821,-0.894732
52.7167,371.838,-0.894741
52.7183,371.855,-0.894743
52.72,371.871,-0.894758
52.7217,371.888,-0.894767
52.7233,371.904,-0.89478
52.725,371.921,-0.894788
52.7267,371.938,-0.894787
52.7283,371.954,-0.894789
52.73,371.971,-0.894789
52.7317,371.988,-0.894784
52.7333,372.005,-0.894776
52.735,372.021,-0.894769
52.7367,372.038,-0.894767
52.7383,372.054,-0.894759
52.74,372.071,-0.894749
52.7417,372.087,-0.894741
52.7433,372.104,-0.894735
52.745,372.121,-0.894732
52.7467,372.137,-0.894736
52.7483,372.154,-0.89474
52.75,372.17,-0.894732
52.7517,372.187,-0.894723
52.7533,372.204,-0.894707
52.755,372.221,-0.894699
52.7567,372.237,-0.894699
52.7583,372.254,-0.894701
52.76,372.271,-0.894701
52.7617,372.287,-0.894707
52.7633,372.304,-0.894729
52.765,372.321,-0.894757
52.7667,372.337,-0.894778
52.7683,372.354,-0.894796
52.77,372.371,-0.894816
52.7717,372.387,-0.894835
52.7733,372.403,-0.894861
52.775,372.42,-0.894884
52.7767,372.437,-0.894913
52.7783,372.454,-0.894941
52.78,372.47,-0.894964
52.7817,372.487,-0.89499
52.7833,372.503,-0.895015
52.785,372.52,-0.895044
52.7867,372.537,-0.895056
52.7883,372.554,-0.895062
52.79,372.57,-0.895065
52.7917,372.587,-0.89507
52.7933,372.604,-0.895067
52.795,372.62,-0.895063
52.7967,372.637,-0.895053
52.7983,372.654,-0.895036
52.8,372.67,-0.895029
52.8017,372.687,-0.895029
52.8033,372.704,-0.895035
52.805,372.72,-0.895038
52.8067,372.737,-0.89505
52.8083,372.753,-0.89507
52.81,372.77,-0.89509
52.8117,372.787,-0.895111
52.8133,372.803,-0.895136
52.815,372.82,-0.895155
52.8167,372.836,-0.895174
52.8183,372.853,-0.895184
52.82,372.869,-0.895193
52.8217,372.886,-0.895203
52.8233,372.903,-0.895209
52.825,372.92,-0.895214
52.8267,372.936,-0.895213
52.8283,372.953,-0.895213
52.83,372.97,-0.895216
52.8317,372.986,-0.895223
52.8333,373.003,-0.89523
52.835,373.02,-0.895242
52.8367,373.036,-0.895257
52.8383,373.053,-0.895279
52.84,373.07,-0.895298
52.8417,373.087,-0.895318
52.8433,373.103,-0.895339
52.845,373.12,-0.895359
52.8467,373.136,-0.895378
52.8483,373.153,-0.895398
52.85,373.17,-0.895416
52.8517,373.186,-0.895435
52.8533,373.203,-0.895451
52.855,373.22,-0.895475
52.8567,373.236,-0.895492
52.8583,373.253,-0.895499
52.86,373.269,-0.895505
52.8617,373.286,-0.895512
52.8633,373.303,-0.895517
52.865,373.319,-0.895518
52.8667,373.336,-0.895517
52.8683,373.353,-0.895508
52.87,373.369,-0.895507
52.8717,373.386,-0.8955
52.8733,373.403,-0.895495
52.875,373.42,-0.895493
52.8767,373.436,-0.895498
52.8783,373.453,-0.895503
52.88,373.469,-0.895512
