Ramp 10.00 °C/min to 375.00 °C,,
Time,Temperature,Heat Flow (Normalized)
min,°C,W/g
5.00333,249.894,-0.151308
5.005,249.894,-0.151302
5.00667,249.894,-0.151305
5.00833,249.894,-0.151299
5.01,249.894,-0.151293
5.01167,249.894,-0.15129
5.01333,249.894,-0.151286
5.015,249.894,-0.15129
5.01667,249.894,-0.15129
5.01833,249.894,-0.151295
5.02,249.894,-0.151303
5.02167,249.894,-0.151318
5.02333,249.894,-0.151337
5.025,249.895,-0.151358
5.02667,249.895,-0.15138
5.02833,249.896,-0.151393
5.03,249.897,-0.151398
5.03167,249.898,-0.151405
5.03333,249.898,-0.151413
5.035,249.899,-0.151422
5.03667,249.9,-0.15143
5.03833,249.901,-0.151444
5.04,249.902,-0.151459
5.04167,249.903,-0.151473
5.04333,249.904,-0.15148
5.045,249.906,-0.151479
5.04667,249.907,-0.151461
5.04833,249.909,-0.151418
5.05,249.911,-0.151288
5.05167,249.913,-0.150977
5.05333,249.915,-0.150143
5.055,249.917,-0.148812
5.05667,249.919,-0.14687
5.05833,249.922,-0.144333
5.06,249.924,-0.140515
5.06167,249.927,-0.135127
5.06333,249.929,-0.127936
5.065,249.932,-0.120196
5.06667,249.935,-0.112597
5.06833,249.939,-0.106129
5.07,249.942,-0.100617
5.07167,249.946,-0.0951903
5.07333,249.95,-0.0905467
5.075,249.954,-0.0873321
5.07667,249.959,-0.0842781
5.07833,249.963,-0.0804652
5.08,249.968,-0.0758233
5.08167,249.973,-0.0710263
5.08333,249.978,-0.0686471
5.085,249.983,-0.0652817
5.08667,249.989,-0.0622971
5.08833,249.995,-0.0607497
5.09,250,-0.0593391
5.09167,250.006,-0.0583535
5.09333,250.013,-0.0575412
5.095,250.019,-0.0574643
5.09667,250.026,-0.0577684
5.09833,250.033,-0.057881
5.1,250.04,-0.0583369
5.10167,250.047,-0.0591061
5.10333,250.055,-0.0600556
5.105,250.063,-0.0612145
5.10667,250.071,-0.0622665
5.10833,250.079,-0.0664911
5.11,250.087,-0.0690874
5.11167,250.095,-0.0708468
5.11333,250.104,-0.0719804
5.115,250.112,-0.0726274
5.11667,250.122,-0.073782
5.11833,250.131,-0.0754231
5.12,250.139,-0.0783448
5.12167,250.149,-0.0826019
5.12333,250.158,-0.0893956
5.125,250.168,-0.0992053
5.12667,250.178,-0.110809
5.12833,250.188,-0.124186
5.13,250.198,-0.138099
5.13167,250.208,-0.148115
5.13333,250.219,-0.156062
5.135,250.229,-0.164477
5.13667,250.24,-0.172216
5.13833,250.251,-0.180955
5.14,250.262,-0.189625
5.14167,250.273,-0.197667
5.14333,250.284,-0.205622
5.145,250.295,-0.213289
5.14667,250.307,-0.220575
5.14833,250.318,-0.227227
5.15,250.33,-0.234963
5.15167,250.342,-0.242023
5.15333,250.353,-0.24969
5.155,250.365,-0.256933
5.15667,250.377,-0.265406
5.15833,250.389,-0.272476
5.16,250.401,-0.280272
5.16167,250.413,-0.287464
5.16333,250.426,-0.294947
5.165,250.438,-0.30145
5.16667,250.451,-0.308886
5.16833,250.464,-0.316305
5.17,250.476,-0.323115
5.17167,250.489,-0.330499
5.17333,250.502,-0.337015
5.175,250.515,-0.344596
5.17667,250.528,-0.350768
5.17833,250.542,-0.358176
5.18,250.555,-0.363841
5.18167,250.568,-0.369727
5.18333,250.581,-0.375898
5.185,250.595,-0.382481
5.18667,250.608,-0.386371
5.18833,250.622,-0.39124
5.19,250.635,-0.397122
5.19167,250.649,-0.401719
5.19333,250.662,-0.408275
5.195,250.676,-0.412813
5.19667,250.69,-0.41653
5.19833,250.704,-0.421161
5.2,250.717,-0.426757
5.20167,250.732,-0.431004
5.20333,250.745,-0.434108
5.205,250.76,-0.43872
5.20667,250.774,-0.443598
5.20833,250.788,-0.447861
5.21,250.802,-0.452472
5.21167,250.817,-0.455663
5.21333,250.831,-0.459692
5.215,250.845,-0.462462
5.21667,250.86,-0.466262
5.21833,250.874,-0.471568
5.22,250.889,-0.476226
5.22167,250.904,-0.480053
5.22333,250.918,-0.484036
5.225,250.932,-0.488062
5.22667,250.947,-0.491027
5.22833,250.962,-0.495503
5.23,250.977,-0.498734
5.23167,250.992,-0.501247
5.23333,251.006,-0.50394
5.235,251.021,-0.507053
5.23667,251.036,-0.510052
5.23833,251.051,-0.513753
5.24,251.066,-0.517143
5.24167,251.081,-0.520358
5.24333,251.096,-0.522937
5.245,251.111,-0.525276
5.24667,251.126,-0.526898
5.24833,251.141,-0.529449
5.25,251.156,-0.531807
5.25167,251.172,-0.534036
5.25333,251.187,-0.537
5.255,251.202,-0.539472
5.25667,251.218,-0.542778
5.25833,251.233,-0.54537
5.26,251.248,-0.547964
5.26167,251.263,-0.551414
5.26333,251.278,-0.554723
5.265,251.294,-0.557791
5.26667,251.309,-0.559527
5.26833,251.325,-0.561977
5.27,251.34,-0.563619
5.27167,251.355,-0.565147
5.27333,251.371,-0.567278
5.275,251.386,-0.569839
5.27667,251.402,-0.572357
5.27833,251.417,-0.575245
5.28,251.433,-0.576848
5.28167,251.449,-0.579816
5.28333,251.464,-0.581006
5.285,251.48,-0.581972
5.28667,251.496,-0.583809
5.28833,251.511,-0.584216
5.29,251.527,-0.584728
5.29167,251.543,-0.585488
5.29333,251.558,-0.586885
5.295,251.574,-0.588038
5.29667,251.59,-0.589378
5.29833,251.605,-0.59117
5.3,251.621,-0.593534
5.30167,251.637,-0.595127
5.30333,251.653,-0.597203
5.305,251.669,-0.59946
5.30667,251.685,-0.601382
5.30833,251.701,-0.602636
5.31,251.716,-0.603595
5.31167,251.732,-0.604952
5.31333,251.748,-0.605771
5.315,251.764,-0.606553
5.31667,251.779,-0.608253
5.31833,251.795,-0.61008
5.32,251.812,-0.612386
5.32167,251.827,-0.613622
5.32333,251.843,-0.614945
5.325,251.859,-0.616046
5.32667,251.876,-0.616625
5.32833,251.891,-0.616871
5.33,251.908,-0.616928
5.33167,251.924,-0.617414
5.33333,251.94,-0.618323
5.335,251.956,-0.61915
5.33667,251.972,-0.620257
5.33833,251.988,-0.62152
5.34,252.004,-0.622748
5.34167,252.02,-0.624292
5.34333,252.036,-0.625902
5.345,252.052,-0.627195
5.34667,252.068,-0.628288
5.34833,252.085,-0.629297
5.35,252.1,-0.630146
5.35167,252.117,-0.630987
5.35333,252.132,-0.631601
5.355,252.149,-0.632028
5.35667,252.165,-0.6325
5.35833,252.181,-0.632879
5.36,252.197,-0.633447
5.36167,252.213,-0.63424
5.36333,252.229,-0.63493
5.365,252.246,-0.635376
5.36667,252.262,-0.635898
5.36833,252.278,-0.636365
5.37,252.294,-0.636878
5.37167,252.311,-0.63731
5.37333,252.326,-0.637683
5.375,252.343,-0.6382
5.37667,252.359,-0.638718
5.37833,252.375,-0.639461
5.38,252.391,-0.640227
5.38167,252.407,-0.641082
5.38333,252.423,-0.641879
5.385,252.44,-0.642455
5.38667,252.456,-0.642931
5.38833,252.472,-0.643457
5.39,252.488,-0.643982
5.39167,252.504,-0.644512
5.39333,252.52,-0.64497
5.395,252.537,-0.645342
5.39667,252.553,-0.645812
5.39833,252.569,-0.646223
5.4,252.585,-0.646736
5.40167,252.602,-0.647258
5.40333,252.618,-0.64766
5.405,252.634,-0.647956
5.40667,252.65,-0.648346
5.40833,252.667,-0.648706
5.41,252.683,-0.649124
5.41167,252.699,-0.649493
5.41333,252.716,-0.649868
5.415,252.732,-0.650247
5.41667,252.749,-0.650548
5.41833,252.765,-0.650811
5.42,252.781,-0.651047
5.42167,252.797,-0.651243
5.42333,252.814,-0.651488
5.425,252.83,-0.65173
5.42667,252.846,-0.652013
5.42833,252.862,-0.65238
5.43,252.879,-0.652781
5.43167,252.895,-0.653332
5.43333,252.911,-0.653732
5.435,252.927,-0.65404
5.43667,252.944,-0.654228
5.43833,252.96,-0.654409
5.44,252.977,-0.654572
5.44167,252.993,-0.654743
5.44333,253.009,-0.655051
5.445,253.026,-0.655436
5.44667,253.042,-0.65597
5.44833,253.058,-0.656472
5.45,253.075,-0.657028
5.45167,253.091,-0.657549
5.45333,253.107,-0.658026
5.455,253.123,-0.658337
5.45667,253.14,-0.658495
5.45833,253.156,-0.658579
5.46,253.172,-0.658662
5.46167,253.188,-0.65879
5.46333,253.205,-0.658894
5.465,253.221,-0.65903
5.46667,253.238,-0.659224
5.46833,253.254,-0.659557
5.47,253.27,-0.659971
5.47167,253.287,-0.660326
5.47333,253.303,-0.660757
5.475,253.32,-0.66132
5.47667,253.336,-0.66181
5.47833,253.352,-0.662202
5.48,253.369,-0.662511
5.48167,253.385,-0.662698
5.48333,253.401,-0.662822
5.485,253.418,-0.662921
5.48667,253.434,-0.662982
5.48833,253.45,-0.6634
5.49,253.467,-0.663689
5.49167,253.483,-0.663967
5.49333,253.5,-0.664005
5.495,253.516,-0.664043
5.49667,253.533,-0.664087
5.49833,253.549,-0.664178
5.5,253.566,-0.664324
5.50167,253.582,-0.664432
5.50333,253.598,-0.664519
5.505,253.615,-0.664625
5.50667,253.631,-0.664737
5.50833,253.647,-0.664849
5.51,253.664,-0.664962
5.51167,253.68,-0.66506
5.51333,253.697,-0.665171
5.515,253.713,-0.665264
5.51667,253.73,-0.665414
5.51833,253.746,-0.66554
5.52,253.762,-0.665662
5.52167,253.779,-0.665801
5.52333,253.795,-0.666002
5.525,253.812,-0.66615
5.52667,253.828,-0.666255
5.52833,253.844,-0.666384
5.53,253.861,-0.666578
5.53167,253.877,-0.666753
5.53333,253.894,-0.66694
5.535,253.91,-0.667144
5.53667,253.927,-0.66745
5.53833,253.943,-0.667777
5.54,253.959,-0.66804
5.54167,253.976,-0.668391
5.54333,253.992,-0.668674
5.545,254.009,-0.668888
5.54667,254.025,-0.669037
5.54833,254.042,-0.669128
5.55,254.058,-0.669224
5.55167,254.075,-0.669332
5.55333,254.091,-0.669432
5.555,254.108,-0.669527
5.55667,254.124,-0.669612
5.55833,254.141,-0.669908
5.56,254.157,-0.66999
5.56167,254.173,-0.670068
5.56333,254.189,-0.670148
5.565,254.206,-0.670229
5.56667,254.223,-0.670308
5.56833,254.239,-0.670385
5.57,254.255,-0.670462
5.57167,254.272,-0.670546
5.57333,254.288,-0.670638
5.575,254.305,-0.670802
5.57667,254.321,-0.670915
5.57833,254.338,-0.671057
5.58,254.355,-0.671157
5.58167,254.371,-0.671262
5.58333,254.387,-0.671413
5.585,254.404,-0.671537
5.58667,254.42,-0.671659
5.58833,254.437,-0.671804
5.59,254.453,-0.671926
5.59167,254.47,-0.672037
5.59333,254.486,-0.672136
5.595,254.502,-0.672231
5.59667,254.519,-0.672325
5.59833,254.536,-0.672421
5.6,254.552,-0.672512
5.60167,254.568,-0.672604
5.60333,254.585,-0.672696
5.605,254.601,-0.672796
5.60667,254.618,-0.672903
5.60833,254.634,-0.673023
5.61,254.65,-0.673159
5.61167,254.667,-0.673321
5.61333,254.683,-0.673502
5.615,254.7,-0.673669
5.61667,254.716,-0.673793
5.61833,254.733,-0.673904
5.62,254.749,-0.674001
5.62167,254.766,-0.674102
5.62333,254.783,-0.674205
5.625,254.799,-0.674318
5.62667,254.816,-0.674433
5.62833,254.832,-0.674538
5.63,254.849,-0.674642
5.63167,254.865,-0.674744
5.63333,254.882,-0.674856
5.635,254.898,-0.674982
5.63667,254.915,-0.675074
5.63833,254.931,-0.675157
5.64,254.947,-0.675243
5.64167,254.964,-0.675331
5.64333,254.98,-0.675421
5.645,254.997,-0.675518
5.64667,255.013,-0.675623
5.64833,255.03,-0.675733
5.65,255.046,-0.675845
5.65167,255.063,-0.675955
5.65333,255.079,-0.676067
5.655,255.096,-0.676175
5.65667,255.112,-0.676284
5.65833,255.128,-0.676393
5.66,255.145,-0.676499
5.66167,255.162,-0.676599
5.66333,255.178,-0.676701
5.665,255.194,-0.676792
5.66667,255.211,-0.676879
5.66833,255.228,-0.676966
5.67,255.244,-0.677056
5.67167,255.261,-0.677144
5.67333,255.278,-0.677235
5.675,255.294,-0.677335
5.67667,255.311,-0.677447
5.67833,255.327,-0.677558
5.68,255.344,-0.677676
5.68167,255.36,-0.677791
5.68333,255.377,-0.677911
5.685,255.393,-0.678048
5.68667,255.409,-0.678189
5.68833,255.426,-0.678308
5.69,255.442,-0.678429
5.69167,255.458,-0.678546
5.69333,255.475,-0.678662
5.695,255.491,-0.678781
5.69667,255.508,-0.678896
5.69833,255.525,-0.679002
5.7,255.541,-0.6791
5.70167,255.558,-0.679195
5.70333,255.574,-0.679282
5.705,255.591,-0.67938
5.70667,255.608,-0.679481
5.70833,255.624,-0.679588
5.71,255.64,-0.679703
5.71167,255.657,-0.679822
5.71333,255.673,-0.679946
5.715,255.689,-0.68011
5.71667,255.706,-0.680286
5.71833,255.722,-0.680413
5.72,255.739,-0.680534
5.72167,255.756,-0.680655
5.72333,255.772,-0.680775
5.725,255.788,-0.680887
5.72667,255.805,-0.680998
5.72833,255.821,-0.681103
5.73,255.838,-0.681212
5.73167,255.855,-0.681319
5.73333,255.871,-0.68143
5.735,255.888,-0.681536
5.73667,255.904,-0.681632
5.73833,255.921,-0.681711
5.74,255.937,-0.681797
5.74167,255.953,-0.681885
5.74333,255.97,-0.681975
5.745,255.987,-0.682068
5.74667,256.003,-0.682151
5.74833,256.02,-0.682248
5.75,256.036,-0.682356
5.75167,256.053,-0.682472
5.75333,256.069,-0.682592
5.755,256.086,-0.682707
5.75667,256.102,-0.682821
5.75833,256.119,-0.682933
5.76,256.135,-0.683053
5.76167,256.152,-0.683174
5.76333,256.168,-0.683297
5.765,256.185,-0.68342
5.76667,256.202,-0.683555
5.76833,256.218,-0.683682
5.77,256.234,-0.68381
5.77167,256.251,-0.68393
5.77333,256.267,-0.684046
5.775,256.284,-0.684148
5.77667,256.301,-0.684245
5.77833,256.317,-0.684344
5.78,256.334,-0.684441
5.78167,256.35,-0.684533
5.78333,256.367,-0.684631
5.785,256.383,-0.684738
5.78667,256.4,-0.68485
5.78833,256.416,-0.684972
5.79,256.433,-0.685091
5.79167,256.45,-0.685206
5.79333,256.466,-0.685322
5.795,256.483,-0.685443
5.79667,256.499,-0.685556
5.79833,256.515,-0.685661
5.8,256.532,-0.685758
5.80167,256.549,-0.685858
5.80333,256.566,-0.68596
5.805,256.582,-0.68607
5.80667,256.598,-0.686184
5.80833,256.615,-0.686291
5.81,256.632,-0.686402
5.81167,256.648,-0.686515
5.81333,256.665,-0.686632
5.815,256.681,-0.686749
5.81667,256.698,-0.686859
5.81833,256.714,-0.686961
5.82,256.731,-0.687057
5.82167,256.747,-0.687157
5.82333,256.764,-0.68726
5.825,256.78,-0.687362
5.82667,256.797,-0.687465
5.82833,256.813,-0.687569
5.83,256.83,-0.68767
5.83167,256.846,-0.687779
5.83333,256.863,-0.687886
5.835,256.879,-0.687987
5.83667,256.896,-0.688086
5.83833,256.912,-0.68818
5.84,256.929,-0.688273
5.84167,256.945,-0.688365
5.84333,256.962,-0.688448
5.845,256.978,-0.688529
5.84667,256.995,-0.688615
5.84833,257.011,-0.688699
5.85,257.028,-0.688799
5.85167,257.045,-0.6889
5.85333,257.061,-0.689001
5.855,257.078,-0.689104
5.85667,257.094,-0.689206
5.85833,257.111,-0.689307
5.86,257.127,-0.689409
5.86167,257.144,-0.689506
5.86333,257.161,-0.689598
5.865,257.177,-0.689691
5.86667,257.194,-0.689792
5.86833,257.211,-0.689896
5.87,257.227,-0.690006
5.87167,257.244,-0.690118
5.87333,257.26,-0.690228
5.875,257.277,-0.690332
5.87667,257.293,-0.690429
5.87833,257.31,-0.690522
5.88,257.326,-0.69061
5.88167,257.343,-0.690697
5.88333,257.359,-0.690772
5.885,257.376,-0.690834
5.88667,257.392,-0.690892
5.88833,257.409,-0.690943
5.89,257.425,-0.690995
5.89167,257.442,-0.691048
5.89333,257.459,-0.691106
5.895,257.475,-0.691173
5.89667,257.492,-0.691248
5.89833,257.508,-0.691332
5.9,257.525,-0.691422
5.90167,257.542,-0.691519
5.90333,257.558,-0.691625
5.905,257.574,-0.69173
5.90667,257.591,-0.691833
5.90833,257.608,-0.691935
5.91,257.624,-0.692038
5.91167,257.641,-0.692148
5.91333,257.658,-0.692263
5.915,257.674,-0.692373
5.91667,257.69,-0.692483
5.91833,257.707,-0.692607
5.92,257.723,-0.692723
5.92167,257.74,-0.692837
5.92333,257.756,-0.692949
5.925,257.773,-0.693058
5.92667,257.79,-0.693166
5.92833,257.806,-0.693283
5.93,257.823,-0.693401
5.93167,257.839,-0.693509
5.93333,257.856,-0.693622
5.935,257.872,-0.693731
5.93667,257.889,-0.693835
5.93833,257.906,-0.693927
5.94,257.922,-0.694009
5.94167,257.938,-0.694094
5.94333,257.955,-0.694179
5.945,257.972,-0.694263
5.94667,257.988,-0.694347
5.94833,258.005,-0.694428
5.95,258.021,-0.694509
5.95167,258.038,-0.694592
5.95333,258.055,-0.694682
5.955,258.071,-0.69477
5.95667,258.088,-0.694862
5.95833,258.104,-0.694949
5.96,258.121,-0.695031
5.96167,258.138,-0.695117
5.96333,258.154,-0.6952
5.965,258.171,-0.695282
5.96667,258.187,-0.695356
5.96833,258.204,-0.695426
5.97,258.22,-0.695499
5.97167,258.237,-0.695568
5.97333,258.253,-0.695634
5.975,258.27,-0.695703
5.97667,258.287,-0.695775
5.97833,258.304,-0.695841
5.98,258.32,-0.695906
5.98167,258.337,-0.695965
5.98333,258.353,-0.696039
5.985,258.37,-0.696113
5.98667,258.387,-0.69618
5.98833,258.403,-0.696244
5.99,258.42,-0.696314
5.99167,258.436,-0.696384
5.99333,258.453,-0.696458
5.995,258.469,-0.696532
5.99667,258.486,-0.696605
5.99833,258.503,-0.696682
6,258.519,-0.696754
6.00167,258.536,-0.696832
6.00333,258.552,-0.696916
6.005,258.569,-0.696995
6.00667,258.586,-0.697082
6.00833,258.602,-0.697179
6.01,258.618,-0.697273
6.01167,258.635,-0.69738
6.01333,258.652,-0.697473
6.015,258.668,-0.697567
6.01667,258.685,-0.697659
6.01833,258.701,-0.69775
6.02,258.718,-0.697842
6.02167,258.735,-0.697928
6.02333,258.751,-0.698013
6.025,258.768,-0.698097
6.02667,258.784,-0.698173
6.02833,258.801,-0.698241
6.03,258.818,-0.69831
6.03167,258.834,-0.698382
6.03333,258.851,-0.698454
6.035,258.868,-0.69852
6.03667,258.884,-0.698585
6.03833,258.901,-0.698644
6.04,258.918,-0.698713
6.04167,258.934,-0.698785
6.04333,258.951,-0.698856
6.045,258.967,-0.698923
6.04667,258.984,-0.698994
6.04833,259,-0.699078
6.05,259.017,-0.699167
6.05167,259.033,-0.699267
6.05333,259.05,-0.699402
6.055,259.066,-0.699538
6.05667,259.083,-0.699638
6.05833,259.1,-0.699727
6.06,259.116,-0.69981
6.06167,259.132,-0.69989
6.06333,259.15,-0.699957
6.065,259.166,-0.700022
6.06667,259.182,-0.700083
6.06833,259.199,-0.700147
6.07,259.216,-0.700213
6.07167,259.232,-0.700285
6.07333,259.249,-0.70036
6.075,259.265,-0.700427
6.07667,259.282,-0.700489
6.07833,259.298,-0.700548
6.08,259.315,-0.700604
6.08167,259.332,-0.700664
6.08333,259.348,-0.700725
6.085,259.365,-0.700782
6.08667,259.382,-0.700849
6.08833,259.398,-0.700921
6.09,259.415,-0.701003
6.09167,259.431,-0.701084
6.09333,259.448,-0.701166
6.095,259.465,-0.701243
6.09667,259.482,-0.701327
6.09833,259.498,-0.701414
6.1,259.515,-0.701501
6.10167,259.531,-0.701584
6.10333,259.548,-0.701653
6.105,259.565,-0.701712
6.10667,259.581,-0.701758
6.10833,259.598,-0.701794
6.11,259.614,-0.701832
6.11167,259.631,-0.701874
6.11333,259.648,-0.701921
6.115,259.664,-0.701979
6.11667,259.68,-0.702057
6.11833,259.697,-0.702146
6.12,259.714,-0.702265
6.12167,259.73,-0.702372
6.12333,259.747,-0.702539
6.125,259.763,-0.702746
6.12667,259.78,-0.702834
6.12833,259.797,-0.702919
6.13,259.813,-0.702995
6.13167,259.83,-0.703062
6.13333,259.846,-0.703123
6.135,259.863,-0.703175
6.13667,259.879,-0.703233
6.13833,259.896,-0.703279
6.14,259.913,-0.703318
6.14167,259.929,-0.703348
6.14333,259.946,-0.703379
6.145,259.962,-0.703407
6.14667,259.979,-0.703438
6.14833,259.996,-0.703479
6.15,260.012,-0.703529
6.15167,260.028,-0.703578
6.15333,260.045,-0.703636
6.155,260.062,-0.703706
6.15667,260.078,-0.703773
6.15833,260.095,-0.703835
6.16,260.112,-0.703889
6.16167,260.128,-0.703937
6.16333,260.145,-0.703986
6.165,260.161,-0.704032
6.16667,260.178,-0.70408
6.16833,260.195,-0.704126
6.17,260.211,-0.70417
6.17167,260.228,-0.704216
6.17333,260.244,-0.704261
6.175,260.261,-0.704306
6.17667,260.277,-0.704356
6.17833,260.294,-0.704412
6.18,260.31,-0.704469
6.18167,260.327,-0.704528
6.18333,260.344,-0.704589
6.185,260.361,-0.704653
6.18667,260.377,-0.704722
6.18833,260.394,-0.704781
6.19,260.411,-0.704835
6.19167,260.427,-0.704888
6.19333,260.444,-0.70494
6.195,260.46,-0.704999
6.19667,260.477,-0.705054
6.19833,260.493,-0.705102
6.2,260.51,-0.705155
6.20167,260.527,-0.705203
6.20333,260.543,-0.705259
6.205,260.56,-0.705321
6.20667,260.577,-0.705373
6.20833,260.594,-0.705433
6.21,260.61,-0.705493
6.21167,260.626,-0.705547
6.21333,260.643,-0.705606
6.215,260.66,-0.705657
6.21667,260.676,-0.7057
6.21833,260.692,-0.705747
6.22,260.709,-0.705794
6.22167,260.726,-0.705844
6.22333,260.743,-0.705897
6.225,260.759,-0.70595
6.22667,260.776,-0.705992
6.22833,260.793,-0.706037
6.23,260.81,-0.706079
6.23167,260.826,-0.706114
6.23333,260.843,-0.706151
6.235,260.859,-0.706195
6.23667,260.876,-0.706241
6.23833,260.893,-0.706291
6.24,260.909,-0.706341
6.24167,260.926,-0.706403
6.24333,260.942,-0.70648
6.245,260.959,-0.706554
6.24667,260.975,-0.706624
6.24833,260.992,-0.706689
6.25,261.009,-0.706754
6.25167,261.025,-0.706818
6.25333,261.042,-0.706874
6.255,261.059,-0.706928
6.25667,261.076,-0.706977
6.25833,261.092,-0.70703
6.26,261.109,-0.707094
6.26167,261.125,-0.707155
6.26333,261.142,-0.707215
6.265,261.158,-0.707277
6.26667,261.175,-0.707341
6.26833,261.191,-0.707394
6.27,261.208,-0.707442
6.27167,261.225,-0.707484
6.27333,261.241,-0.707526
6.275,261.258,-0.707566
6.27667,261.275,-0.7076
6.27833,261.291,-0.707646
6.28,261.308,-0.707702
6.28167,261.324,-0.707764
6.28333,261.341,-0.707829
6.285,261.358,-0.707904
6.28667,261.375,-0.707995
6.28833,261.391,-0.708072
6.29,261.408,-0.708142
6.29167,261.424,-0.708209
6.29333,261.441,-0.708277
6.295,261.457,-0.708336
6.29667,261.474,-0.70838
6.29833,261.49,-0.708411
6.3,261.507,-0.708437
6.30167,261.524,-0.70846
6.30333,261.541,-0.708477
6.305,261.557,-0.708494
6.30667,261.574,-0.708518
6.30833,261.591,-0.708545
6.31,261.607,-0.708573
6.31167,261.624,-0.708608
6.31333,261.64,-0.70865
6.315,261.657,-0.708695
6.31667,261.674,-0.708741
6.31833,261.691,-0.708783
6.32,261.707,-0.708825
6.32167,261.723,-0.70887
6.32333,261.74,-0.708919
6.325,261.757,-0.70898
6.32667,261.773,-0.709042
6.32833,261.79,-0.709109
6.33,261.807,-0.709172
6.33167,261.824,-0.709236
6.33333,261.841,-0.709298
6.335,261.857,-0.709352
6.33667,261.874,-0.7094
6.33833,261.89,-0.709441
6.34,261.907,-0.709479
6.34167,261.924,-0.709524
6.34333,261.94,-0.709571
6.345,261.956,-0.709623
6.34667,261.973,-0.709672
6.34833,261.989,-0.709725
6.35,262.006,-0.709783
6.35167,262.023,-0.709847
6.35333,262.039,-0.709916
6.355,262.056,-0.709978
6.35667,262.072,-0.710041
6.35833,262.089,-0.710108
6.36,262.105,-0.710172
6.36167,262.122,-0.710229
6.36333,262.139,-0.710293
6.365,262.156,-0.710351
6.36667,262.173,-0.710397
6.36833,262.19,-0.710434
6.37,262.206,-0.710461
6.37167,262.223,-0.710491
6.37333,262.24,-0.710513
6.375,262.256,-0.710535
6.37667,262.273,-0.710559
6.37833,262.289,-0.710578
6.38,262.306,-0.710599
6.38167,262.322,-0.710625
6.38333,262.339,-0.71066
6.385,262.356,-0.710702
6.38667,262.372,-0.710759
6.38833,262.389,-0.71082
6.39,262.405,-0.710878
6.39167,262.422,-0.710934
6.39333,262.439,-0.710997
6.395,262.456,-0.711057
6.39667,262.472,-0.711105
6.39833,262.489,-0.711152
6.4,262.506,-0.711193
6.40167,262.523,-0.711233
6.40333,262.539,-0.711285
6.405,262.556,-0.711346
6.40667,262.572,-0.711408
6.40833,262.589,-0.711466
6.41,262.605,-0.71153
6.41167,262.622,-0.711592
6.41333,262.639,-0.711642
6.415,262.655,-0.711688
6.41667,262.672,-0.711726
6.41833,262.688,-0.711753
6.42,262.705,-0.711785
6.42167,262.722,-0.711824
6.42333,262.739,-0.711861
6.425,262.755,-0.711896
6.42667,262.772,-0.711929
6.42833,262.789,-0.711964
6.43,262.805,-0.712006
6.43167,262.822,-0.712043
6.43333,262.838,-0.712065
6.435,262.855,-0.712092
6.43667,262.872,-0.712114
6.43833,262.889,-0.712146
6.44,262.905,-0.71218
6.44167,262.922,-0.712221
6.44333,262.939,-0.712259
6.445,262.955,-0.712302
6.44667,262.972,-0.712351
6.44833,262.988,-0.712405
6.45,263.005,-0.712456
6.45167,263.021,-0.712498
6.45333,263.038,-0.712541
6.455,263.055,-0.712583
6.45667,263.072,-0.712623
6.45833,263.089,-0.712664
6.46,263.105,-0.712702
6.46167,263.122,-0.712733
6.46333,263.139,-0.712761
6.465,263.155,-0.712799
6.46667,263.172,-0.71283
6.46833,263.188,-0.712864
6.47,263.205,-0.712906
6.47167,263.222,-0.712946
6.47333,263.238,-0.71299
6.475,263.255,-0.71304
6.47667,263.272,-0.713098
6.47833,263.289,-0.713164
6.48,263.305,-0.713217
6.48167,263.322,-0.713266
6.48333,263.338,-0.713312
6.485,263.355,-0.713352
6.48667,263.371,-0.713388
6.48833,263.388,-0.713415
6.49,263.405,-0.713428
6.49167,263.422,-0.713434
6.49333,263.438,-0.713445
6.495,263.454,-0.713458
6.49667,263.471,-0.713474
6.49833,263.488,-0.713488
6.5,263.505,-0.713503
6.50167,263.521,-0.713523
6.50333,263.538,-0.713549
6.505,263.555,-0.713579
6.50667,263.572,-0.71361
6.50833,263.588,-0.713639
6.51,263.605,-0.713673
6.51167,263.622,-0.713722
6.51333,263.638,-0.713768
6.515,263.655,-0.713808
6.51667,263.671,-0.713844
6.51833,263.688,-0.713887
6.52,263.704,-0.71393
6.52167,263.721,-0.713971
6.52333,263.738,-0.714015
6.525,263.754,-0.71406
6.52667,263.771,-0.714103
6.52833,263.788,-0.714149
6.53,263.804,-0.714195
6.53167,263.821,-0.714244
6.53333,263.838,-0.714291
6.535,263.855,-0.71433
6.53667,263.871,-0.714374
6.53833,263.888,-0.714419
6.54,263.904,-0.714466
6.54167,263.921,-0.714508
6.54333,263.938,-0.714543
6.545,263.954,-0.71457
6.54667,263.971,-0.7146
6.54833,263.987,-0.714634
6.55,264.004,-0.714659
6.55167,264.02,-0.714679
6.55333,264.037,-0.714701
6.555,264.053,-0.71472
6.55667,264.07,-0.714741
6.55833,264.087,-0.714762
6.56,264.102,-0.714783
6.56167,264.119,-0.71482
6.56333,264.136,-0.714857
6.565,264.153,-0.714894
6.56667,264.169,-0.714942
6.56833,264.186,-0.714989
6.57,264.203,-0.715033
6.57167,264.22,-0.715082
6.57333,264.237,-0.715136
6.575,264.253,-0.715194
6.57667,264.27,-0.715249
6.57833,264.287,-0.715302
6.58,264.303,-0.715354
6.58167,264.32,-0.715396
6.58333,264.337,-0.715428
6.585,264.353,-0.715458
6.58667,264.37,-0.715479
6.58833,264.387,-0.715483
6.59,264.403,-0.71548
6.59167,264.42,-0.71549
6.59333,264.436,-0.715497
6.595,264.453,-0.715509
6.59667,264.47,-0.715529
6.59833,264.486,-0.715556
6.6,264.503,-0.715586
6.60167,264.52,-0.715619
6.60333,264.537,-0.715651
6.605,264.553,-0.71568
6.60667,264.57,-0.715698
6.60833,264.586,-0.715712
6.61,264.603,-0.715724
6.61167,264.62,-0.715736
6.61333,264.637,-0.715744
6.615,264.653,-0.715759
6.61667,264.67,-0.715772
6.61833,264.686,-0.715799
6.62,264.703,-0.715837
6.62167,264.72,-0.715882
6.62333,264.736,-0.71593
6.625,264.753,-0.715977
6.62667,264.769,-0.716019
6.62833,264.786,-0.716059
6.63,264.803,-0.716094
6.63167,264.82,-0.716128
6.63333,264.836,-0.716163
6.635,264.853,-0.716185
6.63667,264.869,-0.716214
6.63833,264.886,-0.716239
6.64,264.903,-0.716272
6.64167,264.92,-0.716314
6.64333,264.936,-0.716352
6.645,264.953,-0.716387
6.64667,264.97,-0.716413
6.64833,264.986,-0.716429
6.65,265.003,-0.716443
6.65167,265.019,-0.716458
6.65333,265.036,-0.716473
6.655,265.053,-0.716488
6.65667,265.069,-0.716512
6.65833,265.086,-0.716537
6.66,265.102,-0.716581
6.66167,265.119,-0.716636
6.66333,265.136,-0.716695
6.665,265.153,-0.716756
6.66667,265.169,-0.716808
6.66833,265.186,-0.716857
6.67,265.203,-0.716898
6.67167,265.219,-0.716931
6.67333,265.236,-0.716956
6.675,265.253,-0.716979
6.67667,265.269,-0.716994
6.67833,265.286,-0.71701
6.68,265.303,-0.717027
6.68167,265.319,-0.717042
6.68333,265.336,-0.71706
6.685,265.353,-0.717084
6.68667,265.369,-0.717111
6.68833,265.386,-0.717142
6.69,265.402,-0.717181
6.69167,265.419,-0.717224
6.69333,265.436,-0.717264
6.695,265.452,-0.717292
6.69667,265.469,-0.717318
6.69833,265.486,-0.717349
6.7,265.503,-0.717363
6.70167,265.52,-0.717385
6.70333,265.536,-0.717419
6.705,265.552,-0.717456
6.70667,265.569,-0.717491
6.70833,265.586,-0.717526
6.71,265.602,-0.717563
6.71167,265.619,-0.717596
6.71333,265.636,-0.717622
6.715,265.652,-0.717647
6.71667,265.669,-0.717665
6.71833,265.685,-0.717671
6.72,265.702,-0.717676
6.72167,265.719,-0.717683
6.72333,265.736,-0.717695
6.725,265.752,-0.71771
6.72667,265.769,-0.717727
6.72833,265.786,-0.71775
6.73,265.802,-0.717775
6.73167,265.819,-0.717802
6.73333,265.836,-0.717836
6.735,265.852,-0.717867
6.73667,265.869,-0.717898
6.73833,265.886,-0.717932
6.74,265.902,-0.717973
6.74167,265.919,-0.718016
6.74333,265.936,-0.718053
6.745,265.952,-0.718087
6.74667,265.969,-0.718118
6.74833,265.986,-0.718148
6.75,266.002,-0.718182
6.75167,266.019,-0.718228
6.75333,266.035,-0.718266
6.755,266.052,-0.718312
6.75667,266.069,-0.718352
6.75833,266.085,-0.718382
6.76,266.102,-0.718411
6.76167,266.118,-0.718433
6.76333,266.135,-0.718448
6.765,266.152,-0.718465
6.76667,266.169,-0.718484
6.76833,266.185,-0.718509
6.77,266.202,-0.718534
6.77167,266.219,-0.718557
6.77333,266.235,-0.718588
6.775,266.252,-0.718623
6.77667,266.268,-0.718649
6.77833,266.285,-0.718679
6.78,266.302,-0.718713
6.78167,266.318,-0.718743
6.78333,266.335,-0.718775
6.785,266.352,-0.718807
6.78667,266.368,-0.718837
6.78833,266.385,-0.718869
6.79,266.402,-0.718891
6.79167,266.419,-0.718915
6.79333,266.435,-0.71893
6.795,266.452,-0.718939
6.79667,266.468,-0.718949
6.79833,266.485,-0.71895
6.8,266.501,-0.718954
6.80167,266.518,-0.718955
6.80333,266.535,-0.71896
6.805,266.552,-0.718958
6.80667,266.568,-0.718973
6.80833,266.585,-0.718991
6.81,266.602,-0.719015
6.81167,266.618,-0.719035
6.81333,266.635,-0.719057
6.815,266.651,-0.719084
6.81667,266.668,-0.719115
6.81833,266.685,-0.719148
6.82,266.701,-0.719179
6.82167,266.718,-0.719212
6.82333,266.735,-0.719243
6.825,266.751,-0.719278
6.82667,266.768,-0.719309
6.82833,266.785,-0.71933
6.83,266.802,-0.719348
6.83167,266.818,-0.719364
6.83333,266.835,-0.719386
6.835,266.852,-0.719404
6.83667,266.868,-0.719418
6.83833,266.885,-0.719431
6.84,266.901,-0.719448
6.84167,266.918,-0.719474
6.84333,266.935,-0.719499
6.845,266.951,-0.719515
6.84667,266.968,-0.719531
6.84833,266.985,-0.719551
6.85,267.001,-0.719581
6.85167,267.018,-0.719613
6.85333,267.035,-0.719644
6.855,267.051,-0.719675
6.85667,267.068,-0.719709
6.85833,267.085,-0.71974
6.86,267.101,-0.719769
6.86167,267.118,-0.719798
6.86333,267.134,-0.719826
6.865,267.151,-0.719854
6.86667,267.168,-0.719881
6.86833,267.185,-0.719906
6.87,267.201,-0.719939
6.87167,267.218,-0.719965
6.87333,267.235,-0.719986
6.875,267.252,-0.720005
6.87667,267.268,-0.720025
6.87833,267.285,-0.720036
6.88,267.302,-0.72004
6.88167,267.318,-0.720044
6.88333,267.335,-0.720043
6.885,267.352,-0.720051
6.88667,267.368,-0.720055
6.88833,267.385,-0.720067
6.89,267.401,-0.720083
6.89167,267.418,-0.720094
6.89333,267.435,-0.72011
6.895,267.451,-0.720128
6.89667,267.468,-0.720148
6.89833,267.484,-0.720172
6.9,267.501,-0.7202
6.90167,267.518,-0.720231
6.90333,267.534,-0.720274
6.905,267.551,-0.72032
6.90667,267.568,-0.720366
6.90833,267.584,-0.720412
6.91,267.601,-0.720464
6.91167,267.618,-0.720519
6.91333,267.635,-0.720573
6.915,267.651,-0.720622
6.91667,267.668,-0.720664
6.91833,267.684,-0.720702
6.92,267.701,-0.720735
6.92167,267.718,-0.720759
6.92333,267.735,-0.720776
6.925,267.751,-0.720784
6.92667,267.768,-0.720785
6.92833,267.785,-0.720787
6.93,267.801,-0.720774
6.93167,267.818,-0.720775
6.93333,267.834,-0.720779
6.935,267.851,-0.720789
6.93667,267.868,-0.720802
6.93833,267.884,-0.720815
6.94,267.901,-0.720832
6.94167,267.918,-0.720851
6.94333,267.934,-0.720874
6.945,267.951,-0.720902
6.94667,267.968,-0.720926
6.94833,267.984,-0.720944
6.95,268.001,-0.720964
6.95167,268.017,-0.720977
6.95333,268.034,-0.720982
6.955,268.051,-0.720982
6.95667,268.067,-0.72098
6.95833,268.084,-0.720979
6.96,268.101,-0.720981
6.96167,268.118,-0.72099
6.96333,268.134,-0.721011
6.965,268.151,-0.721041
6.96667,268.168,-0.72108
6.96833,268.184,-0.721111
6.97,268.201,-0.721139
6.97167,268.217,-0.721168
6.97333,268.234,-0.721195
6.975,268.25,-0.721218
6.97667,268.267,-0.721244
6.97833,268.284,-0.721278
6.98,268.301,-0.721318
6.98167,268.317,-0.721362
6.98333,268.334,-0.7214
6.985,268.35,-0.721442
6.98667,268.367,-0.721486
6.98833,268.384,-0.721523
6.99,268.4,-0.721549
6.99167,268.416,-0.721563
6.99333,268.433,-0.721564
6.995,268.45,-0.72157
6.99667,268.466,-0.72157
6.99833,268.483,-0.721582
7,268.5,-0.721598
7.00167,268.517,-0.721613
7.00333,268.533,-0.721627
7.005,268.55,-0.72164
7.00667,268.567,-0.721663
7.00833,268.584,-0.721689
7.01,268.6,-0.721716
7.01167,268.617,-0.721736
7.01333,268.633,-0.72175
7.015,268.65,-0.721763
7.01667,268.667,-0.721778
7.01833,268.683,-0.721793
7.02,268.7,-0.721804
7.02167,268.717,-0.721817
7.02333,268.733,-0.721826
7.025,268.75,-0.721841
7.02667,268.767,-0.721859
7.02833,268.783,-0.721884
7.03,268.8,-0.72191
7.03167,268.816,-0.721936
7.03333,268.833,-0.721968
7.035,268.85,-0.722001
7.03667,268.866,-0.722035
7.03833,268.883,-0.722062
7.04,268.899,-0.722083
7.04167,268.916,-0.722098
7.04333,268.933,-0.722102
7.045,268.949,-0.722111
7.04667,268.966,-0.722127
7.04833,268.983,-0.722142
7.05,269,-0.722155
7.05167,269.016,-0.722172
7.05333,269.032,-0.722198
7.055,269.049,-0.722224
7.05667,269.066,-0.722248
7.05833,269.083,-0.722271
7.06,269.1,-0.722292
7.06167,269.116,-0.722305
7.06333,269.132,-0.72231
7.065,269.149,-0.722317
7.06667,269.166,-0.722328
7.06833,269.183,-0.72234
7.07,269.199,-0.722334
7.07167,269.216,-0.722339
7.07333,269.233,-0.722348
7.075,269.25,-0.722364
7.07667,269.266,-0.722388
7.07833,269.283,-0.722419
7.08,269.3,-0.722455
7.08167,269.317,-0.722491
7.08333,269.333,-0.722522
7.085,269.35,-0.722555
7.08667,269.366,-0.722584
7.08833,269.383,-0.722606
7.09,269.399,-0.722626
7.09167,269.416,-0.722649
7.09333,269.433,-0.722672
7.095,269.45,-0.722693
7.09667,269.466,-0.722707
7.09833,269.483,-0.72272
7.1,269.499,-0.722733
7.10167,269.516,-0.722741
7.10333,269.533,-0.722753
7.105,269.549,-0.722762
7.10667,269.565,-0.722783
7.10833,269.582,-0.722806
7.11,269.599,-0.722829
7.11167,269.615,-0.722857
7.11333,269.632,-0.722895
7.115,269.649,-0.722934
7.11667,269.665,-0.722969
7.11833,269.682,-0.723006
7.12,269.699,-0.723037
7.12167,269.715,-0.723073
7.12333,269.732,-0.723112
7.125,269.749,-0.723148
7.12667,269.765,-0.72318
7.12833,269.782,-0.723209
7.13,269.799,-0.723223
7.13167,269.815,-0.723233
7.13333,269.832,-0.723245
7.135,269.849,-0.723257
7.13667,269.865,-0.72327
7.13833,269.882,-0.723292
7.14,269.898,-0.723329
7.14167,269.915,-0.723367
7.14333,269.932,-0.723399
7.145,269.949,-0.723425
7.14667,269.965,-0.723443
7.14833,269.982,-0.723465
7.15,269.998,-0.723484
7.15167,270.015,-0.723498
7.15333,270.032,-0.723508
7.155,270.048,-0.723512
7.15667,270.065,-0.723521
7.15833,270.081,-0.723521
7.16,270.098,-0.723516
7.16167,270.115,-0.723511
7.16333,270.132,-0.723502
7.165,270.148,-0.72349
7.16667,270.165,-0.723478
7.16833,270.181,-0.723479
7.17,270.198,-0.723487
7.17167,270.215,-0.723503
7.17333,270.231,-0.723528
7.175,270.248,-0.72356
7.17667,270.265,-0.723591
7.17833,270.281,-0.723629
7.18,270.298,-0.723672
7.18167,270.314,-0.723712
7.18333,270.331,-0.723759
7.185,270.348,-0.7238
7.18667,270.365,-0.723831
7.18833,270.381,-0.723858
7.19,270.398,-0.723884
7.19167,270.414,-0.723908
7.19333,270.431,-0.723917
7.195,270.448,-0.72392
7.19667,270.465,-0.723913
7.19833,270.481,-0.723911
7.2,270.498,-0.723914
7.20167,270.514,-0.723917
7.20333,270.531,-0.723923
7.205,270.548,-0.723928
7.20667,270.564,-0.723934
7.20833,270.581,-0.72395
7.21,270.597,-0.723975
7.21167,270.614,-0.723998
7.21333,270.631,-0.724019
7.215,270.647,-0.724041
7.21667,270.664,-0.724063
7.21833,270.68,-0.724079
7.22,270.697,-0.724091
7.22167,270.714,-0.724097
7.22333,270.73,-0.724105
7.225,270.747,-0.724119
7.22667,270.763,-0.724135
7.22833,270.78,-0.72415
7.23,270.797,-0.724171
7.23167,270.813,-0.724203
7.23333,270.83,-0.724238
7.235,270.847,-0.724274
7.23667,270.864,-0.724306
7.23833,270.88,-0.724339
7.24,270.897,-0.724363
7.24167,270.913,-0.724389
7.24333,270.93,-0.724413
7.245,270.947,-0.724432
7.24667,270.963,-0.724446
7.24833,270.98,-0.724456
7.25,270.997,-0.724465
7.25167,271.014,-0.724477
7.25333,271.03,-0.72448
7.255,271.047,-0.724479
7.25667,271.063,-0.724479
7.25833,271.08,-0.724475
7.26,271.097,-0.72447
7.26167,271.113,-0.724479
7.26333,271.13,-0.724488
7.265,271.146,-0.724507
7.26667,271.164,-0.724538
7.26833,271.18,-0.724573
7.27,271.197,-0.724605
7.27167,271.213,-0.724641
7.27333,271.23,-0.724673
7.275,271.246,-0.724712
7.27667,271.263,-0.724756
7.27833,271.28,-0.724793
7.28,271.296,-0.724824
7.28167,271.313,-0.72486
7.28333,271.33,-0.724891
7.285,271.347,-0.724917
7.28667,271.363,-0.724941
7.28833,271.38,-0.724954
7.29,271.397,-0.72497
7.29167,271.413,-0.72498
7.29333,271.43,-0.724997
7.295,271.446,-0.72502
7.29667,271.463,-0.725045
7.29833,271.48,-0.725072
7.3,271.496,-0.725093
7.30167,271.513,-0.72511
7.30333,271.53,-0.725133
7.305,271.546,-0.725157
7.30667,271.563,-0.725187
7.30833,271.58,-0.725228
7.31,271.597,-0.725265
7.31167,271.613,-0.725294
7.31333,271.629,-0.725323
7.315,271.646,-0.725349
7.31667,271.663,-0.725379
7.31833,271.679,-0.725406
7.32,271.696,-0.725433
7.32167,271.713,-0.725457
7.32333,271.73,-0.725484
7.325,271.747,-0.72551
7.32667,271.763,-0.725546
7.32833,271.78,-0.725587
7.33,271.796,-0.725631
7.33167,271.813,-0.725674
7.33333,271.83,-0.725721
7.335,271.846,-0.725768
7.33667,271.863,-0.725806
7.33833,271.88,-0.72583
7.34,271.896,-0.72585
7.34167,271.913,-0.725862
7.34333,271.93,-0.725871
7.345,271.946,-0.725883
7.34667,271.963,-0.725908
7.34833,271.979,-0.725932
7.35,271.996,-0.725952
7.35167,272.013,-0.72598
7.35333,272.029,-0.726015
7.355,272.046,-0.726038
7.35667,272.062,-0.726053
7.35833,272.079,-0.726063
7.36,272.095,-0.726082
7.36167,272.112,-0.726105
7.36333,272.129,-0.726129
7.365,272.146,-0.726151
7.36667,272.162,-0.726183
7.36833,272.179,-0.726217
7.37,272.196,-0.726252
7.37167,272.212,-0.726287
7.37333,272.229,-0.726318
7.375,272.246,-0.726339
7.37667,272.263,-0.726353
7.37833,272.279,-0.726368
7.38,272.296,-0.726378
7.38167,272.313,-0.726392
7.38333,272.329,-0.726405
7.385,272.346,-0.726422
7.38667,272.362,-0.726441
7.38833,272.379,-0.726462
7.39,272.395,-0.726485
7.39167,272.412,-0.726512
7.39333,272.429,-0.726546
7.395,272.446,-0.726578
7.39667,272.462,-0.726606
7.39833,272.479,-0.726636
7.4,272.495,-0.72667
7.40167,272.512,-0.726696
7.40333,272.529,-0.726731
7.405,272.545,-0.726762
7.40667,272.562,-0.726802
7.40833,272.579,-0.726836
7.41,272.595,-0.726859
7.41167,272.612,-0.726887
7.41333,272.628,-0.726907
7.415,272.645,-0.726925
7.41667,272.662,-0.726935
7.41833,272.679,-0.726943
7.42,272.695,-0.726955
7.42167,272.712,-0.726965
7.42333,272.729,-0.726979
7.425,272.746,-0.726995
7.42667,272.762,-0.727016
7.42833,272.779,-0.727039
7.43,272.795,-0.727069
7.43167,272.811,-0.72711
7.43333,272.828,-0.72715
7.435,272.845,-0.727192
7.43667,272.862,-0.727231
7.43833,272.878,-0.72727
7.44,272.895,-0.727306
7.44167,272.912,-0.727329
7.44333,272.928,-0.727348
7.445,272.945,-0.727361
7.44667,272.962,-0.727369
7.44833,272.978,-0.727375
7.45,272.995,-0.727374
7.45167,273.011,-0.72737
7.45333,273.028,-0.727363
7.455,273.045,-0.727361
7.45667,273.062,-0.72737
7.45833,273.078,-0.727381
7.46,273.095,-0.727394
7.46167,273.112,-0.727422
7.46333,273.128,-0.727459
7.465,273.145,-0.727498
7.46667,273.161,-0.72754
7.46833,273.178,-0.727576
7.47,273.195,-0.727604
7.47167,273.212,-0.727631
7.47333,273.229,-0.727648
7.475,273.245,-0.727676
7.47667,273.261,-0.727696
7.47833,273.278,-0.727722
7.48,273.295,-0.727743
7.48167,273.312,-0.727773
7.48333,273.328,-0.727803
7.485,273.345,-0.727844
7.48667,273.362,-0.727889
7.48833,273.378,-0.72794
7.49,273.395,-0.727984
7.49167,273.411,-0.728023
7.49333,273.428,-0.728065
7.495,273.445,-0.728099
7.49667,273.461,-0.728122
7.49833,273.478,-0.728138
7.5,273.494,-0.728148
7.50167,273.511,-0.728154
7.50333,273.528,-0.728172
7.505,273.545,-0.7282
7.50667,273.561,-0.728238
7.50833,273.578,-0.728276
7.51,273.595,-0.728314
7.51167,273.611,-0.728354
7.51333,273.628,-0.728389
7.515,273.645,-0.728416
7.51667,273.661,-0.728433
7.51833,273.678,-0.728442
7.52,273.694,-0.728449
7.52167,273.711,-0.728458
7.52333,273.728,-0.728472
7.525,273.744,-0.7285
7.52667,273.761,-0.728538
7.52833,273.778,-0.728579
7.53,273.795,-0.728629
7.53167,273.811,-0.728679
7.53333,273.828,-0.728732
7.535,273.844,-0.72878
7.53667,273.861,-0.728823
7.53833,273.878,-0.728854
7.54,273.894,-0.728877
7.54167,273.911,-0.728888
7.54333,273.927,-0.728897
7.545,273.944,-0.728899
7.54667,273.961,-0.728907
7.54833,273.977,-0.728928
7.55,273.994,-0.728959
7.55167,274.011,-0.728996
7.55333,274.027,-0.729039
7.555,274.044,-0.729086
7.55667,274.061,-0.729127
7.55833,274.077,-0.729164
7.56,274.094,-0.729188
7.56167,274.111,-0.72921
7.56333,274.127,-0.729224
7.565,274.144,-0.729231
7.56667,274.161,-0.729237
7.56833,274.177,-0.72925
7.57,274.194,-0.729278
7.57167,274.21,-0.729309
7.57333,274.227,-0.729339
7.575,274.244,-0.729367
7.57667,274.261,-0.729394
7.57833,274.277,-0.729408
7.58,274.294,-0.729431
7.58167,274.311,-0.729461
7.58333,274.327,-0.729483
7.585,274.344,-0.729496
7.58667,274.36,-0.729504
7.58833,274.377,-0.729523
7.59,274.394,-0.729545
7.59167,274.41,-0.729567
7.59333,274.427,-0.729589
7.595,274.443,-0.729608
7.59667,274.46,-0.729629
7.59833,274.477,-0.729644
7.6,274.493,-0.729668
7.60167,274.51,-0.729696
7.60333,274.526,-0.729729
7.605,274.543,-0.729759
7.60667,274.56,-0.729795
7.60833,274.577,-0.72984
7.61,274.593,-0.729882
7.61167,274.61,-0.729919
7.61333,274.627,-0.729954
7.615,274.644,-0.72999
7.61667,274.66,-0.730021
7.61833,274.676,-0.730054
7.62,274.693,-0.73009
7.62167,274.71,-0.730122
7.62333,274.726,-0.730152
7.625,274.743,-0.730178
7.62667,274.76,-0.730205
7.62833,274.776,-0.730233
7.63,274.793,-0.730251
7.63167,274.81,-0.730258
7.63333,274.826,-0.730258
7.635,274.844,-0.730261
7.63667,274.86,-0.730262
7.63833,274.877,-0.730258
7.64,274.893,-0.730257
7.64167,274.91,-0.730253
7.64333,274.927,-0.730256
7.645,274.943,-0.730269
7.64667,274.96,-0.730289
7.64833,274.977,-0.730319
7.65,274.993,-0.730363
7.65167,275.01,-0.730414
7.65333,275.027,-0.730497
7.655,275.043,-0.730622
7.65667,275.06,-0.730716
7.65833,275.077,-0.730768
7.66,275.093,-0.730813
7.66167,275.11,-0.73085
7.66333,275.127,-0.730885
7.665,275.143,-0.730913
7.66667,275.16,-0.730935
7.66833,275.177,-0.730954
7.67,275.193,-0.730969
7.67167,275.21,-0.730986
7.67333,275.227,-0.731012
7.675,275.243,-0.731032
7.67667,275.26,-0.731052
7.67833,275.276,-0.731079
7.68,275.293,-0.731103
7.68167,275.309,-0.73113
7.68333,275.326,-0.731158
7.685,275.343,-0.731191
7.68667,275.36,-0.731216
7.68833,275.377,-0.731241
7.69,275.393,-0.731266
7.69167,275.41,-0.731279
7.69333,275.427,-0.731279
7.695,275.443,-0.73128
7.69667,275.46,-0.731287
7.69833,275.476,-0.731297
7.7,275.493,-0.731308
7.70167,275.51,-0.731319
7.70333,275.526,-0.731345
7.705,275.543,-0.731395
7.70667,275.56,-0.731486
7.70833,275.576,-0.731542
7.71,275.593,-0.731588
7.71167,275.61,-0.731628
7.71333,275.626,-0.731658
7.715,275.643,-0.731688
7.71667,275.659,-0.731717
7.71833,275.676,-0.73174
7.72,275.693,-0.731755
7.72167,275.71,-0.731775
7.72333,275.726,-0.731796
7.725,275.743,-0.731817
7.72667,275.759,-0.731841
7.72833,275.776,-0.731863
7.73,275.793,-0.731885
7.73167,275.81,-0.731905
7.73333,275.826,-0.731926
7.735,275.843,-0.731951
7.73667,275.86,-0.731973
7.73833,275.876,-0.731989
7.74,275.893,-0.732012
7.74167,275.909,-0.732043
7.74333,275.926,-0.732076
7.745,275.943,-0.732114
7.74667,275.959,-0.732152
7.74833,275.976,-0.732189
7.75,275.992,-0.732219
7.75167,276.009,-0.732235
7.75333,276.025,-0.732252
7.755,276.042,-0.732263
7.75667,276.059,-0.732265
7.75833,276.076,-0.732264
7.76,276.092,-0.732268
7.76167,276.109,-0.732272
7.76333,276.126,-0.732293
7.765,276.143,-0.732321
7.76667,276.16,-0.732353
7.76833,276.176,-0.732398
7.77,276.193,-0.732443
7.77167,276.209,-0.732492
7.77333,276.226,-0.732535
7.775,276.243,-0.732572
7.77667,276.259,-0.7326
7.77833,276.276,-0.732611
7.78,276.293,-0.732614
7.78167,276.309,-0.732618
7.78333,276.326,-0.732616
7.785,276.343,-0.732608
7.78667,276.359,-0.732605
7.78833,276.376,-0.732604
7.79,276.392,-0.732617
7.79167,276.409,-0.732634
7.79333,276.426,-0.73265
7.795,276.443,-0.732672
7.79667,276.459,-0.732691
7.79833,276.476,-0.732712
7.8,276.492,-0.732732
7.80167,276.509,-0.732746
7.80333,276.525,-0.732762
7.805,276.542,-0.732778
7.80667,276.558,-0.732789
7.80833,276.575,-0.732806
7.81,276.592,-0.73283
7.81167,276.609,-0.732856
7.81333,276.626,-0.732889
7.815,276.642,-0.732924
7.81667,276.659,-0.732967
7.81833,276.675,-0.733016
7.82,276.692,-0.733073
7.82167,276.709,-0.733121
7.82333,276.726,-0.733167
7.825,276.742,-0.73321
7.82667,276.759,-0.733248
7.82833,276.775,-0.733283
7.83,276.792,-0.733318
7.83167,276.808,-0.733348
7.83333,276.825,-0.733374
7.835,276.842,-0.733394
7.83667,276.859,-0.733409
7.83833,276.875,-0.733422
7.84,276.892,-0.733442
7.84167,276.909,-0.733463
7.84333,276.925,-0.733485
7.845,276.942,-0.733507
7.84667,276.958,-0.733539
7.84833,276.976,-0.73358
7.85,276.992,-0.733616
7.85167,277.009,-0.733651
7.85333,277.025,-0.733683
7.855,277.042,-0.733716
7.85667,277.059,-0.733737
7.85833,277.075,-0.733766
7.86,277.092,-0.733799
7.86167,277.109,-0.733833
7.86333,277.125,-0.733852
7.865,277.142,-0.733871
7.86667,277.159,-0.733905
7.86833,277.175,-0.733944
7.87,277.192,-0.733989
7.87167,277.208,-0.734027
7.87333,277.225,-0.734062
7.875,277.241,-0.734096
7.87667,277.258,-0.734139
7.87833,277.275,-0.734174
7.88,277.292,-0.734201
7.88167,277.308,-0.734222
7.88333,277.325,-0.734243
7.885,277.341,-0.73426
7.88667,277.358,-0.734277
7.88833,277.375,-0.734289
7.89,277.391,-0.734299
7.89167,277.408,-0.734305
7.89333,277.425,-0.734312
7.895,277.442,-0.734317
7.89667,277.458,-0.734329
7.89833,277.475,-0.734347
7.9,277.491,-0.734363
7.90167,277.508,-0.734386
7.90333,277.525,-0.734418
7.905,277.542,-0.734448
7.90667,277.558,-0.734472
7.90833,277.575,-0.734498
7.91,277.591,-0.734515
7.91167,277.608,-0.73453
7.91333,277.624,-0.73455
7.915,277.641,-0.734574
7.91667,277.658,-0.734604
7.91833,277.674,-0.734625
7.92,277.691,-0.734641
7.92167,277.708,-0.734665
7.92333,277.725,-0.734692
7.925,277.742,-0.734712
7.92667,277.758,-0.734731
7.92833,277.775,-0.734753
7.93,277.791,-0.734777
7.93167,277.808,-0.73481
7.93333,277.824,-0.734843
7.935,277.841,-0.73487
7.93667,277.857,-0.734898
7.93833,277.874,-0.734923
7.94,277.891,-0.734953
7.94167,277.907,-0.734988
7.94333,277.924,-0.735015
7.945,277.941,-0.735034
7.94667,277.958,-0.735046
7.94833,277.975,-0.735067
7.95,277.991,-0.735083
7.95167,278.008,-0.735094
7.95333,278.025,-0.735106
7.955,278.041,-0.735122
7.95667,278.058,-0.73515
7.95833,278.074,-0.73518
7.96,278.091,-0.735218
7.96167,278.108,-0.73526
7.96333,278.124,-0.735304
7.965,278.141,-0.735351
7.96667,278.158,-0.735393
7.96833,278.174,-0.735431
7.97,278.191,-0.735454
7.97167,278.207,-0.735468
7.97333,278.224,-0.735479
7.975,278.24,-0.73549
7.97667,278.257,-0.735502
7.97833,278.274,-0.735516
7.98,278.29,-0.735533
7.98167,278.307,-0.73555
7.98333,278.324,-0.735566
7.985,278.34,-0.735588
7.98667,278.357,-0.735614
7.98833,278.374,-0.73564
7.99,278.39,-0.735673
7.99167,278.407,-0.735702
7.99333,278.424,-0.735727
7.995,278.441,-0.735751
7.99667,278.457,-0.73577
7.99833,278.474,-0.735787
8,278.491,-0.735801
8.00167,278.507,-0.73581
8.00333,278.524,-0.735818
8.005,278.541,-0.735834
8.00667,278.557,-0.735856
8.00833,278.574,-0.735885
8.01,278.591,-0.735919
8.01167,278.607,-0.735953
8.01333,278.624,-0.735981
8.015,278.641,-0.736004
8.01667,278.657,-0.736029
8.01833,278.674,-0.736051
8.02,278.691,-0.736068
8.02167,278.707,-0.736084
8.02333,278.724,-0.736106
8.025,278.741,-0.736131
8.02667,278.757,-0.736161
8.02833,278.774,-0.736198
8.03,278.791,-0.736236
8.03167,278.807,-0.736267
8.03333,278.824,-0.736295
8.035,278.841,-0.736326
8.03667,278.857,-0.736355
8.03833,278.874,-0.736387
8.04,278.89,-0.736412
8.04167,278.907,-0.736433
8.04333,278.924,-0.736453
8.045,278.941,-0.736464
8.04667,278.957,-0.73647
8.04833,278.974,-0.736476
8.05,278.991,-0.736472
8.05167,279.007,-0.736468
8.05333,279.024,-0.736467
8.055,279.04,-0.736476
8.05667,279.057,-0.736494
8.05833,279.074,-0.736518
8.06,279.09,-0.736553
8.06167,279.107,-0.736593
8.06333,279.124,-0.736636
8.065,279.14,-0.736685
8.06667,279.157,-0.736733
8.06833,279.174,-0.736776
8.07,279.191,-0.736808
8.07167,279.207,-0.736833
8.07333,279.224,-0.736858
8.075,279.241,-0.736874
8.07667,279.257,-0.736888
8.07833,279.274,-0.736893
8.08,279.291,-0.736899
8.08167,279.307,-0.736916
8.08333,279.324,-0.736938
8.085,279.341,-0.736967
8.08667,279.357,-0.737003
8.08833,279.374,-0.737042
8.09,279.39,-0.737082
8.09167,279.407,-0.737121
8.09333,279.424,-0.737161
8.095,279.44,-0.737192
8.09667,279.457,-0.737217
8.09833,279.474,-0.737237
8.1,279.49,-0.737261
8.10167,279.507,-0.737279
8.10333,279.524,-0.737292
8.105,279.54,-0.737305
8.10667,279.557,-0.737318
8.10833,279.573,-0.737339
8.11,279.59,-0.737361
8.11167,279.607,-0.737386
8.11333,279.624,-0.737414
8.115,279.64,-0.737443
8.11667,279.657,-0.737478
8.11833,279.674,-0.737513
8.12,279.691,-0.737555
8.12167,279.707,-0.737598
8.12333,279.724,-0.73764
8.125,279.74,-0.737672
8.12667,279.757,-0.737708
8.12833,279.773,-0.737737
8.13,279.79,-0.73776
8.13167,279.807,-0.737782
8.13333,279.824,-0.737804
8.135,279.84,-0.737834
8.13667,279.857,-0.737857
8.13833,279.873,-0.737874
8.14,279.89,-0.737884
8.14167,279.906,-0.737899
8.14333,279.923,-0.737919
8.145,279.94,-0.737943
8.14667,279.957,-0.737965
8.14833,279.974,-0.737985
8.15,279.99,-0.738006
8.15167,280.007,-0.738047
8.15333,280.024,-0.738094
8.155,280.04,-0.738136
8.15667,280.057,-0.738183
8.15833,280.073,-0.738219
8.16,280.09,-0.738257
8.16167,280.107,-0.738298
8.16333,280.123,-0.738347
8.165,280.14,-0.738397
8.16667,280.156,-0.738443
8.16833,280.173,-0.738498
8.17,280.19,-0.738559
8.17167,280.207,-0.73862
8.17333,280.223,-0.738677
8.175,280.24,-0.738723
8.17667,280.257,-0.73875
8.17833,280.273,-0.738772
8.18,280.29,-0.738787
8.18167,280.307,-0.738805
8.18333,280.323,-0.738821
8.185,280.34,-0.738836
8.18667,280.357,-0.738863
8.18833,280.373,-0.738896
8.19,280.39,-0.738932
8.19167,280.407,-0.738972
8.19333,280.423,-0.739026
8.195,280.44,-0.739073
8.19667,280.457,-0.739106
8.19833,280.473,-0.739139
8.2,280.49,-0.739175
8.20167,280.507,-0.739217
8.20333,280.523,-0.739251
8.205,280.54,-0.739288
8.20667,280.557,-0.739325
8.20833,280.573,-0.739358
8.21,280.59,-0.739388
8.21167,280.607,-0.739424
8.21333,280.623,-0.739462
8.215,280.639,-0.739493
8.21667,280.656,-0.73952
8.21833,280.673,-0.739543
8.22,280.69,-0.739565
8.22167,280.706,-0.739589
8.22333,280.723,-0.73961
8.225,280.739,-0.739629
8.22667,280.756,-0.739649
8.22833,280.772,-0.739677
8.23,280.789,-0.739709
8.23167,280.806,-0.739744
8.23333,280.822,-0.739772
8.235,280.839,-0.739809
8.23667,280.856,-0.739851
8.23833,280.872,-0.739894
8.24,280.889,-0.739946
8.24167,280.906,-0.739991
8.24333,280.922,-0.740026
8.245,280.939,-0.740059
8.24667,280.956,-0.74009
8.24833,280.972,-0.740119
8.25,280.989,-0.740151
8.25167,281.006,-0.740178
8.25333,281.022,-0.740203
8.255,281.039,-0.740223
8.25667,281.055,-0.740243
8.25833,281.072,-0.740265
8.26,281.089,-0.740286
8.26167,281.105,-0.740306
8.26333,281.122,-0.740328
8.265,281.139,-0.740351
8.26667,281.156,-0.740378
8.26833,281.172,-0.740414
8.27,281.189,-0.74045
8.27167,281.206,-0.7405
8.27333,281.222,-0.740584
8.275,281.239,-0.740658
8.27667,281.255,-0.740764
8.27833,281.272,-0.740871
8.28,281.289,-0.740974
8.28167,281.306,-0.74104
8.28333,281.322,-0.741096
8.285,281.339,-0.741141
8.28667,281.356,-0.741175
8.28833,281.373,-0.741198
8.29,281.389,-0.741214
8.29167,281.406,-0.741226
8.29333,281.422,-0.741231
8.295,281.439,-0.741235
8.29667,281.455,-0.741244
8.29833,281.472,-0.741256
8.3,281.489,-0.741276
8.30167,281.506,-0.741297
8.30333,281.522,-0.741323
8.305,281.539,-0.741357
8.30667,281.556,-0.741392
8.30833,281.572,-0.74143
8.31,281.589,-0.741471
8.31167,281.605,-0.741513
8.31333,281.622,-0.741555
8.315,281.639,-0.741606
8.31667,281.656,-0.741659
8.31833,281.672,-0.741716
8.32,281.689,-0.741771
8.32167,281.705,-0.741817
8.32333,281.722,-0.741862
8.325,281.739,-0.741902
8.32667,281.755,-0.741936
8.32833,281.772,-0.74196
8.33,281.789,-0.741978
8.33167,281.806,-0.741994
8.33333,281.822,-0.742016
8.335,281.839,-0.742041
8.33667,281.855,-0.742064
8.33833,281.872,-0.742092
8.34,281.889,-0.742131
8.34167,281.905,-0.742167
8.34333,281.922,-0.742202
8.345,281.939,-0.742237
8.34667,281.956,-0.742265
8.34833,281.972,-0.742281
8.35,281.989,-0.742292
8.35167,282.006,-0.742299
8.35333,282.022,-0.742313
8.355,282.039,-0.742328
8.35667,282.055,-0.742346
8.35833,282.072,-0.742374
8.36,282.089,-0.742405
8.36167,282.106,-0.74244
8.36333,282.122,-0.742468
8.365,282.139,-0.742503
8.36667,282.155,-0.742538
8.36833,282.172,-0.742565
8.37,282.189,-0.742596
8.37167,282.205,-0.742627
8.37333,282.222,-0.742661
8.375,282.238,-0.742695
8.37667,282.255,-0.742731
8.37833,282.272,-0.742766
8.38,282.288,-0.7428
8.38167,282.305,-0.742831
8.38333,282.322,-0.742862
8.385,282.338,-0.742883
8.38667,282.355,-0.742896
8.38833,282.371,-0.742917
8.39,282.388,-0.742938
8.39167,282.405,-0.742955
8.39333,282.422,-0.742966
8.395,282.438,-0.742978
8.39667,282.455,-0.742992
8.39833,282.472,-0.74301
8.4,282.488,-0.743032
8.40167,282.505,-0.743053
8.40333,282.522,-0.743066
8.405,282.538,-0.743078
8.40667,282.555,-0.743102
8.40833,282.571,-0.743115
8.41,282.588,-0.743128
8.41167,282.605,-0.74314
8.41333,282.622,-0.743151
8.415,282.638,-0.74316
8.41667,282.655,-0.743172
8.41833,282.671,-0.743187
8.42,282.688,-0.743198
8.42167,282.705,-0.743215
8.42333,282.721,-0.743229
8.425,282.738,-0.74324
8.42667,282.755,-0.743254
8.42833,282.771,-0.743264
8.43,282.788,-0.743283
8.43167,282.805,-0.743312
8.43333,282.821,-0.743336
8.435,282.838,-0.743368
8.43667,282.855,-0.743406
8.43833,282.871,-0.743444
8.44,282.888,-0.743475
8.44167,282.905,-0.743502
8.44333,282.921,-0.743526
8.445,282.938,-0.743554
8.44667,282.955,-0.743574
8.44833,282.971,-0.743597
8.45,282.988,-0.74362
8.45167,283.004,-0.743637
8.45333,283.021,-0.743659
8.455,283.038,-0.743694
8.45667,283.054,-0.743731
8.45833,283.071,-0.743771
8.46,283.088,-0.743817
8.46167,283.105,-0.743861
8.46333,283.121,-0.743909
8.465,283.138,-0.743958
8.46667,283.155,-0.74401
8.46833,283.171,-0.744059
8.47,283.188,-0.744093
8.47167,283.204,-0.744123
8.47333,283.221,-0.74415
8.475,283.238,-0.744163
8.47667,283.254,-0.744173
8.47833,283.271,-0.744184
8.48,283.288,-0.744189
8.48167,283.305,-0.744197
8.48333,283.321,-0.7442
8.485,283.338,-0.74421
8.48667,283.354,-0.744225
8.48833,283.371,-0.744236
8.49,283.388,-0.744252
8.49167,283.405,-0.744276
8.49333,283.421,-0.744309
8.495,283.438,-0.744352
8.49667,283.455,-0.744411
8.49833,283.471,-0.744466
8.5,283.488,-0.744532
8.50167,283.505,-0.744582
8.50333,283.521,-0.744636
8.505,283.537,-0.744683
8.50667,283.554,-0.744726
8.50833,283.571,-0.744754
8.51,283.588,-0.744774
8.51167,283.605,-0.744794
8.51333,283.621,-0.744819
8.515,283.638,-0.744834
8.51667,283.654,-0.744847
8.51833,283.671,-0.744861
8.52,283.688,-0.744873
8.52167,283.705,-0.744886
8.52333,283.721,-0.744907
8.525,283.738,-0.744932
8.52667,283.754,-0.744953
8.52833,283.771,-0.744971
8.53,283.788,-0.74499
8.53167,283.805,-0.74501
8.53333,283.821,-0.745025
8.535,283.838,-0.745029
8.53667,283.854,-0.745033
8.53833,283.871,-0.745038
8.54,283.888,-0.745037
8.54167,283.904,-0.74504
8.54333,283.921,-0.745041
8.545,283.938,-0.74505
8.54667,283.954,-0.745063
8.54833,283.971,-0.745091
8.55,283.988,-0.745124
8.55167,284.004,-0.745161
8.55333,284.021,-0.745201
8.555,284.038,-0.745247
8.55667,284.054,-0.745292
8.55833,284.071,-0.745341
8.56,284.088,-0.745385
8.56167,284.105,-0.745425
8.56333,284.121,-0.74546
8.565,284.138,-0.745489
8.56667,284.154,-0.745514
8.56833,284.171,-0.745532
8.57,284.188,-0.745551
8.57167,284.205,-0.745572
8.57333,284.221,-0.745591
8.575,284.238,-0.745617
8.57667,284.254,-0.745643
8.57833,284.271,-0.745673
8.58,284.288,-0.745711
8.58167,284.305,-0.745754
8.58333,284.321,-0.745802
8.585,284.338,-0.745847
8.58667,284.355,-0.745887
8.58833,284.371,-0.745923
8.59,284.388,-0.745953
8.59167,284.405,-0.745978
8.59333,284.421,-0.746001
8.595,284.438,-0.746021
8.59667,284.454,-0.746041
8.59833,284.471,-0.74605
8.6,284.488,-0.746052
8.60167,284.505,-0.746056
8.60333,284.521,-0.746059
8.605,284.538,-0.746062
8.60667,284.555,-0.746072
8.60833,284.571,-0.746084
8.61,284.588,-0.746092
8.61167,284.605,-0.746118
8.61333,284.621,-0.746158
8.615,284.638,-0.746209
8.61667,284.655,-0.746292
8.61833,284.671,-0.746367
8.62,284.688,-0.746435
8.62167,284.705,-0.746487
8.62333,284.721,-0.74654
8.625,284.738,-0.746593
8.62667,284.755,-0.74664
8.62833,284.772,-0.746681
8.63,284.788,-0.746723
8.63167,284.805,-0.746758
8.63333,284.822,-0.746799
8.635,284.839,-0.746827
8.63667,284.855,-0.746859
8.63833,284.872,-0.746889
8.64,284.889,-0.746921
8.64167,284.905,-0.74695
8.64333,284.922,-0.746984
8.645,284.938,-0.747025
8.64667,284.955,-0.74707
8.64833,284.972,-0.747121
8.65,284.988,-0.747169
8.65167,285.005,-0.747211
8.65333,285.022,-0.747254
8.655,285.038,-0.74729
8.65667,285.055,-0.74732
8.65833,285.072,-0.747346
8.66,285.088,-0.747368
8.66167,285.105,-0.747386
8.66333,285.122,-0.747407
8.665,285.139,-0.747438
8.66667,285.155,-0.747465
8.66833,285.172,-0.747496
8.67,285.188,-0.747522
8.67167,285.205,-0.747553
8.67333,285.221,-0.747584
8.675,285.238,-0.747607
8.67667,285.255,-0.747631
8.67833,285.271,-0.747655
8.68,285.288,-0.747685
8.68167,285.305,-0.747719
8.68333,285.321,-0.747765
8.685,285.338,-0.747809
8.68667,285.355,-0.747852
8.68833,285.371,-0.747896
8.69,285.388,-0.747942
8.69167,285.405,-0.747997
8.69333,285.422,-0.748055
8.695,285.438,-0.748109
8.69667,285.455,-0.748169
8.69833,285.472,-0.748224
8.7,285.488,-0.748273
8.70167,285.505,-0.748321
8.70333,285.521,-0.748368
8.705,285.538,-0.748416
8.70667,285.555,-0.748462
8.70833,285.572,-0.748502
8.71,285.588,-0.748549
8.71167,285.605,-0.748601
8.71333,285.621,-0.748642
8.715,285.638,-0.748684
8.71667,285.655,-0.748716
8.71833,285.671,-0.748743
8.72,285.688,-0.748759
8.72167,285.705,-0.748774
8.72333,285.722,-0.748793
8.725,285.738,-0.748818
8.72667,285.755,-0.748855
8.72833,285.771,-0.748891
8.73,285.788,-0.748932
8.73167,285.805,-0.748977
8.73333,285.822,-0.749021
8.735,285.838,-0.749068
8.73667,285.855,-0.749115
8.73833,285.871,-0.74916
8.74,285.888,-0.749198
8.74167,285.904,-0.74924
8.74333,285.921,-0.749285
8.745,285.938,-0.749328
8.74667,285.954,-0.749374
8.74833,285.971,-0.74942
8.75,285.987,-0.749456
8.75167,286.004,-0.749493
8.75333,286.021,-0.749535
8.755,286.038,-0.749569
8.75667,286.055,-0.749597
8.75833,286.071,-0.749615
8.76,286.087,-0.749629
8.76167,286.104,-0.749648
8.76333,286.121,-0.749668
8.765,286.137,-0.749693
8.76667,286.154,-0.749716
8.76833,286.171,-0.749737
8.77,286.188,-0.74977
8.77167,286.204,-0.749805
8.77333,286.221,-0.749836
8.775,286.237,-0.749867
8.77667,286.254,-0.749898
8.77833,286.271,-0.749918
8.78,286.288,-0.749932
8.78167,286.304,-0.74994
8.78333,286.32,-0.74994
8.785,286.337,-0.749935
8.78667,286.354,-0.749929
8.78833,286.37,-0.74993
8.79,286.387,-0.749942
8.79167,286.404,-0.749966
8.79333,286.421,-0.750003
8.795,286.438,-0.750056
8.79667,286.454,-0.750126
8.79833,286.471,-0.750219
8.8,286.487,-0.750343
8.80167,286.504,-0.750447
8.80333,286.52,-0.750525
8.805,286.537,-0.750575
8.80667,286.554,-0.75062
8.80833,286.571,-0.750661
8.81,286.587,-0.750691
8.81167,286.604,-0.750719
8.81333,286.621,-0.750744
8.815,286.637,-0.750772
8.81667,286.654,-0.750791
8.81833,286.671,-0.7508
8.82,286.687,-0.750813
8.82167,286.704,-0.750829
8.82333,286.721,-0.750845
8.825,286.738,-0.750871
8.82667,286.754,-0.750896
8.82833,286.771,-0.750931
8.83,286.787,-0.75097
8.83167,286.804,-0.751011
8.83333,286.82,-0.751057
8.835,286.837,-0.751104
8.83667,286.854,-0.751152
8.83833,286.87,-0.75121
8.84,286.887,-0.751265
8.84167,286.903,-0.751318
8.84333,286.92,-0.75137
8.845,286.937,-0.751418
8.84667,286.953,-0.751467
8.84833,286.971,-0.751514
8.85,286.987,-0.751569
8.85167,287.004,-0.751623
8.85333,287.021,-0.751683
8.855,287.037,-0.75174
8.85667,287.054,-0.751794
8.85833,287.07,-0.75185
8.86,287.087,-0.751905
8.86167,287.104,-0.751967
8.86333,287.12,-0.75202
8.865,287.137,-0.752063
8.86667,287.153,-0.752095
8.86833,287.17,-0.752133
8.87,287.187,-0.75217
8.87167,287.204,-0.7522
8.87333,287.221,-0.752226
8.875,287.237,-0.752245
8.87667,287.254,-0.75227
8.87833,287.27,-0.752298
8.88,287.287,-0.752331
8.88167,287.303,-0.752362
8.88333,287.32,-0.752402
8.885,287.337,-0.75245
8.88667,287.353,-0.752506
8.88833,287.37,-0.752561
8.89,287.387,-0.752623
8.89167,287.404,-0.75268
8.89333,287.42,-0.752737
8.895,287.437,-0.752793
8.89667,287.453,-0.752841
8.89833,287.47,-0.752888
8.9,287.487,-0.752928
8.90167,287.504,-0.752959
8.90333,287.52,-0.752987
8.905,287.537,-0.753019
8.90667,287.554,-0.753053
8.90833,287.571,-0.75309
8.91,287.587,-0.75312
8.91167,287.604,-0.75316
8.91333,287.621,-0.753199
8.915,287.637,-0.753243
8.91667,287.654,-0.753286
8.91833,287.67,-0.753326
8.92,287.687,-0.753363
8.92167,287.703,-0.753395
8.92333,287.72,-0.75343
8.925,287.736,-0.753468
8.92667,287.753,-0.753503
8.92833,287.77,-0.753541
8.93,287.786,-0.753589
8.93167,287.803,-0.753642
8.93333,287.82,-0.753703
8.935,287.836,-0.753795
8.93667,287.853,-0.753865
8.93833,287.87,-0.75393
8.94,287.887,-0.753987
8.94167,287.903,-0.754049
8.94333,287.92,-0.7541
8.945,287.937,-0.754139
8.94667,287.953,-0.754176
8.94833,287.97,-0.754209
8.95,287.986,-0.754235
8.95167,288.003,-0.75426
8.95333,288.019,-0.754288
8.955,288.036,-0.754333
8.95667,288.053,-0.754432
8.95833,288.069,-0.754928
8.96,288.086,-0.756283
8.96167,288.103,-0.760481
8.96333,288.119,-0.76939
8.965,288.136,-0.78438
8.96667,288.152,-0.806272
8.96833,288.169,-0.826574
8.97,288.186,-0.840751
8.97167,288.202,-0.850333
8.97333,288.218,-0.86062
8.975,288.235,-0.870073
8.97667,288.251,-0.87606
8.97833,288.267,-0.874686
8.98,288.284,-0.868306
8.98167,288.3,-0.856247
8.98333,288.317,-0.847879
8.985,288.334,-0.833577
8.98667,288.35,-0.830275
8.98833,288.367,-0.828962
8.99,288.384,-0.825672
8.99167,288.4,-0.821021
8.99333,288.417,-0.81532
8.995,288.434,-0.810094
8.99667,288.45,-0.804395
8.99833,288.467,-0.800119
9,288.484,-0.796543
9.00167,288.501,-0.792573
9.00333,288.517,-0.78877
9.005,288.534,-0.785729
9.00667,288.551,-0.783615
9.00833,288.568,-0.781585
9.01,288.584,-0.779948
9.01167,288.601,-0.778609
9.01333,288.618,-0.777706
9.015,288.635,-0.777138
9.01667,288.651,-0.776803
9.01833,288.668,-0.776591
9.02,288.685,-0.776329
9.02167,288.701,-0.775976
9.02333,288.718,-0.775608
9.025,288.735,-0.775194
9.02667,288.752,-0.77476
9.02833,288.768,-0.774435
9.03,288.784,-0.774152
9.03167,288.801,-0.773914
9.03333,288.818,-0.773731
9.035,288.834,-0.773676
9.03667,288.851,-0.773657
9.03833,288.868,-0.773654
9.04,288.884,-0.773655
9.04167,288.902,-0.773657
9.04333,288.918,-0.773648
9.045,288.935,-0.773635
9.04667,288.951,-0.773631
9.04833,288.968,-0.773623
9.05,288.985,-0.773606
9.05167,289.001,-0.77357
9.05333,289.018,-0.773547
9.055,289.035,-0.773539
9.05667,289.051,-0.773539
9.05833,289.068,-0.773538
9.06,289.085,-0.773531
9.06167,289.101,-0.773527
9.06333,289.118,-0.773524
9.065,289.135,-0.773525
9.06667,289.152,-0.773513
9.06833,289.168,-0.773499
9.07,289.185,-0.773491
9.07167,289.202,-0.773472
9.07333,289.218,-0.773455
9.075,289.235,-0.773437
9.07667,289.252,-0.773419
9.07833,289.268,-0.773402
9.08,289.285,-0.773392
9.08167,289.301,-0.773394
9.08333,289.318,-0.773398
9.085,289.335,-0.773406
9.08667,289.352,-0.773418
9.08833,289.369,-0.773432
9.09,289.385,-0.773439
9.09167,289.402,-0.773436
9.09333,289.418,-0.773433
9.095,289.435,-0.77343
9.09667,289.452,-0.77342
9.09833,289.469,-0.773406
9.1,289.485,-0.773392
9.10167,289.502,-0.773385
9.10333,289.518,-0.773381
9.105,289.535,-0.773382
9.10667,289.552,-0.773393
9.10833,289.569,-0.773405
9.11,289.585,-0.773414
9.11167,289.602,-0.773425
9.11333,289.619,-0.773426
9.115,289.635,-0.77343
9.11667,289.652,-0.773436
9.11833,289.669,-0.773435
9.12,289.685,-0.77343
9.12167,289.702,-0.773423
9.12333,289.718,-0.773419
9.125,289.735,-0.77342
9.12667,289.752,-0.773427
9.12833,289.768,-0.773429
9.13,289.785,-0.773432
9.13167,289.802,-0.773434
9.13333,289.818,-0.773444
9.135,289.835,-0.77345
9.13667,289.852,-0.773458
9.13833,289.868,-0.773465
9.14,289.885,-0.773482
9.14167,289.902,-0.773495
9.14333,289.919,-0.773513
9.145,289.935,-0.773526
9.14667,289.952,-0.773541
9.14833,289.968,-0.773545
9.15,289.985,-0.773547
9.15167,290.002,-0.773546
9.15333,290.019,-0.77354
9.155,290.035,-0.773534
9.15667,290.052,-0.77353
9.15833,290.069,-0.773541
9.16,290.085,-0.773561
9.16167,290.102,-0.773576
9.16333,290.118,-0.773593
9.165,290.135,-0.773603
9.16667,290.152,-0.773618
9.16833,290.169,-0.773637
9.17,290.185,-0.773659
9.17167,290.201,-0.773669
9.17333,290.218,-0.773676
9.175,290.235,-0.773672
9.17667,290.252,-0.773657
9.17833,290.269,-0.77365
9.18,290.285,-0.773642
9.18167,290.302,-0.773635
9.18333,290.318,-0.773628
9.185,290.335,-0.773624
9.18667,290.351,-0.773633
9.18833,290.368,-0.77365
9.19,290.385,-0.773672
9.19167,290.402,-0.773691
9.19333,290.418,-0.773706
9.195,290.435,-0.773721
9.19667,290.451,-0.773743
9.19833,290.468,-0.773761
9.2,290.485,-0.773781
9.20167,290.501,-0.773802
9.20333,290.517,-0.773822
9.205,290.535,-0.773839
9.20667,290.551,-0.773859
9.20833,290.568,-0.773881
9.21,290.585,-0.773905
9.21167,290.602,-0.773922
9.21333,290.618,-0.773942
9.215,290.635,-0.773962
9.21667,290.651,-0.773976
9.21833,290.668,-0.773995
9.22,290.685,-0.774019
9.22167,290.701,-0.774042
9.22333,290.718,-0.774063
9.225,290.735,-0.774083
9.22667,290.751,-0.774107
9.22833,290.768,-0.774135
9.23,290.784,-0.774166
9.23167,290.801,-0.774198
9.23333,290.817,-0.774225
9.235,290.834,-0.774246
9.23667,290.851,-0.774273
9.23833,290.868,-0.774295
9.24,290.884,-0.774303
9.24167,290.901,-0.774307
9.24333,290.917,-0.774308
9.245,290.934,-0.774305
9.24667,290.951,-0.774304
9.24833,290.968,-0.774313
9.25,290.984,-0.774328
9.25167,291.001,-0.774341
9.25333,291.017,-0.774349
9.255,291.034,-0.774361
9.25667,291.051,-0.774382
9.25833,291.067,-0.774412
9.26,291.084,-0.774446
9.26167,291.101,-0.774487
9.26333,291.117,-0.774536
9.265,291.134,-0.774587
9.26667,291.151,-0.774638
9.26833,291.167,-0.774684
9.27,291.184,-0.774724
9.27167,291.2,-0.774752
9.27333,291.217,-0.774773
9.275,291.234,-0.774793
9.27667,291.25,-0.774812
9.27833,291.267,-0.77483
9.28,291.284,-0.774846
9.28167,291.301,-0.774867
9.28333,291.317,-0.774887
9.285,291.334,-0.774908
9.28667,291.35,-0.774929
9.28833,291.367,-0.774953
9.29,291.384,-0.774984
9.29167,291.4,-0.775012
9.29333,291.417,-0.775042
9.295,291.434,-0.775071
9.29667,291.45,-0.775102
9.29833,291.467,-0.775138
9.3,291.484,-0.775176
9.30167,291.5,-0.775212
9.30333,291.517,-0.775243
9.305,291.534,-0.77527
9.30667,291.55,-0.775299
9.30833,291.567,-0.775317
9.31,291.583,-0.775334
9.31167,291.6,-0.775337
9.31333,291.617,-0.775345
9.315,291.633,-0.775357
9.31667,291.65,-0.775365
9.31833,291.667,-0.775381
9.32,291.684,-0.7754
9.32167,291.7,-0.775427
9.32333,291.717,-0.77546
9.325,291.733,-0.775504
9.32667,291.75,-0.775558
9.32833,291.767,-0.775624
9.33,291.783,-0.77568
9.33167,291.8,-0.775738
9.33333,291.817,-0.775787
9.335,291.834,-0.775825
9.33667,291.85,-0.77585
9.33833,291.867,-0.77587
9.34,291.883,-0.775886
9.34167,291.9,-0.775902
9.34333,291.916,-0.775911
9.345,291.933,-0.775919
9.34667,291.95,-0.775936
9.34833,291.967,-0.775956
9.35,291.983,-0.775983
9.35167,291.999,-0.776013
9.35333,292.016,-0.776046
9.355,292.033,-0.776084
9.35667,292.05,-0.776125
9.35833,292.066,-0.776168
9.36,292.083,-0.776213
9.36167,292.1,-0.776259
9.36333,292.116,-0.776301
9.365,292.133,-0.776347
9.36667,292.15,-0.776384
9.36833,292.166,-0.776416
9.37,292.183,-0.776451
9.37167,292.2,-0.776488
9.37333,292.216,-0.776523
9.375,292.233,-0.776565
9.37667,292.249,-0.776604
9.37833,292.266,-0.776638
9.38,292.283,-0.776681
9.38167,292.3,-0.776736
9.38333,292.316,-0.776797
9.385,292.333,-0.77686
9.38667,292.35,-0.776923
9.38833,292.366,-0.776992
9.39,292.383,-0.777046
9.39167,292.4,-0.777095
9.39333,292.416,-0.777144
9.395,292.433,-0.777179
9.39667,292.45,-0.777205
9.39833,292.466,-0.777218
9.4,292.483,-0.777229
9.40167,292.499,-0.777239
9.40333,292.516,-0.777259
9.405,292.533,-0.777283
9.40667,292.549,-0.777302
9.40833,292.566,-0.77731
9.41,292.583,-0.777321
9.41167,292.599,-0.777338
9.41333,292.616,-0.777355
9.415,292.632,-0.777379
9.41667,292.649,-0.777414
9.41833,292.666,-0.777456
9.42,292.683,-0.777505
9.42167,292.699,-0.777565
9.42333,292.716,-0.777624
9.425,292.733,-0.777684
9.42667,292.749,-0.777744
9.42833,292.766,-0.77779
9.43,292.783,-0.777836
9.43167,292.799,-0.777884
9.43333,292.816,-0.777932
9.435,292.833,-0.777978
9.43667,292.849,-0.778014
9.43833,292.866,-0.778039
9.44,292.882,-0.778061
9.44167,292.899,-0.778079
9.44333,292.916,-0.778098
9.445,292.932,-0.77812
9.44667,292.949,-0.778132
9.44833,292.966,-0.778147
9.45,292.982,-0.778169
9.45167,292.999,-0.778188
9.45333,293.015,-0.778207
9.455,293.032,-0.778228
9.45667,293.049,-0.778258
9.45833,293.066,-0.778285
9.46,293.082,-0.77832
9.46167,293.099,-0.778362
9.46333,293.116,-0.778417
9.465,293.132,-0.778476
9.46667,293.149,-0.778532
9.46833,293.166,-0.778583
9.47,293.182,-0.778622
9.47167,293.199,-0.778658
9.47333,293.215,-0.778686
9.475,293.232,-0.778715
9.47667,293.249,-0.778749
9.47833,293.266,-0.778792
9.48,293.283,-0.778838
9.48167,293.299,-0.778884
9.48333,293.316,-0.778927
9.485,293.332,-0.778972
9.48667,293.349,-0.779014
9.48833,293.366,-0.779053
9.49,293.382,-0.779091
9.49167,293.399,-0.779122
9.49333,293.415,-0.779149
9.495,293.432,-0.779174
9.49667,293.449,-0.779208
9.49833,293.466,-0.779237
9.5,293.482,-0.779271
9.50167,293.499,-0.779305
9.50333,293.515,-0.77934
9.505,293.532,-0.779381
9.50667,293.549,-0.779429
9.50833,293.565,-0.779482
9.51,293.582,-0.779535
9.51167,293.599,-0.779585
9.51333,293.615,-0.779637
9.515,293.632,-0.77968
9.51667,293.649,-0.779726
9.51833,293.665,-0.779776
9.52,293.682,-0.77982
9.52167,293.698,-0.779866
9.52333,293.715,-0.77991
9.525,293.732,-0.779946
9.52667,293.748,-0.779982
9.52833,293.764,-0.780013
9.53,293.781,-0.780052
9.53167,293.798,-0.780087
9.53333,293.815,-0.780121
9.535,293.831,-0.780156
9.53667,293.848,-0.780183
9.53833,293.865,-0.780214
9.54,293.881,-0.78025
9.54167,293.898,-0.780279
9.54333,293.915,-0.780308
9.545,293.931,-0.780338
9.54667,293.948,-0.780375
9.54833,293.964,-0.780415
9.55,293.981,-0.780447
9.55167,293.998,-0.780483
9.55333,294.014,-0.780523
9.555,294.031,-0.780568
9.55667,294.048,-0.780612
9.55833,294.065,-0.780663
9.56,294.081,-0.780713
9.56167,294.098,-0.780773
9.56333,294.115,-0.780826
9.565,294.132,-0.780865
9.56667,294.148,-0.780894
9.56833,294.165,-0.780913
9.57,294.181,-0.780936
9.57167,294.198,-0.780957
9.57333,294.214,-0.780978
9.575,294.231,-0.780991
9.57667,294.247,-0.781017
9.57833,294.264,-0.781047
9.58,294.281,-0.781093
9.58167,294.297,-0.781142
9.58333,294.314,-0.78119
9.585,294.331,-0.781235
9.58667,294.347,-0.781286
9.58833,294.364,-0.781335
9.59,294.381,-0.781384
9.59167,294.397,-0.78143
9.59333,294.414,-0.781474
9.595,294.431,-0.781519
9.59667,294.447,-0.781563
9.59833,294.464,-0.781603
9.6,294.481,-0.781645
9.60167,294.498,-0.781681
9.60333,294.514,-0.781717
9.605,294.531,-0.78175
9.60667,294.547,-0.781778
9.60833,294.564,-0.7818
9.61,294.581,-0.781823
9.61167,294.597,-0.781842
9.61333,294.614,-0.781862
9.615,294.631,-0.781885
9.61667,294.647,-0.781906
9.61833,294.664,-0.781916
9.62,294.681,-0.781933
9.62167,294.697,-0.781959
9.62333,294.714,-0.781992
9.625,294.73,-0.782027
9.62667,294.747,-0.782067
9.62833,294.764,-0.782112
9.63,294.781,-0.782156
9.63167,294.797,-0.782196
9.63333,294.814,-0.782239
9.635,294.83,-0.782294
9.63667,294.847,-0.78235
9.63833,294.864,-0.782406
9.64,294.88,-0.782464
9.64167,294.897,-0.782517
9.64333,294.913,-0.782578
9.645,294.93,-0.782631
9.64667,294.947,-0.782682
9.64833,294.964,-0.782734
9.65,294.98,-0.782784
9.65167,294.997,-0.782824
9.65333,295.014,-0.782862
9.655,295.03,-0.782898
9.65667,295.046,-0.782936
9.65833,295.063,-0.78297
9.66,295.08,-0.783008
9.66167,295.097,-0.783055
9.66333,295.113,-0.783109
9.665,295.13,-0.783165
9.66667,295.147,-0.783227
9.66833,295.164,-0.783292
9.67,295.18,-0.783351
9.67167,295.197,-0.783417
9.67333,295.214,-0.783482
9.675,295.23,-0.783532
9.67667,295.247,-0.783583
9.67833,295.263,-0.783619
9.68,295.28,-0.78365
9.68167,295.297,-0.783678
9.68333,295.313,-0.7837
9.685,295.33,-0.783716
9.68667,295.347,-0.783728
9.68833,295.363,-0.783748
9.69,295.38,-0.783767
9.69167,295.396,-0.783792
9.69333,295.413,-0.783825
9.695,295.429,-0.783863
9.69667,295.446,-0.783907
9.69833,295.463,-0.783943
9.7,295.479,-0.783968
9.70167,295.496,-0.784001
9.70333,295.512,-0.784035
9.705,295.529,-0.784065
9.70667,295.545,-0.784104
9.70833,295.562,-0.784149
9.71,295.579,-0.784192
9.71167,295.595,-0.784242
9.71333,295.612,-0.78429
9.715,295.629,-0.784338
9.71667,295.646,-0.784398
9.71833,295.662,-0.784448
9.72,295.679,-0.784501
9.72167,295.696,-0.78455
9.72333,295.712,-0.784594
9.725,295.729,-0.784636
9.72667,295.745,-0.784686
9.72833,295.762,-0.784725
9.73,295.778,-0.784768
9.73167,295.795,-0.784806
9.73333,295.811,-0.784834
9.735,295.828,-0.784862
9.73667,295.845,-0.784888
9.73833,295.862,-0.784918
9.74,295.879,-0.784947
9.74167,295.895,-0.784979
9.74333,295.911,-0.785005
9.745,295.928,-0.785041
9.74667,295.945,-0.785081
9.74833,295.962,-0.785125
9.75,295.979,-0.785169
9.75167,295.995,-0.785216
9.75333,296.012,-0.785259
9.755,296.029,-0.785297
9.75667,296.045,-0.785337
9.75833,296.062,-0.785369
9.76,296.078,-0.785392
9.76167,296.095,-0.785417
9.76333,296.112,-0.78545
9.765,296.128,-0.785487
9.76667,296.145,-0.785522
9.76833,296.162,-0.785555
9.77,296.178,-0.785585
9.77167,296.195,-0.785619
9.77333,296.212,-0.785654
9.775,296.228,-0.785691
9.77667,296.245,-0.785725
9.77833,296.261,-0.785756
9.78,296.278,-0.785788
9.78167,296.295,-0.785818
9.78333,296.311,-0.785857
9.785,296.328,-0.785901
9.78667,296.344,-0.785938
9.78833,296.361,-0.785968
9.79,296.378,-0.786003
9.79167,296.394,-0.786035
9.79333,296.411,-0.786075
9.795,296.428,-0.786113
9.79667,296.444,-0.786154
9.79833,296.461,-0.786196
9.8,296.478,-0.786245
9.80167,296.495,-0.786289
9.80333,296.511,-0.786335
9.805,296.528,-0.786386
9.80667,296.544,-0.786436
9.80833,296.561,-0.786488
9.81,296.577,-0.786537
9.81167,296.594,-0.786585
9.81333,296.611,-0.786633
9.815,296.627,-0.786677
9.81667,296.644,-0.786715
9.81833,296.661,-0.786751
9.82,296.677,-0.786785
9.82167,296.694,-0.786816
9.82333,296.711,-0.786844
9.825,296.727,-0.786869
9.82667,296.744,-0.786898
9.82833,296.761,-0.786926
9.83,296.777,-0.786962
9.83167,296.794,-0.787011
9.83333,296.81,-0.787063
9.835,296.827,-0.787123
9.83667,296.843,-0.787188
9.83833,296.86,-0.787248
9.84,296.877,-0.787298
9.84167,296.894,-0.78734
9.84333,296.91,-0.787379
9.845,296.927,-0.787407
9.84667,296.944,-0.787425
9.84833,296.96,-0.787433
9.85,296.977,-0.787444
9.85167,296.994,-0.787456
9.85333,297.011,-0.787465
9.855,297.027,-0.787479
9.85667,297.044,-0.787499
9.85833,297.061,-0.787523
9.86,297.077,-0.787551
9.86167,297.094,-0.787597
9.86333,297.111,-0.787645
9.865,297.127,-0.787696
9.86667,297.144,-0.787752
9.86833,297.16,-0.787805
9.87,297.177,-0.78786
9.87167,297.194,-0.787909
9.87333,297.21,-0.787958
9.875,297.227,-0.788007
9.87667,297.243,-0.788057
9.87833,297.26,-0.788112
9.88,297.277,-0.788169
9.88167,297.294,-0.788228
9.88333,297.31,-0.788283
9.885,297.327,-0.788334
9.88667,297.343,-0.788374
9.88833,297.36,-0.788409
9.89,297.377,-0.788441
9.89167,297.393,-0.788467
9.89333,297.41,-0.788485
9.895,297.427,-0.788506
9.89667,297.443,-0.788533
9.89833,297.46,-0.788566
9.9,297.477,-0.788601
9.90167,297.493,-0.788653
9.90333,297.51,-0.788706
9.905,297.526,-0.788754
9.90667,297.543,-0.788802
9.90833,297.56,-0.788852
9.91,297.577,-0.788902
9.91167,297.593,-0.788952
9.91333,297.61,-0.789
9.915,297.627,-0.789048
9.91667,297.643,-0.789096
9.91833,297.66,-0.789133
9.92,297.677,-0.789166
9.92167,297.693,-0.789198
9.92333,297.71,-0.789225
9.925,297.726,-0.789239
9.92667,297.743,-0.789248
9.92833,297.76,-0.789259
9.93,297.776,-0.789269
9.93167,297.793,-0.789278
9.93333,297.809,-0.789291
9.935,297.826,-0.789304
9.93667,297.842,-0.789323
9.93833,297.859,-0.789358
9.94,297.876,-0.789396
9.94167,297.893,-0.789438
9.94333,297.909,-0.789474
9.945,297.926,-0.789515
9.94667,297.943,-0.789552
9.94833,297.96,-0.789585
9.95,297.976,-0.789626
9.95167,297.993,-0.789666
9.95333,298.01,-0.789697
9.955,298.026,-0.789734
9.95667,298.043,-0.789775
9.95833,298.059,-0.78982
9.96,298.076,-0.78986
9.96167,298.092,-0.789894
9.96333,298.109,-0.789937
9.965,298.125,-0.789977
9.96667,298.142,-0.790015
9.96833,298.159,-0.790049
9.97,298.176,-0.790076
9.97167,298.192,-0.790096
9.97333,298.209,-0.790118
9.975,298.225,-0.790149
9.97667,298.242,-0.790182
9.97833,298.259,-0.790216
9.98,298.276,-0.790246
9.98167,298.292,-0.790286
9.98333,298.309,-0.790326
9.985,298.326,-0.790362
9.98667,298.343,-0.790395
9.98833,298.359,-0.790416
9.99,298.376,-0.790443
9.99167,298.392,-0.790483
9.99333,298.409,-0.790511
9.995,298.426,-0.790532
9.99667,298.442,-0.790561
9.99833,298.459,-0.790581
10,298.476,-0.790606
10.0017,298.492,-0.790634
10.0033,298.509,-0.790662
10.005,298.526,-0.790689
10.0067,298.542,-0.790721
10.0083,298.559,-0.790758
10.01,298.576,-0.790802
10.0117,298.593,-0.790854
10.0133,298.609,-0.79091
10.015,298.626,-0.790956
10.0167,298.642,-0.790999
10.0183,298.659,-0.791041
10.02,298.676,-0.791076
10.0217,298.692,-0.791101
10.0233,298.709,-0.791132
10.025,298.725,-0.79116
10.0267,298.742,-0.791192
10.0283,298.759,-0.79122
10.03,298.776,-0.791252
10.0317,298.792,-0.791293
10.0333,298.809,-0.791333
10.035,298.826,-0.791386
10.0367,298.843,-0.791445
10.0383,298.859,-0.791504
10.04,298.876,-0.79156
10.0417,298.892,-0.791616
10.0433,298.909,-0.791665
10.045,298.926,-0.791714
10.0467,298.942,-0.791764
10.0483,298.959,-0.791802
10.05,298.975,-0.791836
10.0517,298.992,-0.791874
10.0533,299.009,-0.791918
10.055,299.026,-0.79196
10.0567,299.042,-0.791996
10.0583,299.059,-0.792043
10.06,299.076,-0.792117
10.0617,299.092,-0.792183
10.0633,299.109,-0.79225
10.065,299.126,-0.792303
10.0667,299.142,-0.792351
10.0683,299.159,-0.792401
10.07,299.176,-0.792449
10.0717,299.192,-0.792505
10.0733,299.208,-0.792556
10.075,299.225,-0.792603
10.0767,299.242,-0.79265
10.0783,299.258,-0.792701
10.08,299.275,-0.792755
10.0817,299.292,-0.79281
10.0833,299.309,-0.79286
10.085,299.325,-0.792913
10.0867,299.342,-0.792972
10.0883,299.359,-0.79303
10.09,299.375,-0.793097
10.0917,299.392,-0.793167
10.0933,299.408,-0.793238
10.095,299.425,-0.793309
10.0967,299.442,-0.793379
10.0983,299.459,-0.793442
10.1,299.476,-0.793506
10.1017,299.492,-0.793569
10.1033,299.509,-0.793618
10.105,299.526,-0.793662
10.1067,299.542,-0.793697
10.1083,299.559,-0.793732
10.11,299.575,-0.793763
10.1117,299.592,-0.793795
10.1133,299.609,-0.793828
10.115,299.625,-0.793869
10.1167,299.642,-0.793916
10.1183,299.659,-0.793959
10.12,299.676,-0.79401
10.1217,299.692,-0.794064
10.1233,299.709,-0.794109
10.125,299.726,-0.794152
10.1267,299.742,-0.794189
10.1283,299.759,-0.794231
10.13,299.776,-0.794277
10.1317,299.792,-0.794316
10.1333,299.808,-0.79436
10.135,299.825,-0.794415
10.1367,299.842,-0.79447
10.1383,299.859,-0.79451
10.14,299.876,-0.794548
10.1417,299.892,-0.794578
10.1433,299.909,-0.7946
10.145,299.925,-0.794621
10.1467,299.942,-0.794637
10.1483,299.959,-0.79466
10.15,299.976,-0.794694
10.1517,299.993,-0.794739
10.1533,300.009,-0.794794
10.155,300.026,-0.794858
10.1567,300.042,-0.794927
10.1583,300.059,-0.794996
10.16,300.075,-0.795082
10.1617,300.092,-0.795173
10.1633,300.109,-0.795236
10.165,300.126,-0.795294
10.1667,300.142,-0.79535
10.1683,300.159,-0.795391
10.17,300.176,-0.795413
10.1717,300.192,-0.795436
10.1733,300.209,-0.795452
10.175,300.226,-0.795472
10.1767,300.243,-0.795499
10.1783,300.26,-0.795533
10.18,300.276,-0.795578
10.1817,300.293,-0.795632
10.1833,300.31,-0.795683
10.185,300.326,-0.795736
10.1867,300.343,-0.795779
10.1883,300.359,-0.795813
10.19,300.376,-0.795845
10.1917,300.393,-0.795865
10.1933,300.409,-0.79588
10.195,300.427,-0.795893
10.1967,300.443,-0.795913
10.1983,300.459,-0.795935
10.2,300.476,-0.795975
10.2017,300.493,-0.796013
10.2033,300.51,-0.796051
10.205,300.526,-0.796099
10.2067,300.543,-0.796154
10.2083,300.559,-0.796207
10.21,300.576,-0.796256
10.2117,300.593,-0.796304
10.2133,300.61,-0.796353
10.215,300.626,-0.796401
10.2167,300.643,-0.796444
10.2183,300.66,-0.796491
10.22,300.676,-0.796546
10.2217,300.693,-0.796592
10.2233,300.709,-0.796623
10.225,300.726,-0.796648
10.2267,300.743,-0.796667
10.2283,300.759,-0.796683
10.23,300.776,-0.796705
10.2317,300.793,-0.796729
10.2333,300.809,-0.796755
10.235,300.826,-0.796791
10.2367,300.843,-0.796833
10.2383,300.86,-0.796882
10.24,300.876,-0.796934
10.2417,300.893,-0.796988
10.2433,300.909,-0.797038
10.245,300.926,-0.797091
10.2467,300.943,-0.797145
10.2483,300.96,-0.797202
10.25,300.977,-0.797259
10.2517,300.993,-0.797313
10.2533,301.01,-0.797374
10.255,301.026,-0.797426
10.2567,301.043,-0.79747
10.2583,301.059,-0.79751
10.26,301.076,-0.797543
10.2617,301.093,-0.797565
10.2633,301.11,-0.797584
10.265,301.126,-0.79759
10.2667,301.143,-0.797601
10.2683,301.159,-0.797608
10.27,301.176,-0.797626
10.2717,301.193,-0.797646
10.2733,301.209,-0.797669
10.275,301.226,-0.797697
10.2767,301.243,-0.797738
10.2783,301.259,-0.797781
10.28,301.276,-0.797829
10.2817,301.293,-0.797884
10.2833,301.309,-0.797942
10.285,301.326,-0.797997
10.2867,301.343,-0.798055
10.2883,301.36,-0.79811
10.29,301.376,-0.798165
10.2917,301.393,-0.798214
10.2933,301.409,-0.798263
10.295,301.426,-0.798304
10.2967,301.443,-0.798338
10.2983,301.459,-0.79836
10.3,301.476,-0.798377
10.3017,301.492,-0.798393
10.3033,301.509,-0.7984
10.305,301.526,-0.798413
10.3067,301.542,-0.798436
10.3083,301.559,-0.798462
10.31,301.576,-0.798494
10.3117,301.592,-0.798534
10.3133,301.609,-0.798574
10.315,301.626,-0.798614
10.3167,301.642,-0.798652
10.3183,301.659,-0.798689
10.32,301.675,-0.798722
10.3217,301.692,-0.798755
10.3233,301.709,-0.798794
10.325,301.726,-0.798833
10.3267,301.742,-0.798872
10.3283,301.759,-0.798916
10.33,301.775,-0.798965
10.3317,301.792,-0.79902
10.3333,301.809,-0.799083
10.335,301.825,-0.799144
10.3367,301.842,-0.7992
10.3383,301.858,-0.79926
10.34,301.875,-0.799322
10.3417,301.892,-0.799375
10.3433,301.909,-0.799423
10.345,301.926,-0.799469
10.3467,301.943,-0.799508
10.3483,301.959,-0.799543
10.35,301.976,-0.799567
10.3517,301.992,-0.799583
10.3533,302.009,-0.799597
10.355,302.025,-0.799607
10.3567,302.042,-0.799615
10.3583,302.059,-0.799625
10.36,302.076,-0.799629
10.3617,302.092,-0.799646
10.3633,302.109,-0.799673
10.365,302.126,-0.799705
10.3667,302.143,-0.799746
10.3683,302.159,-0.79979
10.37,302.176,-0.799831
10.3717,302.193,-0.799873
10.3733,302.209,-0.79991
10.375,302.226,-0.799944
10.3767,302.242,-0.799973
10.3783,302.259,-0.800003
10.38,302.275,-0.800043
10.3817,302.292,-0.800087
10.3833,302.309,-0.80012
10.385,302.326,-0.800157
10.3867,302.342,-0.800193
10.3883,302.359,-0.800231
10.39,302.376,-0.80027
10.3917,302.392,-0.800309
10.3933,302.409,-0.800352
10.395,302.426,-0.800386
10.3967,302.442,-0.800411
10.3983,302.459,-0.80043
10.4,302.476,-0.800455
10.4017,302.492,-0.800475
10.4033,302.509,-0.800489
10.405,302.526,-0.800509
10.4067,302.542,-0.800524
10.4083,302.559,-0.800538
10.41,302.575,-0.800568
10.4117,302.592,-0.800607
10.4133,302.609,-0.800658
10.415,302.626,-0.80071
10.4167,302.642,-0.800758
10.4183,302.659,-0.800806
10.42,302.676,-0.800859
10.4217,302.692,-0.800915
10.4233,302.709,-0.800968
10.425,302.726,-0.80102
10.4267,302.742,-0.801068
10.4283,302.759,-0.801121
10.43,302.776,-0.801172
10.4317,302.792,-0.801223
10.4333,302.809,-0.801271
10.435,302.826,-0.801331
10.4367,302.842,-0.801391
10.4383,302.859,-0.80145
10.44,302.876,-0.801509
10.4417,302.892,-0.80156
10.4433,302.909,-0.801609
10.445,302.926,-0.801651
10.4467,302.943,-0.801688
10.4483,302.959,-0.801718
10.45,302.976,-0.801737
10.4517,302.992,-0.801742
10.4533,303.009,-0.801751
10.455,303.025,-0.801764
10.4567,303.042,-0.80178
10.4583,303.059,-0.801794
10.46,303.075,-0.801803
10.4617,303.092,-0.801825
10.4633,303.109,-0.801854
10.465,303.125,-0.801893
10.4667,303.142,-0.801934
10.4683,303.158,-0.801973
10.47,303.176,-0.802014
10.4717,303.192,-0.802068
10.4733,303.209,-0.802121
10.475,303.225,-0.802172
10.4767,303.242,-0.802218
10.4783,303.259,-0.802256
10.48,303.275,-0.802299
10.4817,303.292,-0.802344
10.4833,303.309,-0.802391
10.485,303.325,-0.802435
10.4867,303.342,-0.802483
10.4883,303.359,-0.80253
10.49,303.376,-0.802583
10.4917,303.392,-0.80264
10.4933,303.409,-0.802699
10.495,303.426,-0.802761
10.4967,303.442,-0.802814
10.4983,303.459,-0.802863
10.5,303.475,-0.802916
10.5017,303.492,-0.802964
10.5033,303.509,-0.803007
10.505,303.525,-0.803042
10.5067,303.542,-0.803071
10.5083,303.559,-0.803085
10.51,303.575,-0.803088
10.5117,303.592,-0.803088
10.5133,303.609,-0.803093
10.515,303.625,-0.8031
10.5167,303.642,-0.803111
10.5183,303.659,-0.803136
10.52,303.675,-0.803164
10.5217,303.691,-0.80319
10.5233,303.708,-0.803216
10.525,303.725,-0.803254
10.5267,303.742,-0.803296
10.5283,303.758,-0.803334
10.53,303.775,-0.803365
10.5317,303.792,-0.803396
10.5333,303.809,-0.803435
10.535,303.825,-0.803484
10.5367,303.842,-0.803534
10.5383,303.858,-0.803593
10.54,303.875,-0.80365
10.5417,303.892,-0.8037
10.5433,303.908,-0.803744
10.545,303.925,-0.803789
10.5467,303.941,-0.803823
10.5483,303.958,-0.803848
10.55,303.975,-0.80387
10.5517,303.991,-0.803892
10.5533,304.008,-0.803921
10.555,304.025,-0.80395
10.5567,304.042,-0.803981
10.5583,304.058,-0.804022
10.56,304.075,-0.804067
10.5617,304.091,-0.804116
10.5633,304.108,-0.804172
10.565,304.124,-0.804224
10.5667,304.141,-0.80428
10.5683,304.158,-0.804334
10.57,304.174,-0.804376
10.5717,304.191,-0.804411
10.5733,304.208,-0.804442
10.575,304.225,-0.804476
10.5767,304.241,-0.804515
10.5783,304.258,-0.804553
10.58,304.274,-0.804589
10.5817,304.291,-0.804631
10.5833,304.308,-0.804677
10.585,304.324,-0.804725
10.5867,304.341,-0.804772
10.5883,304.358,-0.804808
10.59,304.375,-0.804839
10.5917,304.391,-0.804861
10.5933,304.408,-0.804881
10.595,304.424,-0.8049
10.5967,304.441,-0.804908
10.5983,304.457,-0.804916
10.6,304.474,-0.804934
10.6017,304.491,-0.804961
10.6033,304.508,-0.804991
10.605,304.524,-0.805014
10.6067,304.541,-0.805044
10.6083,304.557,-0.80508
10.61,304.574,-0.805123
10.6117,304.591,-0.805163
10.6133,304.608,-0.805208
10.615,304.624,-0.805248
10.6167,304.641,-0.805283
10.6183,304.658,-0.805314
10.62,304.674,-0.805346
10.6217,304.691,-0.805379
10.6233,304.707,-0.805415
10.625,304.724,-0.805455
10.6267,304.74,-0.805493
10.6283,304.757,-0.805527
10.63,304.774,-0.805559
10.6317,304.791,-0.80559
10.6333,304.807,-0.80562
10.635,304.824,-0.805651
10.6367,304.841,-0.805677
10.6383,304.857,-0.805709
10.64,304.874,-0.805751
10.6417,304.891,-0.805795
10.6433,304.907,-0.805844
10.645,304.924,-0.805899
10.6467,304.94,-0.805946
10.6483,304.957,-0.805991
10.65,304.974,-0.806034
10.6517,304.99,-0.80607
10.6533,305.007,-0.806112
10.655,305.024,-0.806156
10.6567,305.04,-0.806194
10.6583,305.057,-0.806232
10.66,305.074,-0.806268
10.6617,305.091,-0.80631
10.6633,305.107,-0.806351
10.665,305.124,-0.806393
10.6667,305.141,-0.80643
10.6683,305.157,-0.806472
10.67,305.174,-0.806506
10.6717,305.19,-0.806545
10.6733,305.207,-0.806587
10.675,305.224,-0.806622
10.6767,305.241,-0.806656
10.6783,305.257,-0.806694
10.68,305.274,-0.806735
10.6817,305.29,-0.806781
10.6833,305.307,-0.806827
10.685,305.324,-0.806876
10.6867,305.341,-0.80692
10.6883,305.357,-0.806961
10.69,305.373,-0.807005
10.6917,305.39,-0.807043
10.6933,305.407,-0.807081
10.695,305.423,-0.807114
10.6967,305.44,-0.807145
10.6983,305.457,-0.807175
10.7,305.473,-0.807213
10.7017,305.49,-0.807253
10.7033,305.507,-0.807293
10.705,305.523,-0.80733
10.7067,305.54,-0.807367
10.7083,305.557,-0.807418
10.71,305.574,-0.80747
10.7117,305.59,-0.807513
10.7133,305.607,-0.807548
10.715,305.623,-0.807584
10.7167,305.64,-0.807622
10.7183,305.657,-0.807652
10.72,305.673,-0.807678
10.7217,305.69,-0.807697
10.7233,305.707,-0.807716
10.725,305.723,-0.807742
10.7267,305.74,-0.807771
10.7283,305.756,-0.807811
10.73,305.773,-0.807846
10.7317,305.79,-0.807885
10.7333,305.806,-0.807924
10.735,305.823,-0.807967
10.7367,305.839,-0.808008
10.7383,305.856,-0.808042
10.74,305.873,-0.80807
10.7417,305.889,-0.808106
10.7433,305.906,-0.808145
10.745,305.922,-0.808179
10.7467,305.939,-0.808212
10.7483,305.956,-0.808245
10.75,305.973,-0.808284
10.7517,305.989,-0.808329
10.7533,306.006,-0.80837
10.755,306.022,-0.8084
10.7567,306.039,-0.808432
10.7583,306.056,-0.808464
10.76,306.073,-0.8085
10.7617,306.089,-0.80854
10.7633,306.106,-0.808587
10.765,306.122,-0.80864
10.7667,306.139,-0.808702
10.7683,306.156,-0.808765
10.77,306.172,-0.808833
10.7717,306.189,-0.808902
10.7733,306.206,-0.808961
10.775,306.223,-0.809019
10.7767,306.24,-0.80907
10.7783,306.256,-0.809112
10.78,306.273,-0.809145
10.7817,306.29,-0.809173
10.7833,306.306,-0.809199
10.785,306.323,-0.809225
10.7867,306.339,-0.809253
10.7883,306.356,-0.809279
10.79,306.373,-0.809302
10.7917,306.389,-0.809325
10.7933,306.406,-0.80935
10.795,306.422,-0.809375
10.7967,306.439,-0.809406
10.7983,306.455,-0.809441
10.8,306.472,-0.809483
10.8017,306.489,-0.809525
10.8033,306.506,-0.80957
10.805,306.523,-0.80961
10.8067,306.539,-0.809655
10.8083,306.555,-0.809699
10.81,306.572,-0.80975
10.8117,306.589,-0.809804
10.8133,306.606,-0.809858
10.815,306.623,-0.809923
10.8167,306.639,-0.809987
10.8183,306.656,-0.810049
10.82,306.672,-0.810111
10.8217,306.689,-0.810166
10.8233,306.706,-0.81022
10.825,306.723,-0.810267
10.8267,306.739,-0.810307
10.8283,306.755,-0.810347
10.83,306.772,-0.810381
10.8317,306.789,-0.810406
10.8333,306.805,-0.810444
10.835,306.822,-0.810484
10.8367,306.839,-0.810532
10.8383,306.855,-0.810589
10.84,306.872,-0.810658
10.8417,306.889,-0.810725
10.8433,306.906,-0.810789
10.845,306.922,-0.810848
10.8467,306.939,-0.810897
10.8483,306.955,-0.810938
10.85,306.972,-0.810969
10.8517,306.988,-0.81099
10.8533,307.005,-0.81101
10.855,307.022,-0.811033
10.8567,307.038,-0.811056
10.8583,307.055,-0.811087
10.86,307.072,-0.811121
10.8617,307.089,-0.811156
10.8633,307.105,-0.811194
10.865,307.122,-0.811229
10.8667,307.139,-0.811271
10.8683,307.155,-0.811307
10.87,307.172,-0.811339
10.8717,307.189,-0.811369
10.8733,307.205,-0.811402
10.875,307.222,-0.811427
10.8767,307.239,-0.811458
10.8783,307.255,-0.811495
10.88,307.272,-0.811533
10.8817,307.289,-0.811576
10.8833,307.305,-0.811619
10.885,307.322,-0.811668
10.8867,307.339,-0.811726
10.8883,307.355,-0.811793
10.89,307.372,-0.811851
10.8917,307.388,-0.811911
10.8933,307.405,-0.811969
10.895,307.421,-0.812025
10.8967,307.438,-0.812069
10.8983,307.455,-0.812098
10.9,307.471,-0.812122
10.9017,307.488,-0.812148
10.9033,307.505,-0.81217
10.905,307.521,-0.81219
10.9067,307.538,-0.812221
10.9083,307.555,-0.81225
10.91,307.572,-0.812285
10.9117,307.588,-0.812334
10.9133,307.605,-0.812387
10.915,307.622,-0.812439
10.9167,307.638,-0.812485
10.9183,307.655,-0.812535
10.92,307.671,-0.812589
10.9217,307.688,-0.812632
10.9233,307.704,-0.812664
10.925,307.721,-0.812699
10.9267,307.738,-0.812724
10.9283,307.755,-0.812748
10.93,307.771,-0.81276
10.9317,307.788,-0.812773
10.9333,307.805,-0.812783
10.935,307.821,-0.812796
10.9367,307.838,-0.812812
10.9383,307.855,-0.812833
10.94,307.871,-0.812851
10.9417,307.887,-0.812868
10.9433,307.904,-0.812893
10.945,307.921,-0.812913
10.9467,307.938,-0.812952
10.9483,307.954,-0.812996
10.95,307.972,-0.813037
10.9517,307.988,-0.813086
10.9533,308.005,-0.813125
10.955,308.021,-0.813164
10.9567,308.038,-0.813202
10.9583,308.054,-0.813242
10.96,308.071,-0.813278
10.9617,308.088,-0.813311
10.9633,308.104,-0.813344
10.965,308.121,-0.813378
10.9667,308.138,-0.813416
10.9683,308.154,-0.813446
10.97,308.171,-0.813482
10.9717,308.188,-0.813525
10.9733,308.205,-0.813568
10.975,308.221,-0.813607
10.9767,308.237,-0.813652
10.9783,308.254,-0.813693
10.98,308.271,-0.813736
10.9817,308.287,-0.813784
10.9833,308.304,-0.813824
10.985,308.321,-0.81387
10.9867,308.337,-0.813917
10.9883,308.354,-0.813962
10.99,308.371,-0.814011
10.9917,308.388,-0.81406
10.9933,308.404,-0.814102
10.995,308.421,-0.814146
10.9967,308.438,-0.814191
10.9983,308.454,-0.814229
11,308.471,-0.81426
11.0017,308.487,-0.814292
11.0033,308.504,-0.814322
11.005,308.521,-0.814354
11.0067,308.538,-0.814387
11.0083,308.554,-0.814429
11.01,308.571,-0.814476
11.0117,308.588,-0.814524
11.0133,308.604,-0.814578
11.015,308.621,-0.814637
11.0167,308.637,-0.814698
11.0183,308.654,-0.814751
11.02,308.671,-0.814802
11.0217,308.688,-0.814853
11.0233,308.704,-0.814894
11.025,308.721,-0.814938
11.0267,308.737,-0.81498
11.0283,308.754,-0.815017
11.03,308.771,-0.815057
11.0317,308.787,-0.815091
11.0333,308.804,-0.815129
11.035,308.821,-0.815167
11.0367,308.838,-0.815209
11.0383,308.854,-0.815249
11.04,308.871,-0.815297
11.0417,308.888,-0.815347
11.0433,308.904,-0.815402
11.045,308.921,-0.815457
11.0467,308.937,-0.815514
11.0483,308.954,-0.81557
11.05,308.971,-0.815622
11.0517,308.988,-0.815672
11.0533,309.004,-0.815723
11.055,309.021,-0.815766
11.0567,309.038,-0.815803
11.0583,309.054,-0.815835
11.06,309.071,-0.815868
11.0617,309.087,-0.815902
11.0633,309.104,-0.815936
11.065,309.121,-0.815972
11.0667,309.137,-0.816015
11.0683,309.154,-0.816061
11.07,309.171,-0.816122
11.0717,309.188,-0.816176
11.0733,309.204,-0.816236
11.075,309.221,-0.816301
11.0767,309.237,-0.81636
11.0783,309.254,-0.816411
11.08,309.271,-0.816454
11.0817,309.288,-0.816494
11.0833,309.304,-0.816527
11.085,309.321,-0.816555
11.0867,309.337,-0.816587
11.0883,309.354,-0.816627
11.09,309.371,-0.816657
11.0917,309.387,-0.816686
11.0933,309.404,-0.816715
11.095,309.421,-0.816743
11.0967,309.437,-0.816774
11.0983,309.454,-0.816805
11.1,309.471,-0.816836
11.1017,309.488,-0.816865
11.1033,309.504,-0.816904
11.105,309.521,-0.816943
11.1067,309.538,-0.816995
11.1083,309.554,-0.817055
11.11,309.57,-0.817101
11.1117,309.587,-0.817148
11.1133,309.604,-0.817202
11.115,309.621,-0.817253
11.1167,309.638,-0.817311
11.1183,309.654,-0.817362
11.12,309.67,-0.817414
11.1217,309.687,-0.817459
11.1233,309.703,-0.817504
11.125,309.72,-0.817542
11.1267,309.737,-0.817573
11.1283,309.753,-0.817601
11.13,309.77,-0.817625
11.1317,309.787,-0.817648
11.1333,309.803,-0.81767
11.135,309.82,-0.817693
11.1367,309.837,-0.81772
11.1383,309.853,-0.817757
11.14,309.87,-0.8178
11.1417,309.887,-0.817851
11.1433,309.904,-0.81791
11.145,309.92,-0.817964
11.1467,309.937,-0.818028
11.1483,309.953,-0.81809
11.15,309.97,-0.818151
11.1517,309.987,-0.818201
11.1533,310.003,-0.818251
11.155,310.02,-0.818296
11.1567,310.036,-0.818336
11.1583,310.053,-0.818373
11.16,310.07,-0.818411
11.1617,310.086,-0.818447
11.1633,310.104,-0.818484
11.165,310.12,-0.818532
11.1667,310.137,-0.818588
11.1683,310.153,-0.818641
11.17,310.17,-0.818692
11.1717,310.186,-0.81874
11.1733,310.203,-0.818781
11.175,310.22,-0.818824
11.1767,310.237,-0.818859
11.1783,310.253,-0.818884
11.18,310.27,-0.818908
11.1817,310.286,-0.818935
11.1833,310.303,-0.818964
11.185,310.32,-0.819003
11.1867,310.336,-0.819046
11.1883,310.353,-0.819088
11.19,310.37,-0.819126
11.1917,310.386,-0.819166
11.1933,310.403,-0.81921
11.195,310.42,-0.819249
11.1967,310.436,-0.819292
11.1983,310.453,-0.819335
11.2,310.469,-0.819384
11.2017,310.485,-0.819435
11.2033,310.502,-0.819499
11.205,310.519,-0.819565
11.2067,310.535,-0.819625
11.2083,310.552,-0.81968
11.21,310.569,-0.819734
11.2117,310.585,-0.819777
11.2133,310.602,-0.819817
11.215,310.619,-0.819849
11.2167,310.635,-0.819871
11.2183,310.652,-0.819885
11.22,310.669,-0.819906
11.2217,310.685,-0.81994
11.2233,310.702,-0.819972
11.225,310.719,-0.820012
11.2267,310.735,-0.820062
11.2283,310.752,-0.820106
11.23,310.769,-0.820145
11.2317,310.785,-0.820183
11.2333,310.802,-0.820223
11.235,310.819,-0.820261
11.2367,310.835,-0.820297
11.2383,310.852,-0.820333
11.24,310.868,-0.820371
11.2417,310.885,-0.820409
11.2433,310.902,-0.820455
11.245,310.918,-0.820511
11.2467,310.935,-0.820562
11.2483,310.952,-0.820618
11.25,310.968,-0.820668
11.2517,310.985,-0.820714
11.2533,311.002,-0.820762
11.255,311.018,-0.820809
11.2567,311.035,-0.820851
11.2583,311.052,-0.820893
11.26,311.069,-0.820944
11.2617,311.085,-0.820997
11.2633,311.102,-0.821053
11.265,311.118,-0.821105
11.2667,311.135,-0.82116
11.2683,311.152,-0.821216
11.27,311.169,-0.821279
11.2717,311.186,-0.821343
11.2733,311.202,-0.821394
11.275,311.219,-0.821441
11.2767,311.236,-0.821483
11.2783,311.252,-0.821524
11.28,311.269,-0.821568
11.2817,311.285,-0.821616
11.2833,311.302,-0.821663
11.285,311.319,-0.821716
11.2867,311.336,-0.821776
11.2883,311.352,-0.82184
11.29,311.369,-0.821903
11.2917,311.385,-0.821971
11.2933,311.402,-0.822044
11.295,311.419,-0.822111
11.2967,311.435,-0.822173
11.2983,311.452,-0.822236
11.3,311.469,-0.822296
11.3017,311.485,-0.822349
11.3033,311.502,-0.822394
11.305,311.519,-0.822436
11.3067,311.536,-0.822474
11.3083,311.552,-0.822512
11.31,311.569,-0.822548
11.3117,311.585,-0.822586
11.3133,311.602,-0.822626
11.315,311.619,-0.822672
11.3167,311.636,-0.822716
11.3183,311.652,-0.822765
11.32,311.669,-0.822814
11.3217,311.685,-0.822863
11.3233,311.702,-0.822914
11.325,311.718,-0.82296
11.3267,311.735,-0.823014
11.3283,311.752,-0.823061
11.33,311.768,-0.823101
11.3317,311.784,-0.823139
11.3333,311.802,-0.823176
11.335,311.818,-0.823216
11.3367,311.835,-0.823259
11.3383,311.851,-0.823295
11.34,311.868,-0.823331
11.3417,311.885,-0.823365
11.3433,311.901,-0.823407
11.345,311.918,-0.823448
11.3467,311.935,-0.82349
11.3483,311.951,-0.823528
11.35,311.968,-0.823566
11.3517,311.985,-0.823601
11.3533,312.001,-0.82364
11.355,312.018,-0.823684
11.3567,312.035,-0.823729
11.3583,312.051,-0.823782
11.36,312.068,-0.823832
11.3617,312.085,-0.823885
11.3633,312.102,-0.823933
11.365,312.118,-0.823976
11.3667,312.135,-0.824017
11.3683,312.151,-0.824059
11.37,312.168,-0.8241
11.3717,312.184,-0.824141
11.3733,312.201,-0.824181
11.375,312.218,-0.824222
11.3767,312.234,-0.824256
11.3783,312.251,-0.824286
11.38,312.268,-0.824319
11.3817,312.285,-0.824357
11.3833,312.301,-0.824393
11.385,312.318,-0.824425
11.3867,312.335,-0.824471
11.3883,312.351,-0.824517
11.39,312.368,-0.824567
11.3917,312.384,-0.824619
11.3933,312.401,-0.824669
11.395,312.418,-0.824724
11.3967,312.435,-0.824774
11.3983,312.451,-0.824814
11.4,312.468,-0.82485
11.4017,312.484,-0.824883
11.4033,312.501,-0.824913
11.405,312.518,-0.824946
11.4067,312.534,-0.824982
11.4083,312.551,-0.825027
11.41,312.567,-0.825076
11.4117,312.584,-0.825122
11.4133,312.601,-0.825178
11.415,312.618,-0.825231
11.4167,312.634,-0.825279
11.4183,312.651,-0.825321
11.42,312.668,-0.825366
11.4217,312.684,-0.825415
11.4233,312.701,-0.825471
11.425,312.718,-0.82553
11.4267,312.734,-0.825595
11.4283,312.751,-0.825659
11.43,312.768,-0.825717
11.4317,312.784,-0.825783
11.4333,312.801,-0.825843
11.435,312.818,-0.825911
11.4367,312.834,-0.825976
11.4383,312.851,-0.826036
11.44,312.867,-0.826095
11.4417,312.884,-0.826157
11.4433,312.901,-0.826209
11.445,312.917,-0.826262
11.4467,312.934,-0.826312
11.4483,312.951,-0.82637
11.45,312.967,-0.826424
11.4517,312.984,-0.826476
11.4533,313.001,-0.82653
11.455,313.017,-0.826583
11.4567,313.034,-0.826633
11.4583,313.051,-0.826685
11.46,313.067,-0.826724
11.4617,313.084,-0.826754
11.4633,313.1,-0.826783
11.465,313.117,-0.826806
11.4667,313.134,-0.826825
11.4683,313.151,-0.826848
11.47,313.167,-0.826875
11.4717,313.184,-0.826911
11.4733,313.201,-0.826949
11.475,313.217,-0.826984
11.4767,313.234,-0.827029
11.4783,313.25,-0.827076
11.48,313.267,-0.827118
11.4817,313.283,-0.827163
11.4833,313.3,-0.827208
11.485,313.317,-0.82726
11.4867,313.334,-0.827308
11.4883,313.351,-0.827351
11.49,313.367,-0.827395
11.4917,313.384,-0.827438
11.4933,313.4,-0.827488
11.495,313.417,-0.827535
11.4967,313.434,-0.827592
11.4983,313.45,-0.82765
11.5,313.467,-0.827711
11.5017,313.484,-0.827774
11.5033,313.501,-0.827845
11.505,313.517,-0.827927
11.5067,313.534,-0.828043
11.5083,313.551,-0.828144
11.51,313.567,-0.828223
11.5117,313.584,-0.828298
11.5133,313.6,-0.82836
11.515,313.617,-0.828421
11.5167,313.633,-0.828476
11.5183,313.65,-0.828523
11.52,313.667,-0.828561
11.5217,313.683,-0.828604
11.5233,313.7,-0.828647
11.525,313.717,-0.828692
11.5267,313.733,-0.828745
11.5283,313.75,-0.828804
11.53,313.767,-0.828867
11.5317,313.783,-0.828929
11.5333,313.8,-0.828997
11.535,313.817,-0.829062
11.5367,313.833,-0.829135
11.5383,313.85,-0.829204
11.54,313.867,-0.829269
11.5417,313.883,-0.829334
11.5433,313.9,-0.829401
11.545,313.917,-0.829473
11.5467,313.934,-0.829547
11.5483,313.951,-0.829617
11.55,313.967,-0.829686
11.5517,313.983,-0.829744
11.5533,314,-0.829784
11.555,314.017,-0.829816
11.5567,314.034,-0.829838
11.5583,314.05,-0.829853
11.56,314.067,-0.829871
11.5617,314.084,-0.829887
11.5633,314.1,-0.829914
11.565,314.117,-0.829944
11.5667,314.133,-0.829981
11.5683,314.15,-0.830036
11.57,314.166,-0.830094
11.5717,314.183,-0.830159
11.5733,314.2,-0.830224
11.575,314.217,-0.830285
11.5767,314.234,-0.830338
11.5783,314.25,-0.830394
11.58,314.266,-0.830449
11.5817,314.283,-0.830508
11.5833,314.3,-0.830561
11.585,314.316,-0.83061
11.5867,314.333,-0.83066
11.5883,314.35,-0.830716
11.59,314.367,-0.830785
11.5917,314.383,-0.830853
11.5933,314.4,-0.830917
11.595,314.417,-0.830976
11.5967,314.433,-0.831037
11.5983,314.45,-0.831107
11.6,314.467,-0.83118
11.6017,314.483,-0.831253
11.6033,314.5,-0.831313
11.605,314.516,-0.831359
11.6067,314.533,-0.831405
11.6083,314.55,-0.831445
11.61,314.566,-0.831479
11.6117,314.583,-0.831507
11.6133,314.6,-0.83153
11.615,314.616,-0.831559
11.6167,314.633,-0.831602
11.6183,314.65,-0.831658
11.62,314.666,-0.831723
11.6217,314.683,-0.8318
11.6233,314.7,-0.831882
11.625,314.716,-0.832046
11.6267,314.733,-0.832128
11.6283,314.749,-0.832237
11.63,314.766,-0.832318
11.6317,314.783,-0.83239
11.6333,314.799,-0.832446
11.635,314.816,-0.832497
11.6367,314.833,-0.832533
11.6383,314.849,-0.832561
11.64,314.866,-0.832591
11.6417,314.883,-0.832617
11.6433,314.9,-0.832651
11.645,314.916,-0.832699
11.6467,314.933,-0.832755
11.6483,314.949,-0.832814
11.65,314.966,-0.832877
11.6517,314.983,-0.832932
11.6533,314.999,-0.832999
11.655,315.016,-0.833063
11.6567,315.033,-0.833129
11.6583,315.049,-0.83319
11.66,315.066,-0.833251
11.6617,315.083,-0.833307
11.6633,315.099,-0.833368
11.665,315.116,-0.833428
11.6667,315.133,-0.833486
11.6683,315.15,-0.833538
11.67,315.166,-0.833584
11.6717,315.183,-0.833626
11.6733,315.199,-0.833661
11.675,315.216,-0.833699
11.6767,315.232,-0.83374
11.6783,315.249,-0.833782
11.68,315.266,-0.833826
11.6817,315.282,-0.833874
11.6833,315.299,-0.833931
11.685,315.316,-0.833993
11.6867,315.332,-0.834055
11.6883,315.349,-0.83412
11.69,315.365,-0.834185
11.6917,315.382,-0.834248
11.6933,315.399,-0.834305
11.695,315.415,-0.834367
11.6967,315.432,-0.834432
11.6983,315.448,-0.834488
11.7,315.465,-0.83454
11.7017,315.482,-0.8346
11.7033,315.499,-0.83467
11.705,315.515,-0.834745
11.7067,315.532,-0.834818
11.7083,315.549,-0.834893
11.71,315.566,-0.834967
11.7117,315.583,-0.835038
11.7133,315.599,-0.83511
11.715,315.616,-0.835178
11.7167,315.632,-0.835243
11.7183,315.649,-0.835302
11.72,315.666,-0.835352
11.7217,315.682,-0.835399
11.7233,315.699,-0.835446
11.725,315.715,-0.835492
11.7267,315.732,-0.835537
11.7283,315.749,-0.835588
11.73,315.766,-0.835639
11.7317,315.782,-0.835696
11.7333,315.799,-0.835758
11.735,315.816,-0.835828
11.7367,315.832,-0.835897
11.7383,315.848,-0.835961
11.74,315.865,-0.83602
11.7417,315.882,-0.836079
11.7433,315.898,-0.836134
11.745,315.915,-0.836178
11.7467,315.932,-0.836224
11.7483,315.949,-0.836267
11.75,315.965,-0.836315
11.7517,315.982,-0.836363
11.7533,315.999,-0.836416
11.755,316.015,-0.836476
11.7567,316.032,-0.836535
11.7583,316.048,-0.836601
11.76,316.065,-0.836669
11.7617,316.082,-0.83674
11.7633,316.099,-0.836805
11.765,316.115,-0.836871
11.7667,316.131,-0.836933
11.7683,316.148,-0.836995
11.77,316.165,-0.837062
11.7717,316.182,-0.837126
11.7733,316.198,-0.837191
11.775,316.215,-0.837263
11.7767,316.232,-0.837337
11.7783,316.249,-0.837408
11.78,316.265,-0.837468
11.7817,316.282,-0.837532
11.7833,316.298,-0.837595
11.785,316.315,-0.837646
11.7867,316.332,-0.837688
11.7883,316.348,-0.837726
11.79,316.365,-0.837768
11.7917,316.382,-0.837806
11.7933,316.398,-0.837858
11.795,316.415,-0.837911
11.7967,316.432,-0.837967
11.7983,316.448,-0.838025
11.8,316.465,-0.838092
11.8017,316.482,-0.838152
11.8033,316.499,-0.838209
11.805,316.515,-0.83826
11.8067,316.532,-0.838308
11.8083,316.548,-0.838361
11.81,316.565,-0.838417
11.8117,316.581,-0.838477
11.8133,316.598,-0.838544
11.815,316.615,-0.83861
11.8167,316.632,-0.838683
11.8183,316.648,-0.838759
11.82,316.665,-0.838837
11.8217,316.682,-0.838912
11.8233,316.699,-0.838982
11.825,316.715,-0.839047
11.8267,316.732,-0.839113
11.8283,316.748,-0.839179
11.83,316.765,-0.839245
11.8317,316.781,-0.839315
11.8333,316.798,-0.839382
11.835,316.815,-0.839447
11.8367,316.831,-0.839512
11.8383,316.848,-0.839581
11.84,316.865,-0.839646
11.8417,316.882,-0.839708
11.8433,316.898,-0.839764
11.845,316.915,-0.839821
11.8467,316.931,-0.839875
11.8483,316.948,-0.839929
11.85,316.965,-0.839991
11.8517,316.981,-0.84006
11.8533,316.998,-0.840136
11.855,317.015,-0.84022
11.8567,317.031,-0.840306
11.8583,317.048,-0.840396
11.86,317.065,-0.840496
11.8617,317.081,-0.840587
11.8633,317.098,-0.840673
11.865,317.114,-0.840747
11.8667,317.131,-0.840816
11.8683,317.148,-0.840891
11.87,317.164,-0.840962
11.8717,317.181,-0.841029
11.8733,317.197,-0.841087
11.875,317.214,-0.841153
11.8767,317.231,-0.841215
11.8783,317.247,-0.841276
11.88,317.264,-0.841336
11.8817,317.281,-0.841395
11.8833,317.298,-0.84145
11.885,317.314,-0.8415
11.8867,317.331,-0.841556
11.8883,317.347,-0.841611
11.89,317.364,-0.841676
11.8917,317.38,-0.841744
11.8933,317.397,-0.841815
11.895,317.414,-0.841895
11.8967,317.431,-0.841973
11.8983,317.447,-0.842053
11.9,317.464,-0.842128
11.9017,317.481,-0.842199
11.9033,317.497,-0.842263
11.905,317.514,-0.842324
11.9067,317.53,-0.842383
11.9083,317.547,-0.842442
11.91,317.564,-0.842504
11.9117,317.58,-0.842563
11.9133,317.597,-0.842619
11.915,317.613,-0.842684
11.9167,317.63,-0.84276
11.9183,317.646,-0.842832
11.92,317.663,-0.842904
11.9217,317.68,-0.842984
11.9233,317.697,-0.843067
11.925,317.713,-0.843144
11.9267,317.73,-0.843218
11.9283,317.747,-0.843277
11.93,317.763,-0.843334
11.9317,317.78,-0.843388
11.9333,317.797,-0.843445
11.935,317.813,-0.843499
11.9367,317.83,-0.843551
11.9383,317.846,-0.843603
11.94,317.863,-0.843658
11.9417,317.879,-0.843714
11.9433,317.896,-0.84377
11.945,317.913,-0.843832
11.9467,317.929,-0.843894
11.9483,317.947,-0.843961
11.95,317.963,-0.844028
11.9517,317.98,-0.8441
11.9533,317.996,-0.844174
11.955,318.013,-0.844255
11.9567,318.029,-0.844336
11.9583,318.046,-0.844423
11.96,318.063,-0.844505
11.9617,318.079,-0.844585
11.9633,318.096,-0.844661
11.965,318.113,-0.844729
11.9667,318.129,-0.844789
11.9683,318.146,-0.844843
11.97,318.163,-0.844894
11.9717,318.179,-0.844942
11.9733,318.196,-0.845
11.975,318.213,-0.845053
11.9767,318.23,-0.845114
11.9783,318.246,-0.845186
11.98,318.263,-0.845262
11.9817,318.279,-0.845342
11.9833,318.296,-0.845428
11.985,318.313,-0.845511
11.9867,318.329,-0.845588
11.9883,318.346,-0.845664
11.99,318.362,-0.845739
11.9917,318.379,-0.845816
11.9933,318.395,-0.845891
11.995,318.412,-0.845969
11.9967,318.429,-0.846046
11.9983,318.446,-0.84613
12,318.462,-0.846217
12.0017,318.479,-0.846293
12.0033,318.495,-0.846372
12.005,318.512,-0.846456
12.0067,318.53,-0.846534
12.0083,318.546,-0.84661
12.01,318.563,-0.846683
12.0117,318.58,-0.846755
12.0133,318.596,-0.846828
12.015,318.613,-0.846895
12.0167,318.63,-0.84696
12.0183,318.647,-0.847035
12.02,318.663,-0.847115
12.0217,318.679,-0.847202
12.0233,318.696,-0.847292
12.025,318.713,-0.847379
12.0267,318.73,-0.847475
12.0283,318.746,-0.84758
12.03,318.763,-0.847699
12.0317,318.779,-0.847827
12.0333,318.796,-0.84792
12.035,318.813,-0.848005
12.0367,318.829,-0.848081
12.0383,318.846,-0.848149
12.04,318.862,-0.848204
12.0417,318.879,-0.84825
12.0433,318.895,-0.848286
12.045,318.912,-0.848338
12.0467,318.928,-0.848399
12.0483,318.945,-0.848475
12.05,318.962,-0.84856
12.0517,318.979,-0.84865
12.0533,318.996,-0.848747
12.055,319.013,-0.848924
12.0567,319.029,-0.849191
12.0583,319.046,-0.849449
12.06,319.062,-0.849615
12.0617,319.078,-0.849759
12.0633,319.095,-0.849904
12.065,319.112,-0.850004
12.0667,319.129,-0.850099
12.0683,319.145,-0.850185
12.07,319.162,-0.850255
12.0717,319.179,-0.850316
12.0733,319.195,-0.850363
12.075,319.212,-0.850417
12.0767,319.229,-0.850465
12.0783,319.245,-0.850519
12.08,319.262,-0.85057
12.0817,319.279,-0.850637
12.0833,319.295,-0.850708
12.085,319.312,-0.850782
12.0867,319.329,-0.85085
12.0883,319.345,-0.850923
12.09,319.361,-0.851
12.0917,319.378,-0.851079
12.0933,319.395,-0.851153
12.095,319.411,-0.851223
12.0967,319.428,-0.851296
12.0983,319.445,-0.851368
12.1,319.461,-0.851439
12.1017,319.478,-0.851518
12.1033,319.495,-0.851605
12.105,319.511,-0.851686
12.1067,319.528,-0.851772
12.1083,319.544,-0.851849
12.11,319.561,-0.851919
12.1117,319.578,-0.851992
12.1133,319.595,-0.85206
12.115,319.612,-0.852127
12.1167,319.628,-0.852194
12.1183,319.644,-0.852266
12.12,319.661,-0.852336
12.1217,319.678,-0.852423
12.1233,319.694,-0.852511
12.125,319.711,-0.852604
12.1267,319.728,-0.852696
12.1283,319.744,-0.852787
12.13,319.761,-0.852881
12.1317,319.778,-0.852976
12.1333,319.795,-0.853067
12.135,319.811,-0.853159
12.1367,319.828,-0.853247
12.1383,319.845,-0.853339
12.14,319.861,-0.853431
12.1417,319.878,-0.853518
12.1433,319.895,-0.853609
12.145,319.911,-0.853688
12.1467,319.928,-0.853766
12.1483,319.945,-0.853845
12.15,319.961,-0.85392
12.1517,319.978,-0.854003
12.1533,319.995,-0.854086
12.155,320.012,-0.854159
12.1567,320.028,-0.854234
12.1583,320.044,-0.854312
12.16,320.061,-0.854386
12.1617,320.078,-0.854457
12.1633,320.095,-0.85453
12.165,320.111,-0.854607
12.1667,320.128,-0.854686
12.1683,320.145,-0.854762
12.17,320.161,-0.854848
12.1717,320.178,-0.854949
12.1733,320.194,-0.855047
12.175,320.211,-0.855143
12.1767,320.227,-0.855241
12.1783,320.244,-0.855345
12.18,320.261,-0.855448
12.1817,320.278,-0.855548
12.1833,320.294,-0.855643
12.185,320.311,-0.855732
12.1867,320.327,-0.855819
12.1883,320.344,-0.855908
12.19,320.361,-0.856
12.1917,320.377,-0.856102
12.1933,320.394,-0.856221
12.195,320.411,-0.856441
12.1967,320.427,-0.856588
12.1983,320.444,-0.856758
12.2,320.461,-0.856937
12.2017,320.477,-0.857051
12.2033,320.494,-0.857153
12.205,320.511,-0.857248
12.2067,320.528,-0.857341
12.2083,320.544,-0.857434
12.21,320.561,-0.857535
12.2117,320.577,-0.857637
12.2133,320.594,-0.857748
12.215,320.611,-0.85786
12.2167,320.627,-0.85797
12.2183,320.644,-0.858075
12.22,320.661,-0.858178
12.2217,320.678,-0.858274
12.2233,320.695,-0.858366
12.225,320.712,-0.858456
12.2267,320.728,-0.858549
12.2283,320.745,-0.858637
12.23,320.761,-0.858723
12.2317,320.777,-0.858817
12.2333,320.794,-0.858905
12.235,320.811,-0.858993
12.2367,320.827,-0.859083
12.2383,320.844,-0.859179
12.24,320.861,-0.859278
12.2417,320.877,-0.859376
12.2433,320.894,-0.859478
12.245,320.911,-0.859582
12.2467,320.927,-0.859688
12.2483,320.944,-0.859801
12.25,320.961,-0.859915
12.2517,320.977,-0.860025
12.2533,320.993,-0.860137
12.255,321.01,-0.860238
12.2567,321.027,-0.860338
12.2583,321.043,-0.860443
12.26,321.06,-0.860549
12.2617,321.077,-0.860663
12.2633,321.093,-0.860768
12.265,321.11,-0.860873
12.2667,321.127,-0.860983
12.2683,321.144,-0.861094
12.27,321.16,-0.861206
12.2717,321.177,-0.861324
12.2733,321.193,-0.861439
12.275,321.21,-0.861555
12.2767,321.226,-0.861667
12.2783,321.243,-0.86178
12.28,321.26,-0.861893
12.2817,321.277,-0.862004
12.2833,321.293,-0.862114
12.285,321.31,-0.862233
12.2867,321.327,-0.862357
12.2883,321.343,-0.862539
12.29,321.36,-0.86283
12.2917,321.377,-0.863027
12.2933,321.394,-0.863223
12.295,321.41,-0.863442
12.2967,321.426,-0.863579
12.2983,321.443,-0.863703
12.3,321.46,-0.863819
12.3017,321.476,-0.863928
12.3033,321.493,-0.864035
12.305,321.51,-0.86414
12.3067,321.526,-0.864237
12.3083,321.543,-0.864339
12.31,321.559,-0.864445
12.3117,321.576,-0.864547
12.3133,321.593,-0.864658
12.315,321.61,-0.864774
12.3167,321.626,-0.864886
12.3183,321.643,-0.864999
12.32,321.659,-0.865111
12.3217,321.676,-0.865218
12.3233,321.692,-0.865323
12.325,321.709,-0.865429
12.3267,321.725,-0.86553
12.3283,321.742,-0.86563
12.33,321.759,-0.865732
12.3317,321.776,-0.865833
12.3333,321.792,-0.865933
12.335,321.809,-0.866035
12.3367,321.826,-0.866146
12.3383,321.842,-0.86627
12.34,321.859,-0.866455
12.3417,321.875,-0.866726
12.3433,321.892,-0.867017
12.345,321.909,-0.867268
12.3467,321.925,-0.867583
12.3483,321.942,-0.867786
12.35,321.959,-0.868021
12.3517,321.975,-0.868194
12.3533,321.992,-0.868319
12.355,322.009,-0.868443
12.3567,322.025,-0.868567
12.3583,322.042,-0.868694
12.36,322.058,-0.868818
12.3617,322.075,-0.868938
12.3633,322.092,-0.869062
12.365,322.108,-0.86919
12.3667,322.124,-0.869314
12.3683,322.141,-0.869446
12.37,322.158,-0.869613
12.3717,322.175,-0.869833
12.3733,322.191,-0.87007
12.375,322.208,-0.870298
12.3767,322.225,-0.870559
12.3783,322.241,-0.870718
12.38,322.258,-0.870856
12.3817,322.275,-0.871019
12.3833,322.291,-0.871227
12.385,322.308,-0.871381
12.3867,322.324,-0.871513
12.3883,322.341,-0.871667
12.39,322.357,-0.871792
12.3917,322.374,-0.871926
12.3933,322.391,-0.872054
12.395,322.408,-0.872189
12.3967,322.424,-0.872323
12.3983,322.44,-0.872458
12.4,322.457,-0.872592
12.4017,322.474,-0.872732
12.4033,322.491,-0.872871
12.405,322.507,-0.873012
12.4067,322.524,-0.87315
12.4083,322.541,-0.873285
12.41,322.557,-0.873418
12.4117,322.574,-0.873546
12.4133,322.59,-0.873677
12.415,322.607,-0.873806
12.4167,322.624,-0.87394
12.4183,322.64,-0.874073
12.42,322.657,-0.874207
12.4217,322.674,-0.874346
12.4233,322.69,-0.874509
12.425,322.707,-0.87471
12.4267,322.723,-0.875013
12.4283,322.739,-0.875359
12.43,322.757,-0.875603
12.4317,322.773,-0.875751
12.4333,322.79,-0.875898
12.435,322.806,-0.876043
12.4367,322.823,-0.876235
12.4383,322.84,-0.876487
12.44,322.856,-0.876785
12.4417,322.873,-0.877087
12.4433,322.89,-0.877289
12.445,322.906,-0.877449
12.4467,322.923,-0.877655
12.4483,322.939,-0.877841
12.45,322.956,-0.877986
12.4517,322.972,-0.878123
12.4533,322.989,-0.878291
12.455,323.006,-0.87843
12.4567,323.023,-0.878575
12.4583,323.04,-0.878805
12.46,323.056,-0.879127
12.4617,323.073,-0.879673
12.4633,323.089,-0.880245
12.465,323.106,-0.880895
12.4667,323.122,-0.881607
12.4683,323.139,-0.882236
12.47,323.156,-0.882785
12.4717,323.172,-0.883101
12.4733,323.189,-0.883413
12.475,323.205,-0.883618
12.4767,323.222,-0.883773
12.4783,323.239,-0.883947
12.48,323.256,-0.884153
12.4817,323.272,-0.88437
12.4833,323.288,-0.884715
12.485,323.305,-0.885067
12.4867,323.322,-0.885378
12.4883,323.339,-0.885698
12.49,323.355,-0.886205
12.4917,323.372,-0.886685
12.4933,323.389,-0.886996
12.495,323.405,-0.887353
12.4967,323.422,-0.887795
12.4983,323.438,-0.88839
12.5,323.455,-0.888924
12.5017,323.472,-0.889503
12.5033,323.488,-0.890165
12.505,323.505,-0.890748
12.5067,323.521,-0.891287
12.5083,323.538,-0.8917
12.51,323.555,-0.892048
12.5117,323.571,-0.892279
12.5133,323.588,-0.892557
12.515,323.605,-0.892784
12.5167,323.621,-0.893046
12.5183,323.638,-0.893333
12.52,323.655,-0.89355
12.5217,323.672,-0.893701
12.5233,323.688,-0.893938
12.525,323.704,-0.894269
12.5267,323.721,-0.894686
12.5283,323.737,-0.895252
12.53,323.754,-0.895777
12.5317,323.77,-0.896318
12.5333,323.787,-0.897024
12.535,323.804,-0.89757
12.5367,323.821,-0.897944
12.5383,323.837,-0.898523
12.54,323.854,-0.899012
12.5417,323.871,-0.899453
12.5433,323.887,-0.899895
12.545,323.904,-0.900277
12.5467,323.921,-0.900861
12.5483,323.937,-0.901366
12.55,323.954,-0.902101
12.5517,323.971,-0.902734
12.5533,323.987,-0.903245
12.555,324.004,-0.903613
12.5567,324.02,-0.904045
12.5583,324.037,-0.904458
12.56,324.054,-0.904905
12.5617,324.071,-0.905299
12.5633,324.087,-0.905617
12.565,324.104,-0.905911
12.5667,324.12,-0.906272
12.5683,324.136,-0.906726
12.57,324.153,-0.907493
12.5717,324.169,-0.90837
12.5733,324.186,-0.90904
12.575,324.203,-0.909764
12.5767,324.22,-0.910483
12.5783,324.236,-0.911244
12.58,324.253,-0.911837
12.5817,324.27,-0.912533
12.5833,324.286,-0.913196
12.585,324.303,-0.913862
12.5867,324.32,-0.914299
12.5883,324.336,-0.914743
12.59,324.353,-0.91511
12.5917,324.369,-0.915535
12.5933,324.386,-0.915933
12.595,324.403,-0.916317
12.5967,324.42,-0.916677
12.5983,324.436,-0.917032
12.6,324.453,-0.917391
12.6017,324.469,-0.918014
12.6033,324.486,-0.918638
12.605,324.502,-0.919399
12.6067,324.519,-0.920224
12.6083,324.535,-0.920913
12.61,324.552,-0.921717
12.6117,324.568,-0.922575
12.6133,324.585,-0.92329
12.615,324.602,-0.923902
12.6167,324.618,-0.924564
12.6183,324.635,-0.925214
12.62,324.652,-0.925984
12.6217,324.668,-0.927046
12.6233,324.685,-0.92818
12.625,324.701,-0.929433
12.6267,324.718,-0.930555
12.6283,324.735,-0.931844
12.63,324.751,-0.932974
12.6317,324.768,-0.93383
12.6333,324.785,-0.934719
12.635,324.801,-0.93548
12.6367,324.818,-0.936116
12.6383,324.835,-0.936614
12.64,324.851,-0.937154
12.6417,324.868,-0.937612
12.6433,324.884,-0.938053
12.645,324.901,-0.938472
12.6467,324.917,-0.939052
12.6483,324.934,-0.939529
12.65,324.951,-0.940054
12.6517,324.967,-0.940757
12.6533,324.984,-0.941575
12.655,325,-0.942391
12.6567,325.017,-0.943497
12.6583,325.034,-0.944682
12.66,325.05,-0.946071
12.6617,325.067,-0.947591
12.6633,325.084,-0.949074
12.665,325.101,-0.950492
12.6667,325.117,-0.951471
12.6683,325.134,-0.952428
12.67,325.15,-0.953459
12.6717,325.167,-0.954239
12.6733,325.183,-0.955063
12.675,325.2,-0.955875
12.6767,325.216,-0.956593
12.6783,325.233,-0.957314
12.68,325.25,-0.958053
12.6817,325.266,-0.958849
12.6833,325.283,-0.9598
12.685,325.299,-0.960663
12.6867,325.316,-0.961636
12.6883,325.333,-0.962528
12.69,325.349,-0.963282
12.6917,325.366,-0.963989
12.6933,325.383,-0.964617
12.695,325.399,-0.965264
12.6967,325.415,-0.966022
12.6983,325.432,-0.966995
12.7,325.449,-0.968053
12.7017,325.466,-0.969238
12.7033,325.482,-0.970685
12.705,325.499,-0.972395
12.7067,325.515,-0.973978
12.7083,325.532,-0.975464
12.71,325.548,-0.977056
12.7117,325.565,-0.978575
12.7133,325.582,-0.98009
12.715,325.598,-0.981575
12.7167,325.615,-0.98273
12.7183,325.631,-0.983592
12.72,325.648,-0.984336
12.7217,325.664,-0.984904
12.7233,325.681,-0.985494
12.725,325.697,-0.986062
12.7267,325.714,-0.986478
12.7283,325.73,-0.986862
12.73,325.747,-0.987394
12.7317,325.763,-0.98807
12.7333,325.779,-0.989099
12.735,325.796,-0.990321
12.7367,325.813,-0.99189
12.7383,325.83,-0.993594
12.74,325.846,-0.995802
12.7417,325.863,-0.998624
12.7433,325.879,-1.00144
12.745,325.896,-1.00384
12.7467,325.913,-1.00578
12.7483,325.93,-1.00712
12.75,325.946,-1.00814
12.7517,325.963,-1.00921
12.7533,325.979,-1.01002
12.755,325.996,-1.01065
12.7567,326.012,-1.01108
12.7583,326.029,-1.01152
12.76,326.046,-1.01211
12.7617,326.062,-1.01284
12.7633,326.079,-1.01376
12.765,326.095,-1.01484
12.7667,326.112,-1.01569
12.7683,326.129,-1.01662
12.77,326.145,-1.01829
12.7717,326.161,-1.02004
12.7733,326.178,-1.02209
12.775,326.195,-1.02412
12.7767,326.211,-1.02599
12.7783,326.228,-1.02811
12.78,326.244,-1.03047
12.7817,326.261,-1.03296
12.7833,326.278,-1.03463
12.785,326.294,-1.03591
12.7867,326.311,-1.0369
12.7883,326.327,-1.03799
12.79,326.344,-1.03891
12.7917,326.36,-1.03983
12.7933,326.377,-1.04075
12.795,326.394,-1.04142
12.7967,326.41,-1.04223
12.7983,326.427,-1.04315
12.8,326.443,-1.04466
12.8017,326.46,-1.04688
12.8033,326.476,-1.04916
12.805,326.493,-1.05153
12.8067,326.51,-1.05406
12.8083,326.526,-1.05674
12.81,326.543,-1.05942
12.8117,326.56,-1.0613
12.8133,326.576,-1.06352
12.815,326.592,-1.06504
12.8167,326.609,-1.06648
12.8183,326.625,-1.06821
12.82,326.642,-1.07008
12.8217,326.658,-1.07178
12.8233,326.675,-1.07355
12.825,326.692,-1.07503
12.8267,326.708,-1.07643
12.8283,326.725,-1.07793
12.83,326.741,-1.07914
12.8317,326.758,-1.08005
12.8333,326.774,-1.08075
12.835,326.791,-1.08197
12.8367,326.807,-1.08347
12.8383,326.824,-1.0852
12.84,326.841,-1.08799
12.8417,326.857,-1.09068
12.8433,326.874,-1.0923
12.845,326.89,-1.09478
12.8467,326.907,-1.09775
12.8483,326.923,-1.10089
12.85,326.94,-1.10459
12.8517,326.956,-1.10777
12.8533,326.973,-1.11073
12.855,326.99,-1.11388
12.8567,327.006,-1.116
12.8583,327.023,-1.11756
12.86,327.039,-1.1188
12.8617,327.056,-1.11939
12.8633,327.073,-1.12021
12.865,327.089,-1.12111
12.8667,327.105,-1.12175
12.8683,327.122,-1.12317
12.87,327.138,-1.12499
12.8717,327.155,-1.12772
12.8733,327.171,-1.13039
12.875,327.188,-1.13312
12.8767,327.205,-1.13633
12.8783,327.221,-1.13943
12.88,327.238,-1.14218
12.8817,327.254,-1.14486
12.8833,327.271,-1.14696
12.885,327.288,-1.15014
12.8867,327.304,-1.15262
12.8883,327.32,-1.15524
12.89,327.337,-1.15779
12.8917,327.353,-1.16017
12.8933,327.37,-1.16255
12.895,327.386,-1.16498
12.8967,327.403,-1.16787
12.8983,327.419,-1.1706
12.9,327.435,-1.17353
12.9017,327.452,-1.17588
12.9033,327.469,-1.17809
12.905,327.485,-1.18007
12.9067,327.502,-1.18148
12.9083,327.518,-1.18356
12.91,327.534,-1.18563
12.9117,327.551,-1.18835
12.9133,327.568,-1.19082
12.915,327.584,-1.19294
12.9167,327.601,-1.19498
12.9183,327.617,-1.19652
12.92,327.634,-1.19935
12.9217,327.65,-1.20244
12.9233,327.667,-1.20607
12.925,327.683,-1.20921
12.9267,327.7,-1.21272
12.9283,327.716,-1.21537
12.93,327.733,-1.21878
12.9317,327.749,-1.22211
12.9333,327.766,-1.22546
12.935,327.782,-1.22877
12.9367,327.799,-1.23141
12.9383,327.815,-1.23397
12.94,327.832,-1.23769
12.9417,327.848,-1.24129
12.9433,327.864,-1.24482
12.945,327.881,-1.2488
12.9467,327.897,-1.25196
12.9483,327.914,-1.25318
12.95,327.93,-1.25489
12.9517,327.947,-1.25775
12.9533,327.963,-1.26052
12.955,327.98,-1.26311
12.9567,327.997,-1.26396
12.9583,328.012,-1.26695
12.96,328.029,-1.26961
12.9617,328.046,-1.2727
12.9633,328.062,-1.27495
12.965,328.078,-1.2776
12.9667,328.095,-1.28041
12.9683,328.111,-1.28452
12.97,328.128,-1.28793
12.9717,328.145,-1.29182
12.9733,328.161,-1.29552
12.975,328.177,-1.29848
12.9767,328.194,-1.30299
12.9783,328.21,-1.30704
12.98,328.227,-1.31098
12.9817,328.243,-1.31466
12.9833,328.26,-1.31762
12.985,328.276,-1.32059
12.9867,328.292,-1.32289
12.9883,328.309,-1.32501
12.99,328.325,-1.3279
12.9917,328.342,-1.33185
12.9933,328.358,-1.33506
12.995,328.375,-1.33844
12.9967,328.391,-1.34223
12.9983,328.407,-1.34706
13,328.424,-1.35105
13.0017,328.44,-1.35402
13.0033,328.457,-1.35712
13.005,328.474,-1.36098
13.0067,328.49,-1.36295
13.0083,328.506,-1.36529
13.01,328.523,-1.36853
13.0117,328.539,-1.37148
13.0133,328.556,-1.37438
13.015,328.572,-1.37811
13.0167,328.588,-1.38176
13.0183,328.605,-1.38521
13.02,328.621,-1.38856
13.0217,328.638,-1.39212
13.0233,328.654,-1.39521
13.025,328.671,-1.39904
13.0267,328.687,-1.40241
13.0283,328.704,-1.40471
13.03,328.72,-1.40779
13.0317,328.736,-1.40928
13.0333,328.753,-1.41221
13.035,328.769,-1.41585
13.0367,328.785,-1.41753
13.0383,328.802,-1.42028
13.04,328.819,-1.42371
13.0417,328.835,-1.42692
13.0433,328.851,-1.43062
13.045,328.868,-1.43394
13.0467,328.884,-1.43687
13.0483,328.9,-1.44065
13.05,328.917,-1.44224
13.0517,328.933,-1.44385
13.0533,328.95,-1.44688
13.055,328.966,-1.44852
13.0567,328.983,-1.45071
13.0583,329,-1.4534
13.06,329.016,-1.45638
13.0617,329.032,-1.45826
13.0633,329.049,-1.46129
13.065,329.066,-1.46289
13.0667,329.082,-1.46617
13.0683,329.098,-1.46988
13.07,329.115,-1.47241
13.0717,329.131,-1.47576
13.0733,329.148,-1.47881
13.075,329.164,-1.48088
13.0767,329.181,-1.48404
13.0783,329.197,-1.48539
13.08,329.214,-1.48753
13.0817,329.23,-1.48846
13.0833,329.246,-1.48955
13.085,329.263,-1.48958
13.0867,329.279,-1.49073
13.0883,329.296,-1.49204
13.09,329.312,-1.49396
13.0917,329.329,-1.49569
13.0933,329.345,-1.49701
13.095,329.362,-1.49872
13.0967,329.378,-1.49951
13.0983,329.395,-1.50032
13.1,329.411,-1.50191
13.1017,329.427,-1.50394
13.1033,329.444,-1.50528
13.105,329.461,-1.50639
13.1067,329.477,-1.50735
13.1083,329.493,-1.5082
13.11,329.51,-1.50941
13.1117,329.527,-1.51038
13.1133,329.543,-1.51179
13.115,329.56,-1.51261
13.1167,329.576,-1.51299
13.1183,329.592,-1.51323
13.12,329.609,-1.51425
13.1217,329.626,-1.5145
13.1233,329.642,-1.51475
13.125,329.659,-1.515
13.1267,329.675,-1.51507
13.1283,329.692,-1.51486
13.13,329.708,-1.51452
13.1317,329.725,-1.5141
13.1333,329.741,-1.51001
13.135,329.758,-1.50792
13.1367,329.774,-1.50686
13.1383,329.791,-1.50609
13.14,329.807,-1.50515
13.1417,329.824,-1.50438
13.1433,329.84,-1.50393
13.145,329.857,-1.50375
13.1467,329.874,-1.50366
13.1483,329.89,-1.50386
13.15,329.907,-1.50378
13.1517,329.923,-1.5034
13.1533,329.94,-1.5029
13.155,329.957,-1.50246
13.1567,329.973,-1.50194
13.1583,329.99,-1.50124
13.16,330.007,-1.50026
13.1617,330.024,-1.49904
13.1633,330.04,-1.49784
13.165,330.057,-1.49636
13.1667,330.073,-1.49462
13.1683,330.09,-1.49251
13.17,330.106,-1.49033
13.1717,330.123,-1.48772
13.1733,330.14,-1.48475
13.175,330.157,-1.48172
13.1767,330.173,-1.47743
13.1783,330.19,-1.47273
13.18,330.207,-1.46829
13.1817,330.224,-1.46458
13.1833,330.241,-1.46118
13.185,330.257,-1.4578
13.1867,330.274,-1.45434
13.1883,330.291,-1.4512
13.19,330.307,-1.4482
13.1917,330.324,-1.44426
13.1933,330.341,-1.43976
13.195,330.357,-1.43564
13.1967,330.374,-1.43139
13.1983,330.39,-1.42682
13.2,330.407,-1.42215
13.2017,330.424,-1.41652
13.2033,330.441,-1.41283
13.205,330.458,-1.41014
13.2067,330.475,-1.40687
13.2083,330.491,-1.40221
13.21,330.508,-1.39814
13.2117,330.525,-1.39343
13.2133,330.542,-1.38865
13.215,330.559,-1.38398
13.2167,330.576,-1.3782
13.2183,330.592,-1.37347
13.22,330.609,-1.36888
13.2217,330.626,-1.36462
13.2233,330.643,-1.36082
13.225,330.659,-1.35794
13.2267,330.676,-1.35454
13.2283,330.693,-1.35104
13.23,330.71,-1.34783
13.2317,330.727,-1.34331
13.2333,330.744,-1.33825
13.235,330.761,-1.33407
13.2367,330.778,-1.32804
13.2383,330.794,-1.32337
13.24,330.811,-1.31778
13.2417,330.828,-1.31428
13.2433,330.845,-1.30879
13.245,330.862,-1.30348
13.2467,330.879,-1.2977
13.2483,330.896,-1.29207
13.25,330.912,-1.28671
13.2517,330.929,-1.28302
13.2533,330.946,-1.27727
13.255,330.964,-1.27281
13.2567,330.981,-1.26656
13.2583,330.997,-1.26107
13.26,331.014,-1.25745
13.2617,331.031,-1.25233
13.2633,331.048,-1.24713
13.265,331.065,-1.24211
13.2667,331.082,-1.23613
13.2683,331.099,-1.23167
13.27,331.116,-1.227
13.2717,331.133,-1.22159
13.2733,331.15,-1.21795
13.275,331.167,-1.21327
13.2767,331.184,-1.20873
13.2783,331.201,-1.20471
13.28,331.217,-1.19919
13.2817,331.235,-1.19319
13.2833,331.251,-1.1893
13.285,331.269,-1.1843
13.2867,331.286,-1.17897
13.2883,331.303,-1.17477
13.29,331.319,-1.17026
13.2917,331.337,-1.16641
13.2933,331.353,-1.16153
13.295,331.37,-1.1573
13.2967,331.387,-1.15329
13.2983,331.404,-1.14783
13.3,331.421,-1.14301
13.3017,331.438,-1.13864
13.3033,331.455,-1.13424
13.305,331.471,-1.12893
13.3067,331.489,-1.12419
13.3083,331.506,-1.11995
13.31,331.523,-1.11642
13.3117,331.539,-1.11172
13.3133,331.557,-1.10697
13.315,331.573,-1.10299
13.3167,331.59,-1.09967
13.3183,331.607,-1.09577
13.32,331.624,-1.09212
13.3217,331.642,-1.08772
13.3233,331.658,-1.08365
13.325,331.675,-1.07945
13.3267,331.692,-1.07559
13.3283,331.709,-1.0724
13.33,331.726,-1.06783
13.3317,331.743,-1.06329
13.3333,331.76,-1.05952
13.335,331.777,-1.05637
13.3367,331.794,-1.05266
13.3383,331.811,-1.04808
13.34,331.828,-1.0436
13.3417,331.845,-1.03922
13.3433,331.862,-1.03574
13.345,331.879,-1.03086
13.3467,331.896,-1.02675
13.3483,331.913,-1.02409
13.35,331.93,-1.02018
13.3517,331.947,-1.01781
13.3533,331.963,-1.0151
13.355,331.981,-1.01133
13.3567,331.998,-1.00952
13.3583,332.015,-1.00665
13.36,332.031,-1.00367
13.3617,332.048,-1.00022
13.3633,332.065,-0.995842
13.365,332.082,-0.9906
13.3667,332.099,-0.98792
13.3683,332.116,-0.985103
13.37,332.133,-0.982885
13.3717,332.15,-0.979041
13.3733,332.167,-0.975738
13.375,332.184,-0.972877
13.3767,332.201,-0.969893
13.3783,332.218,-0.969193
13.38,332.235,-0.966902
13.3817,332.251,-0.965575
13.3833,332.268,-0.962414
13.385,332.285,-0.95849
13.3867,332.302,-0.95616
13.3883,332.319,-0.95392
13.39,332.336,-0.950585
13.3917,332.353,-0.94686
13.3933,332.37,-0.94371
13.395,332.387,-0.941323
13.3967,332.403,-0.939733
13.3983,332.421,-0.937739
13.4,332.437,-0.935719
13.4017,332.455,-0.933467
13.4033,332.472,-0.929725
13.405,332.488,-0.927777
13.4067,332.505,-0.924808
13.4083,332.522,-0.922833
13.41,332.539,-0.92121
13.4117,332.556,-0.9193
13.4133,332.572,-0.916391
13.415,332.589,-0.914014
13.4167,332.606,-0.91234
13.4183,332.623,-0.910604
13.42,332.64,-0.909011
13.4217,332.657,-0.90627
13.4233,332.674,-0.90334
13.425,332.691,-0.902021
13.4267,332.708,-0.899727
13.4283,332.725,-0.899583
13.43,332.741,-0.898832
13.4317,332.759,-0.896255
13.4333,332.776,-0.894676
13.435,332.792,-0.892919
13.4367,332.809,-0.890505
13.4383,332.826,-0.888008
13.44,332.843,-0.885847
13.4417,332.86,-0.883827
13.4433,332.876,-0.882044
13.445,332.893,-0.879262
13.4467,332.91,-0.87693
13.4483,332.927,-0.875683
13.45,332.943,-0.874098
13.4517,332.961,-0.872602
13.4533,332.977,-0.871628
13.455,332.994,-0.870625
13.4567,333.011,-0.869979
13.4583,333.028,-0.869057
13.46,333.045,-0.867818
13.4617,333.061,-0.86675
13.4633,333.078,-0.864858
13.465,333.095,-0.863048
13.4667,333.112,-0.861007
13.4683,333.128,-0.859105
13.47,333.146,-0.857515
13.4717,333.162,-0.856074
13.4733,333.179,-0.855258
13.475,333.196,-0.854419
13.4767,333.213,-0.852986
13.4783,333.229,-0.851317
13.48,333.246,-0.84978
13.4817,333.263,-0.848383
13.4833,333.28,-0.846763
13.485,333.296,-0.845725
13.4867,333.313,-0.844676
13.4883,333.33,-0.843165
13.49,333.347,-0.841963
13.4917,333.364,-0.841177
13.4933,333.38,-0.840479
13.495,333.397,-0.839539
13.4967,333.414,-0.838788
13.4983,333.431,-0.83843
13.5,333.448,-0.837791
13.5017,333.465,-0.836756
13.5033,333.481,-0.835899
13.505,333.498,-0.83551
13.5067,333.515,-0.834475
13.5083,333.532,-0.833423
13.51,333.549,-0.832207
13.5117,333.566,-0.830771
13.5133,333.582,-0.829679
13.515,333.599,-0.828591
13.5167,333.616,-0.827208
13.5183,333.632,-0.826168
13.52,333.649,-0.82509
13.5217,333.666,-0.824236
13.5233,333.683,-0.823559
13.525,333.7,-0.822571
13.5267,333.716,-0.821453
13.5283,333.733,-0.820437
13.53,333.75,-0.819425
13.5317,333.767,-0.818683
13.5333,333.784,-0.818143
13.535,333.8,-0.817797
13.5367,333.817,-0.817501
13.5383,333.834,-0.817253
13.54,333.851,-0.817006
13.5417,333.867,-0.816828
13.5433,333.884,-0.816583
13.545,333.901,-0.816248
13.5467,333.918,-0.815632
13.5483,333.935,-0.814756
13.55,333.951,-0.813774
13.5517,333.968,-0.813061
13.5533,333.985,-0.812326
13.555,334.002,-0.811788
13.5567,334.018,-0.81126
13.5583,334.035,-0.810743
13.56,334.052,-0.810355
13.5617,334.068,-0.809841
13.5633,334.085,-0.809264
13.565,334.102,-0.808738
13.5667,334.118,-0.808127
13.5683,334.135,-0.807629
13.57,334.152,-0.807275
13.5717,334.168,-0.806916
13.5733,334.185,-0.806671
13.575,334.202,-0.806391
13.5767,334.219,-0.806144
13.5783,334.235,-0.805933
13.58,334.252,-0.80564
13.5817,334.269,-0.80528
13.5833,334.286,-0.804835
13.585,334.303,-0.804479
13.5867,334.32,-0.804078
13.5883,334.336,-0.803567
13.59,334.353,-0.803098
13.5917,334.37,-0.802721
13.5933,334.386,-0.802265
13.595,334.403,-0.80187
13.5967,334.419,-0.801486
13.5983,334.436,-0.800839
13.6,334.453,-0.800269
13.6017,334.47,-0.799656
13.6033,334.487,-0.799076
13.605,334.503,-0.798666
13.6067,334.52,-0.798186
13.6083,334.537,-0.797734
13.61,334.554,-0.797181
13.6117,334.57,-0.796701
13.6133,334.586,-0.796208
13.615,334.603,-0.795734
13.6167,334.62,-0.795268
13.6183,334.637,-0.794812
13.62,334.654,-0.794392
13.6217,334.671,-0.793993
13.6233,334.688,-0.793725
13.625,334.704,-0.793464
13.6267,334.721,-0.793284
13.6283,334.738,-0.79316
13.63,334.754,-0.793061
13.6317,334.771,-0.792946
13.6333,334.788,-0.792841
13.635,334.804,-0.792709
13.6367,334.821,-0.792607
13.6383,334.837,-0.792431
13.64,334.854,-0.792118
13.6417,334.87,-0.79174
13.6433,334.887,-0.7914
13.645,334.904,-0.790924
13.6467,334.92,-0.790271
13.6483,334.937,-0.789672
13.65,334.954,-0.789093
13.6517,334.971,-0.788612
13.6533,334.988,-0.788321
13.655,335.004,-0.788108
13.6567,335.021,-0.788003
13.6583,335.038,-0.787948
13.66,335.054,-0.787643
13.6617,335.071,-0.787316
13.6633,335.088,-0.787078
13.665,335.105,-0.786868
13.6667,335.121,-0.786727
13.6683,335.138,-0.786692
13.67,335.155,-0.786648
13.6717,335.172,-0.786582
13.6733,335.188,-0.786529
13.675,335.205,-0.786439
13.6767,335.221,-0.786368
13.6783,335.238,-0.786315
13.68,335.255,-0.786211
13.6817,335.271,-0.786079
13.6833,335.288,-0.78598
13.685,335.305,-0.785927
13.6867,335.321,-0.785874
13.6883,335.338,-0.785821
13.69,335.355,-0.785755
13.6917,335.371,-0.785673
13.6933,335.388,-0.785594
13.695,335.405,-0.785533
13.6967,335.421,-0.78538
13.6983,335.438,-0.785195
13.7,335.455,-0.784953
13.7017,335.472,-0.784742
13.7033,335.488,-0.784602
13.705,335.505,-0.784379
13.7067,335.522,-0.784118
13.7083,335.539,-0.783834
13.71,335.555,-0.783603
13.7117,335.572,-0.783449
13.7133,335.588,-0.783294
13.715,335.605,-0.783195
13.7167,335.622,-0.783124
13.7183,335.639,-0.783058
13.72,335.655,-0.782824
13.7217,335.672,-0.78276
13.7233,335.689,-0.782589
13.725,335.706,-0.782526
13.7267,335.722,-0.782463
13.7283,335.739,-0.782395
13.73,335.755,-0.782324
13.7317,335.772,-0.782249
13.7333,335.789,-0.782177
13.735,335.806,-0.7821
13.7367,335.823,-0.782022
13.7383,335.839,-0.781944
13.74,335.856,-0.781861
13.7417,335.872,-0.781776
13.7433,335.889,-0.781692
13.745,335.906,-0.78161
13.7467,335.923,-0.781514
13.7483,335.939,-0.781428
13.75,335.956,-0.781341
13.7517,335.972,-0.781253
13.7533,335.989,-0.781172
13.755,336.006,-0.781097
13.7567,336.022,-0.78102
13.7583,336.039,-0.780935
13.76,336.056,-0.780864
13.7617,336.072,-0.78079
13.7633,336.089,-0.780719
13.765,336.106,-0.780646
13.7667,336.122,-0.780565
13.7683,336.139,-0.780476
13.77,336.156,-0.780388
13.7717,336.172,-0.780294
13.7733,336.189,-0.780204
13.775,336.206,-0.780108
13.7767,336.222,-0.780038
13.7783,336.239,-0.779975
13.78,336.256,-0.779914
13.7817,336.272,-0.779851
13.7833,336.289,-0.779795
13.785,336.306,-0.779744
13.7867,336.322,-0.779685
13.7883,336.339,-0.779627
13.79,336.356,-0.779564
13.7917,336.372,-0.779499
13.7933,336.389,-0.779431
13.795,336.406,-0.779361
13.7967,336.423,-0.779287
13.7983,336.44,-0.779215
13.8,336.456,-0.779136
13.8017,336.473,-0.779067
13.8033,336.49,-0.779004
13.805,336.506,-0.77894
13.8067,336.523,-0.778883
13.8083,336.539,-0.77883
13.81,336.556,-0.778768
13.8117,336.573,-0.778707
13.8133,336.589,-0.778634
13.815,336.606,-0.778555
13.8167,336.623,-0.778466
13.8183,336.639,-0.778339
13.82,336.656,-0.778199
13.8217,336.673,-0.778099
13.8233,336.689,-0.77801
13.825,336.706,-0.777927
13.8267,336.723,-0.777851
13.8283,336.739,-0.777775
13.83,336.756,-0.777708
13.8317,336.773,-0.777641
13.8333,336.79,-0.777579
13.835,336.807,-0.777517
13.8367,336.823,-0.777452
13.8383,336.84,-0.777375
13.84,336.857,-0.777298
13.8417,336.873,-0.777229
13.8433,336.89,-0.777161
13.845,336.906,-0.777086
13.8467,336.923,-0.777014
13.8483,336.94,-0.776945
13.85,336.956,-0.77688
13.8517,336.973,-0.776814
13.8533,336.99,-0.776751
13.855,337.007,-0.776686
13.8567,337.023,-0.776622
13.8583,337.04,-0.776555
13.86,337.057,-0.776486
13.8617,337.074,-0.776423
13.8633,337.09,-0.776369
13.865,337.107,-0.776313
13.8667,337.123,-0.776258
13.8683,337.14,-0.776196
13.87,337.156,-0.776144
13.8717,337.173,-0.776096
13.8733,337.19,-0.776056
13.875,337.206,-0.776011
13.8767,337.223,-0.775971
13.8783,337.24,-0.775933
13.88,337.256,-0.775892
13.8817,337.273,-0.775855
13.8833,337.29,-0.775811
13.885,337.306,-0.775767
13.8867,337.323,-0.775718
13.8883,337.34,-0.775676
13.89,337.356,-0.775636
13.8917,337.373,-0.77559
13.8933,337.39,-0.775539
13.895,337.407,-0.775495
13.8967,337.423,-0.775445
13.8983,337.44,-0.775386
13.9,337.457,-0.775317
13.9017,337.473,-0.775254
13.9033,337.49,-0.775186
13.905,337.506,-0.775118
13.9067,337.523,-0.775054
13.9083,337.54,-0.774998
13.91,337.556,-0.774939
13.9117,337.573,-0.77487
13.9133,337.59,-0.774802
13.915,337.607,-0.77473
13.9167,337.623,-0.774659
13.9183,337.64,-0.774587
13.92,337.656,-0.774517
13.9217,337.673,-0.774452
13.9233,337.69,-0.774376
13.925,337.706,-0.774309
13.9267,337.723,-0.774245
13.9283,337.739,-0.774178
13.93,337.756,-0.77412
13.9317,337.773,-0.774063
13.9333,337.79,-0.774019
13.935,337.806,-0.773981
13.9367,337.823,-0.773948
13.9383,337.839,-0.773927
13.94,337.856,-0.773906
13.9417,337.873,-0.773882
13.9433,337.89,-0.773849
13.945,337.906,-0.773812
13.9467,337.923,-0.773769
13.9483,337.939,-0.773724
13.95,337.956,-0.773677
13.9517,337.972,-0.773632
13.9533,337.989,-0.773575
13.955,338.006,-0.773518
13.9567,338.023,-0.773455
13.9583,338.039,-0.773386
13.96,338.056,-0.773318
13.9617,338.073,-0.773247
13.9633,338.089,-0.773179
13.965,338.106,-0.773102
13.9667,338.123,-0.773036
13.9683,338.139,-0.772978
13.97,338.156,-0.772928
13.9717,338.173,-0.772873
13.9733,338.189,-0.772828
13.975,338.205,-0.772797
13.9767,338.222,-0.77277
13.9783,338.239,-0.772748
13.98,338.256,-0.772729
13.9817,338.273,-0.772707
13.9833,338.289,-0.772676
13.985,338.306,-0.772647
13.9867,338.323,-0.772613
13.9883,338.34,-0.772578
13.99,338.356,-0.772532
13.9917,338.373,-0.772483
13.9933,338.39,-0.772441
13.995,338.406,-0.77239
13.9967,338.422,-0.772336
13.9983,338.439,-0.772285
14,338.455,-0.77223
14.0017,338.472,-0.772169
14.0033,338.489,-0.77211
14.005,338.506,-0.77206
14.0067,338.522,-0.77201
14.0083,338.539,-0.771969
14.01,338.556,-0.771935
14.0117,338.572,-0.771905
14.0133,338.589,-0.771875
14.015,338.606,-0.77184
14.0167,338.622,-0.771813
14.0183,338.639,-0.771795
14.02,338.655,-0.771774
14.0217,338.672,-0.771752
14.0233,338.689,-0.771737
14.025,338.705,-0.771725
14.0267,338.722,-0.771717
14.0283,338.739,-0.77171
14.03,338.755,-0.771701
14.0317,338.772,-0.771683
14.0333,338.789,-0.771656
14.035,338.805,-0.771627
14.0367,338.822,-0.7716
14.0383,338.839,-0.771564
14.04,338.855,-0.771525
14.0417,338.872,-0.771489
14.0433,338.889,-0.771449
14.045,338.905,-0.771409
14.0467,338.922,-0.771371
14.0483,338.938,-0.771331
14.05,338.955,-0.771291
14.0517,338.972,-0.771254
14.0533,338.988,-0.771219
14.055,339.005,-0.771179
14.0567,339.022,-0.771144
14.0583,339.039,-0.771112
14.06,339.055,-0.771074
14.0617,339.072,-0.771041
14.0633,339.089,-0.771014
14.065,339.105,-0.770977
14.0667,339.122,-0.770933
14.0683,339.139,-0.770891
14.07,339.155,-0.770848
14.0717,339.172,-0.770814
14.0733,339.189,-0.770779
14.075,339.205,-0.770751
14.0767,339.222,-0.770734
14.0783,339.239,-0.770724
14.08,339.255,-0.77072
14.0817,339.272,-0.770722
14.0833,339.288,-0.770719
14.085,339.305,-0.770714
14.0867,339.322,-0.7707
14.0883,339.339,-0.770677
14.09,339.355,-0.770644
14.0917,339.372,-0.770606
14.0933,339.389,-0.770569
14.095,339.406,-0.770523
14.0967,339.422,-0.770469
14.0983,339.438,-0.770417
14.1,339.455,-0.770373
14.1017,339.472,-0.770336
14.1033,339.488,-0.770311
14.105,339.505,-0.770296
14.1067,339.522,-0.770282
14.1083,339.538,-0.770267
14.11,339.555,-0.770263
14.1117,339.572,-0.770257
14.1133,339.588,-0.77025
14.115,339.605,-0.770236
14.1167,339.622,-0.770221
14.1183,339.638,-0.770204
14.12,339.655,-0.770185
14.1217,339.672,-0.77017
14.1233,339.689,-0.770163
14.125,339.705,-0.770157
14.1267,339.722,-0.77014
14.1283,339.738,-0.770122
14.13,339.755,-0.770099
14.1317,339.772,-0.770076
14.1333,339.788,-0.770058
14.135,339.805,-0.77004
14.1367,339.822,-0.770029
14.1383,339.838,-0.770018
14.14,339.855,-0.770006
14.1417,339.872,-0.769998
14.1433,339.888,-0.769997
14.145,339.905,-0.769993
14.1467,339.922,-0.769982
14.1483,339.938,-0.76997
14.15,339.955,-0.769953
14.1517,339.972,-0.769942
14.1533,339.988,-0.769937
14.155,340.005,-0.769937
14.1567,340.022,-0.769943
14.1583,340.038,-0.769947
14.16,340.055,-0.769944
14.1617,340.072,-0.76994
14.1633,340.088,-0.769934
14.165,340.105,-0.769921
14.1667,340.121,-0.769901
14.1683,340.138,-0.769875
14.17,340.155,-0.769848
14.1717,340.171,-0.769821
14.1733,340.188,-0.769806
14.175,340.205,-0.769801
14.1767,340.221,-0.769799
14.1783,340.238,-0.7698
14.18,340.255,-0.769797
14.1817,340.272,-0.769785
14.1833,340.288,-0.769776
14.185,340.305,-0.769759
14.1867,340.321,-0.769732
14.1883,340.338,-0.769699
14.19,340.354,-0.769671
14.1917,340.371,-0.769638
14.1933,340.388,-0.769609
14.195,340.405,-0.769594
14.1967,340.421,-0.769589
14.1983,340.438,-0.769591
14.2,340.454,-0.769596
14.2017,340.471,-0.769609
14.2033,340.488,-0.769627
14.205,340.505,-0.769633
14.2067,340.521,-0.769637
14.2083,340.538,-0.76964
14.21,340.555,-0.769632
14.2117,340.571,-0.76962
14.2133,340.588,-0.769601
14.215,340.604,-0.769583
14.2167,340.621,-0.76957
14.2183,340.638,-0.769558
14.22,340.654,-0.769539
14.2217,340.671,-0.769525
14.2233,340.688,-0.769518
14.225,340.704,-0.769514
14.2267,340.721,-0.76951
14.2283,340.738,-0.769501
14.23,340.754,-0.769498
14.2317,340.771,-0.769503
14.2333,340.788,-0.769503
14.235,340.804,-0.769505
14.2367,340.821,-0.769502
14.2383,340.838,-0.7695
14.24,340.854,-0.769497
14.2417,340.871,-0.769496
14.2433,340.887,-0.769495
14.245,340.904,-0.769496
14.2467,340.921,-0.769504
14.2483,340.938,-0.769517
14.25,340.955,-0.769536
14.2517,340.971,-0.769553
14.2533,340.988,-0.769556
14.255,341.005,-0.769557
14.2567,341.021,-0.76955
14.2583,341.038,-0.769545
14.26,341.055,-0.769534
14.2617,341.071,-0.769528
14.2633,341.088,-0.769517
14.265,341.105,-0.769508
14.2667,341.121,-0.769496
14.2683,341.138,-0.769491
14.27,341.154,-0.7695
14.2717,341.171,-0.769507
14.2733,341.188,-0.769507
14.275,341.205,-0.769505
14.2767,341.221,-0.769508
14.2783,341.238,-0.769509
14.28,341.255,-0.769515
14.2817,341.271,-0.769513
14.2833,341.288,-0.769514
14.285,341.304,-0.769517
14.2867,341.32,-0.769514
14.2883,341.337,-0.769516
14.29,341.353,-0.769514
14.2917,341.37,-0.769507
14.2933,341.387,-0.769498
14.295,341.403,-0.769492
14.2967,341.42,-0.769487
14.2983,341.437,-0.769488
14.3,341.454,-0.76948
14.3017,341.47,-0.769473
14.3033,341.487,-0.769469
14.305,341.503,-0.769457
14.3067,341.521,-0.769446
14.3083,341.537,-0.769441
14.31,341.554,-0.769429
14.3117,341.571,-0.769411
14.3133,341.587,-0.769399
14.315,341.604,-0.769388
14.3167,341.621,-0.769383
14.3183,341.637,-0.769378
14.32,341.654,-0.769382
14.3217,341.671,-0.769397
14.3233,341.687,-0.769414
14.325,341.704,-0.76943
14.3267,341.72,-0.76944
14.3283,341.737,-0.769451
14.33,341.754,-0.769462
14.3317,341.77,-0.769468
14.3333,341.787,-0.76947
14.335,341.803,-0.769468
14.3367,341.82,-0.769451
14.3383,341.836,-0.769435
14.34,341.853,-0.769422
14.3417,341.87,-0.769414
14.3433,341.886,-0.769406
14.345,341.903,-0.769405
14.3467,341.92,-0.769401
14.3483,341.936,-0.76939
14.35,341.953,-0.769372
14.3517,341.97,-0.769359
14.3533,341.986,-0.76934
14.355,342.003,-0.769321
14.3567,342.019,-0.769302
14.3583,342.036,-0.769282
14.36,342.053,-0.769265
14.3617,342.069,-0.769254
14.3633,342.086,-0.769252
14.365,342.103,-0.769264
14.3667,342.119,-0.769299
14.3683,342.136,-0.769342
14.37,342.152,-0.769398
14.3717,342.169,-0.769445
14.3733,342.186,-0.769477
14.375,342.203,-0.769506
14.3767,342.219,-0.769536
14.3783,342.236,-0.769557
14.38,342.252,-0.769565
14.3817,342.269,-0.769567
14.3833,342.286,-0.769561
14.385,342.302,-0.769552
14.3867,342.319,-0.76954
14.3883,342.335,-0.769523
14.39,342.352,-0.769498
14.3917,342.369,-0.769479
14.3933,342.386,-0.769465
14.395,342.402,-0.769457
14.3967,342.419,-0.769455
14.3983,342.435,-0.76946
14.4,342.452,-0.769472
14.4017,342.469,-0.769487
14.4033,342.485,-0.769504
14.405,342.502,-0.769517
14.4067,342.519,-0.76952
14.4083,342.535,-0.769524
14.41,342.552,-0.769531
14.4117,342.568,-0.769544
14.4133,342.585,-0.769554
14.415,342.601,-0.769569
14.4167,342.618,-0.769591
14.4183,342.635,-0.769611
14.42,342.652,-0.769627
14.4217,342.669,-0.769648
14.4233,342.685,-0.769654
14.425,342.702,-0.769654
14.4267,342.718,-0.769639
14.4283,342.735,-0.769626
14.43,342.752,-0.769615
14.4317,342.768,-0.769603
14.4333,342.785,-0.7696
14.435,342.801,-0.769598
14.4367,342.818,-0.769603
14.4383,342.835,-0.769612
14.44,342.852,-0.76963
14.4417,342.868,-0.769643
14.4433,342.885,-0.769651
14.445,342.902,-0.769658
14.4467,342.918,-0.769668
14.4483,342.935,-0.769677
14.45,342.952,-0.769682
14.4517,342.968,-0.769681
14.4533,342.985,-0.769678
14.455,343.002,-0.769666
14.4567,343.018,-0.769653
14.4583,343.034,-0.769637
14.46,343.051,-0.769622
14.4617,343.068,-0.769613
14.4633,343.084,-0.769607
14.465,343.101,-0.769602
14.4667,343.118,-0.769614
14.4683,343.135,-0.769628
14.47,343.152,-0.769654
14.4717,343.168,-0.769702
14.4733,343.185,-0.769736
14.475,343.201,-0.769781
14.4767,343.218,-0.769808
14.4783,343.235,-0.769835
14.48,343.251,-0.769854
14.4817,343.268,-0.769873
14.4833,343.285,-0.769891
14.485,343.301,-0.769903
14.4867,343.318,-0.769913
14.4883,343.335,-0.769921
14.49,343.351,-0.769941
14.4917,343.368,-0.769966
14.4933,343.384,-0.769995
14.495,343.401,-0.770024
14.4967,343.418,-0.770061
14.4983,343.434,-0.770096
14.5,343.451,-0.770136
14.5017,343.468,-0.770178
14.5033,343.484,-0.770216
14.505,343.501,-0.77025
14.5067,343.518,-0.770278
14.5083,343.535,-0.770293
14.51,343.551,-0.770299
14.5117,343.568,-0.770298
14.5133,343.585,-0.770287
14.515,343.601,-0.770272
14.5167,343.618,-0.770256
14.5183,343.634,-0.770244
14.52,343.651,-0.770231
14.5217,343.667,-0.770224
14.5233,343.684,-0.770228
14.525,343.701,-0.770241
14.5267,343.717,-0.770258
14.5283,343.734,-0.770285
14.53,343.75,-0.770316
14.5317,343.767,-0.770344
14.5333,343.784,-0.770374
14.535,343.801,-0.770394
14.5367,343.817,-0.770411
14.5383,343.834,-0.770415
14.54,343.851,-0.770418
14.5417,343.867,-0.770411
14.5433,343.884,-0.770402
14.545,343.901,-0.770387
14.5467,343.917,-0.770386
14.5483,343.934,-0.770391
14.55,343.95,-0.770405
14.5517,343.967,-0.770425
14.5533,343.984,-0.770437
14.555,344,-0.770445
14.5567,344.017,-0.770454
14.5583,344.034,-0.77047
14.56,344.05,-0.770483
14.5617,344.067,-0.770496
14.5633,344.084,-0.770507
14.565,344.101,-0.770517
14.5667,344.117,-0.770528
14.5683,344.133,-0.77054
14.57,344.15,-0.770549
14.5717,344.167,-0.770553
14.5733,344.183,-0.770556
14.575,344.2,-0.770568
14.5767,344.217,-0.770583
14.5783,344.233,-0.770593
14.58,344.25,-0.770605
14.5817,344.267,-0.770611
14.5833,344.284,-0.770616
14.585,344.3,-0.770624
14.5867,344.317,-0.770639
14.5883,344.334,-0.770644
14.59,344.35,-0.770646
14.5917,344.366,-0.77064
14.5933,344.383,-0.77064
14.595,344.4,-0.770645
14.5967,344.417,-0.77065
14.5983,344.433,-0.770649
14.6,344.45,-0.770656
14.6017,344.466,-0.770667
14.6033,344.483,-0.770682
14.605,344.5,-0.770701
14.6067,344.517,-0.770707
14.6083,344.533,-0.77072
14.61,344.55,-0.770736
14.6117,344.566,-0.77076
14.6133,344.583,-0.770786
14.615,344.6,-0.770813
14.6167,344.617,-0.770835
14.6183,344.633,-0.770857
14.62,344.65,-0.770878
14.6217,344.667,-0.770889
14.6233,344.683,-0.770892
14.625,344.7,-0.770893
14.6267,344.716,-0.770892
14.6283,344.733,-0.770898
14.63,344.75,-0.77091
14.6317,344.766,-0.770922
14.6333,344.783,-0.770938
14.635,344.8,-0.770961
14.6367,344.816,-0.77099
14.6383,344.833,-0.771022
14.64,344.85,-0.771056
14.6417,344.866,-0.771086
14.6433,344.883,-0.771124
14.645,344.899,-0.77116
14.6467,344.916,-0.771186
14.6483,344.933,-0.771212
14.65,344.949,-0.771228
14.6517,344.966,-0.771241
14.6533,344.983,-0.771245
14.655,344.999,-0.771236
14.6567,345.016,-0.771226
14.6583,345.033,-0.77122
14.66,345.05,-0.771213
14.6617,345.066,-0.771221
14.6633,345.082,-0.771233
14.665,345.099,-0.771249
14.6667,345.116,-0.771279
14.6683,345.133,-0.771306
14.67,345.149,-0.771338
14.6717,345.166,-0.771379
14.6733,345.183,-0.771411
14.675,345.199,-0.771444
14.6767,345.216,-0.771478
14.6783,345.233,-0.771501
14.68,345.249,-0.771513
14.6817,345.266,-0.771518
14.6833,345.282,-0.771525
14.685,345.299,-0.771529
14.6867,345.316,-0.771537
14.6883,345.333,-0.77155
14.69,345.35,-0.771566
14.6917,345.366,-0.771583
14.6933,345.383,-0.771598
14.695,345.4,-0.771608
14.6967,345.416,-0.771618
14.6983,345.433,-0.771635
14.7,345.449,-0.771646
14.7017,345.466,-0.771657
14.7033,345.483,-0.771669
14.705,345.499,-0.771685
14.7067,345.516,-0.771697
14.7083,345.532,-0.771713
14.71,345.549,-0.771729
14.7117,345.566,-0.771745
14.7133,345.583,-0.771752
14.715,345.599,-0.77176
14.7167,345.616,-0.771779
14.7183,345.632,-0.77179
14.72,345.649,-0.771797
14.7217,345.666,-0.771797
14.7233,345.683,-0.771802
14.725,345.699,-0.771819
14.7267,345.716,-0.771839
14.7283,345.733,-0.771858
14.73,345.749,-0.771889
14.7317,345.766,-0.771923
14.7333,345.783,-0.771953
14.735,345.799,-0.771985
14.7367,345.816,-0.772013
14.7383,345.833,-0.77203
14.74,345.849,-0.772054
14.7417,345.866,-0.772084
14.7433,345.883,-0.772115
14.745,345.899,-0.772151
14.7467,345.916,-0.772187
14.7483,345.933,-0.772213
14.75,345.949,-0.772245
14.7517,345.966,-0.772274
14.7533,345.983,-0.7723
14.755,346,-0.77232
14.7567,346.016,-0.772335
14.7583,346.033,-0.772356
14.76,346.049,-0.77238
14.7617,346.066,-0.772403
14.7633,346.083,-0.77243
14.765,346.099,-0.772461
14.7667,346.116,-0.772491
14.7683,346.133,-0.77253
14.77,346.149,-0.772569
14.7717,346.166,-0.772598
14.7733,346.182,-0.772625
14.775,346.199,-0.772641
14.7767,346.216,-0.772654
14.7783,346.233,-0.772659
14.78,346.249,-0.772672
14.7817,346.266,-0.772683
14.7833,346.283,-0.772697
14.785,346.3,-0.772709
14.7867,346.316,-0.772721
14.7883,346.333,-0.772742
14.79,346.35,-0.772757
14.7917,346.366,-0.772772
14.7933,346.383,-0.77279
14.795,346.4,-0.772808
14.7967,346.416,-0.772829
14.7983,346.433,-0.772852
14.8,346.45,-0.772886
14.8017,346.466,-0.772922
14.8033,346.483,-0.772959
14.805,346.5,-0.772993
14.8067,346.516,-0.773029
14.8083,346.533,-0.773059
14.81,346.55,-0.773078
14.8117,346.566,-0.773101
14.8133,346.582,-0.773128
14.815,346.599,-0.77314
14.8167,346.617,-0.773163
14.8183,346.633,-0.773195
14.82,346.65,-0.773225
14.8217,346.667,-0.773255
14.8233,346.683,-0.773284
14.825,346.7,-0.773319
14.8267,346.717,-0.773362
14.8283,346.733,-0.773404
14.83,346.75,-0.773427
14.8317,346.767,-0.773437
14.8333,346.783,-0.773435
14.835,346.8,-0.773429
14.8367,346.817,-0.773407
14.8383,346.833,-0.773353
14.84,346.849,-0.773296
14.8417,346.866,-0.773247
14.8433,346.883,-0.773231
14.845,346.899,-0.773229
14.8467,346.916,-0.773249
14.8483,346.933,-0.773275
14.85,346.95,-0.773318
14.8517,346.967,-0.773381
14.8533,346.983,-0.773431
14.855,346.999,-0.77348
14.8567,347.017,-0.77353
14.8583,347.033,-0.773587
14.86,347.05,-0.773669
14.8617,347.066,-0.773724
14.8633,347.083,-0.773767
14.865,347.099,-0.773804
14.8667,347.117,-0.773836
14.8683,347.133,-0.77387
14.87,347.15,-0.773899
14.8717,347.167,-0.773918
14.8733,347.183,-0.773934
14.875,347.2,-0.773944
14.8767,347.217,-0.773948
14.8783,347.234,-0.773956
14.88,347.25,-0.773973
14.8817,347.267,-0.773984
14.8833,347.283,-0.773995
14.885,347.3,-0.774004
14.8867,347.316,-0.774013
14.8883,347.333,-0.774019
14.89,347.35,-0.774026
14.8917,347.367,-0.774033
14.8933,347.383,-0.774038
14.895,347.4,-0.77404
14.8967,347.417,-0.774046
14.8983,347.433,-0.774054
14.9,347.45,-0.774068
14.9017,347.467,-0.774096
14.9033,347.483,-0.774122
14.905,347.5,-0.774148
14.9067,347.516,-0.774172
14.9083,347.533,-0.774189
14.91,347.55,-0.774201
14.9117,347.567,-0.774205
14.9133,347.583,-0.77421
14.915,347.6,-0.774214
14.9167,347.617,-0.774211
14.9183,347.633,-0.774211
14.92,347.65,-0.774219
14.9217,347.667,-0.774227
14.9233,347.684,-0.774232
14.925,347.7,-0.774229
14.9267,347.717,-0.774232
14.9283,347.734,-0.774246
14.93,347.75,-0.774265
14.9317,347.767,-0.774288
14.9333,347.783,-0.774323
14.935,347.8,-0.774357
14.9367,347.817,-0.774401
14.9383,347.834,-0.774463
14.94,347.851,-0.774504
14.9417,347.867,-0.774536
14.9433,347.884,-0.774561
14.945,347.9,-0.77458
14.9467,347.917,-0.774601
14.9483,347.934,-0.774618
14.95,347.95,-0.774638
14.9517,347.967,-0.774654
14.9533,347.984,-0.774672
14.955,348,-0.774701
14.9567,348.017,-0.774743
14.9583,348.034,-0.774779
14.96,348.051,-0.774814
14.9617,348.067,-0.77485
14.9633,348.084,-0.774888
14.965,348.1,-0.774926
14.9667,348.117,-0.774961
14.9683,348.134,-0.77499
14.97,348.15,-0.775014
14.9717,348.167,-0.775039
14.9733,348.184,-0.775067
14.975,348.201,-0.775094
14.9767,348.217,-0.775117
14.9783,348.234,-0.775136
14.98,348.25,-0.775163
14.9817,348.267,-0.775191
14.9833,348.284,-0.775223
14.985,348.3,-0.775257
14.9867,348.317,-0.775296
14.9883,348.334,-0.775336
14.99,348.35,-0.775376
14.9917,348.367,-0.775408
14.9933,348.384,-0.775436
14.995,348.4,-0.775451
14.9967,348.417,-0.775463
14.9983,348.434,-0.775462
15,348.45,-0.77546
15.0017,348.467,-0.775452
15.0033,348.483,-0.775447
15.005,348.5,-0.775439
15.0067,348.517,-0.775433
15.0083,348.533,-0.775422
15.01,348.55,-0.77542
15.0117,348.567,-0.775421
15.0133,348.583,-0.775427
15.015,348.6,-0.775438
15.0167,348.617,-0.775458
15.0183,348.634,-0.775478
15.02,348.651,-0.775498
15.0217,348.667,-0.775523
15.0233,348.683,-0.775557
15.025,348.7,-0.775588
15.0267,348.717,-0.775623
15.0283,348.734,-0.775663
15.03,348.75,-0.775703
15.0317,348.767,-0.775729
15.0333,348.784,-0.77575
15.035,348.8,-0.775766
15.0367,348.817,-0.775776
15.0383,348.833,-0.775789
15.04,348.85,-0.775797
15.0417,348.867,-0.775805
15.0433,348.883,-0.775808
15.045,348.9,-0.775799
15.0467,348.917,-0.775791
15.0483,348.933,-0.775801
15.05,348.95,-0.775811
15.0517,348.967,-0.775828
15.0533,348.984,-0.775843
15.055,349,-0.775848
15.0567,349.017,-0.775859
15.0583,349.034,-0.775874
15.06,349.05,-0.77589
15.0617,349.067,-0.775908
15.0633,349.084,-0.775929
15.065,349.1,-0.775941
15.0667,349.117,-0.775958
15.0683,349.134,-0.775981
15.07,349.151,-0.775995
15.0717,349.167,-0.776013
15.0733,349.184,-0.776035
15.075,349.201,-0.776063
15.0767,349.217,-0.776097
15.0783,349.234,-0.776127
15.08,349.251,-0.776147
15.0817,349.267,-0.776163
15.0833,349.284,-0.776172
15.085,349.3,-0.776185
15.0867,349.317,-0.776202
15.0883,349.334,-0.776211
15.09,349.35,-0.776221
15.0917,349.367,-0.776229
15.0933,349.384,-0.776242
15.095,349.401,-0.776252
15.0967,349.417,-0.776272
15.0983,349.434,-0.77629
15.1,349.451,-0.776312
15.1017,349.467,-0.776331
15.1033,349.484,-0.776349
15.105,349.501,-0.776371
15.1067,349.517,-0.776389
15.1083,349.534,-0.776409
15.11,349.551,-0.776423
15.1117,349.567,-0.776441
15.1133,349.584,-0.776456
15.115,349.601,-0.776478
15.1167,349.617,-0.776498
15.1183,349.634,-0.77652
15.12,349.651,-0.776554
15.1217,349.668,-0.776595
15.1233,349.684,-0.776645
15.125,349.7,-0.77669
15.1267,349.717,-0.776734
15.1283,349.734,-0.776773
15.13,349.751,-0.776806
15.1317,349.767,-0.776822
15.1333,349.783,-0.776829
15.135,349.8,-0.776826
15.1367,349.817,-0.77682
15.1383,349.834,-0.776813
15.14,349.85,-0.776805
15.1417,349.867,-0.776812
15.1433,349.883,-0.776823
15.145,349.9,-0.776838
15.1467,349.917,-0.776859
15.1483,349.934,-0.776879
15.15,349.95,-0.776894
15.1517,349.967,-0.776905
15.1533,349.983,-0.776923
15.155,350,-0.776944
15.1567,350.017,-0.77696
15.1583,350.034,-0.776978
15.16,350.051,-0.777
15.1617,350.067,-0.777019
15.1633,350.084,-0.777045
15.165,350.1,-0.777072
15.1667,350.117,-0.7771
15.1683,350.133,-0.77713
15.17,350.15,-0.777159
15.1717,350.167,-0.77718
15.1733,350.183,-0.777195
15.175,350.2,-0.777203
15.1767,350.217,-0.777203
15.1783,350.234,-0.77719
15.18,350.25,-0.777184
15.1817,350.267,-0.777177
15.1833,350.283,-0.777164
15.185,350.3,-0.777162
15.1867,350.317,-0.777159
15.1883,350.334,-0.777169
15.19,350.35,-0.777182
15.1917,350.366,-0.777198
15.1933,350.383,-0.777216
15.195,350.4,-0.777232
15.1967,350.417,-0.777255
15.1983,350.433,-0.777285
15.2,350.45,-0.777314
15.2017,350.466,-0.77734
15.2033,350.483,-0.777359
15.205,350.5,-0.777382
15.2067,350.517,-0.777401
15.2083,350.534,-0.777414
15.21,350.55,-0.777418
15.2117,350.567,-0.777423
15.2133,350.583,-0.777422
15.215,350.6,-0.777419
15.2167,350.617,-0.777422
15.2183,350.633,-0.777429
15.22,350.65,-0.777446
15.2217,350.667,-0.777463
15.2233,350.683,-0.777479
15.225,350.7,-0.777489
15.2267,350.716,-0.777498
15.2283,350.733,-0.777509
15.23,350.75,-0.777519
15.2317,350.767,-0.777538
15.2333,350.783,-0.777562
15.235,350.8,-0.777587
15.2367,350.817,-0.777615
15.2383,350.833,-0.777642
15.24,350.85,-0.777663
15.2417,350.867,-0.777687
15.2433,350.883,-0.777701
15.245,350.9,-0.777714
15.2467,350.916,-0.777719
15.2483,350.933,-0.777722
15.25,350.949,-0.777722
15.2517,350.966,-0.777719
15.2533,350.983,-0.777721
15.255,351,-0.777733
15.2567,351.016,-0.777755
15.2583,351.033,-0.777774
15.26,351.049,-0.777789
15.2617,351.066,-0.777797
15.2633,351.083,-0.777811
15.265,351.1,-0.777822
15.2667,351.116,-0.777831
15.2683,351.133,-0.777845
15.27,351.149,-0.777851
15.2717,351.166,-0.777849
15.2733,351.183,-0.77785
15.275,351.199,-0.777862
15.2767,351.216,-0.777889
15.2783,351.233,-0.777921
15.28,351.249,-0.77796
15.2817,351.266,-0.777992
15.2833,351.283,-0.778013
15.285,351.299,-0.778024
15.2867,351.316,-0.778032
15.2883,351.333,-0.778027
15.29,351.349,-0.778015
15.2917,351.366,-0.778
15.2933,351.383,-0.777988
15.295,351.4,-0.777978
15.2967,351.416,-0.777973
15.2983,351.433,-0.777968
15.3,351.449,-0.777969
15.3017,351.466,-0.777979
15.3033,351.483,-0.777983
15.305,351.499,-0.777992
15.3067,351.516,-0.777998
15.3083,351.532,-0.778011
15.31,351.549,-0.778025
15.3117,351.566,-0.778048
15.3133,351.583,-0.778066
15.315,351.599,-0.778091
15.3167,351.616,-0.778115
15.3183,351.632,-0.778136
15.32,351.649,-0.778153
15.3217,351.666,-0.778166
15.3233,351.682,-0.778181
15.325,351.699,-0.778191
15.3267,351.716,-0.778202
15.3283,351.732,-0.778214
15.33,351.749,-0.778238
15.3317,351.766,-0.778272
15.3333,351.783,-0.778313
15.335,351.799,-0.778364
15.3367,351.816,-0.778424
15.3383,351.833,-0.778471
15.34,351.849,-0.77851
15.3417,351.865,-0.778542
15.3433,351.882,-0.778567
15.345,351.899,-0.778579
15.3467,351.916,-0.778579
15.3483,351.932,-0.778578
15.35,351.949,-0.778577
15.3517,351.966,-0.778587
15.3533,351.982,-0.778592
15.355,351.999,-0.778599
15.3567,352.015,-0.778614
15.3583,352.032,-0.778634
15.36,352.048,-0.77866
15.3617,352.065,-0.778686
15.3633,352.082,-0.778717
15.365,352.099,-0.778746
15.3667,352.115,-0.778777
15.3683,352.132,-0.778806
15.37,352.149,-0.778835
15.3717,352.165,-0.778864
15.3733,352.182,-0.778898
15.375,352.199,-0.778932
15.3767,352.215,-0.778958
15.3783,352.232,-0.778977
15.38,352.248,-0.778999
15.3817,352.265,-0.779018
15.3833,352.281,-0.779037
15.385,352.298,-0.779056
15.3867,352.315,-0.77907
15.3883,352.332,-0.779082
15.39,352.348,-0.7791
15.3917,352.365,-0.779119
15.3933,352.381,-0.779138
15.395,352.398,-0.779154
15.3967,352.414,-0.77917
15.3983,352.431,-0.779176
15.4,352.448,-0.779183
15.4017,352.465,-0.779189
15.4033,352.481,-0.779197
15.405,352.498,-0.77921
15.4067,352.515,-0.779228
15.4083,352.531,-0.779256
15.41,352.548,-0.779283
15.4117,352.565,-0.77931
15.4133,352.581,-0.779331
15.415,352.598,-0.779348
15.4167,352.615,-0.779367
15.4183,352.631,-0.779384
15.42,352.648,-0.77939
15.4217,352.665,-0.779395
15.4233,352.681,-0.779405
15.425,352.698,-0.779415
15.4267,352.715,-0.779429
15.4283,352.732,-0.779451
15.43,352.748,-0.779472
15.4317,352.765,-0.77949
15.4333,352.781,-0.779499
15.435,352.798,-0.779509
15.4367,352.815,-0.779518
15.4383,352.831,-0.779524
15.44,352.848,-0.779537
15.4417,352.864,-0.779552
15.4433,352.881,-0.779562
15.445,352.897,-0.77958
15.4467,352.914,-0.779603
15.4483,352.931,-0.779625
15.45,352.948,-0.779639
15.4517,352.964,-0.779653
15.4533,352.981,-0.779657
15.455,352.997,-0.779656
15.4567,353.014,-0.779657
15.4583,353.031,-0.779651
15.46,353.047,-0.779651
15.4617,353.063,-0.779653
15.4633,353.081,-0.779661
15.465,353.097,-0.779665
15.4667,353.114,-0.779667
15.4683,353.131,-0.77967
15.47,353.147,-0.779675
15.4717,353.164,-0.779686
15.4733,353.18,-0.779712
15.475,353.197,-0.779749
15.4767,353.214,-0.779791
15.4783,353.23,-0.779834
15.48,353.246,-0.779878
15.4817,353.263,-0.779925
15.4833,353.28,-0.779972
15.485,353.297,-0.78001
15.4867,353.313,-0.780036
15.4883,353.33,-0.780043
15.49,353.346,-0.780048
15.4917,353.363,-0.780045
15.4933,353.38,-0.780049
15.495,353.396,-0.780049
15.4967,353.413,-0.780049
15.4983,353.43,-0.780055
15.5,353.446,-0.780065
15.5017,353.463,-0.780078
15.5033,353.479,-0.780103
15.505,353.496,-0.780133
15.5067,353.513,-0.780168
15.5083,353.53,-0.780204
15.51,353.546,-0.780244
15.5117,353.563,-0.780281
15.5133,353.58,-0.780321
15.515,353.596,-0.780365
15.5167,353.613,-0.780399
15.5183,353.63,-0.780434
15.52,353.646,-0.780474
15.5217,353.663,-0.780506
15.5233,353.68,-0.780534
15.525,353.696,-0.780558
15.5267,353.713,-0.780578
15.5283,353.73,-0.7806
15.53,353.746,-0.780606
15.5317,353.762,-0.780602
15.5333,353.779,-0.780604
15.535,353.796,-0.780603
15.5367,353.813,-0.780595
15.5383,353.829,-0.780588
15.54,353.846,-0.780585
15.5417,353.863,-0.780581
15.5433,353.88,-0.780571
15.545,353.896,-0.780563
15.5467,353.912,-0.780561
15.5483,353.929,-0.780568
15.55,353.946,-0.780586
15.5517,353.962,-0.780614
15.5533,353.979,-0.780657
15.555,353.995,-0.780705
15.5567,354.013,-0.780751
15.5583,354.029,-0.780831
15.56,354.046,-0.780878
15.5617,354.063,-0.780916
15.5633,354.079,-0.780941
15.565,354.096,-0.78096
15.5667,354.112,-0.780965
15.5683,354.129,-0.780965
15.57,354.146,-0.780958
15.5717,354.162,-0.780952
15.5733,354.179,-0.780952
15.575,354.195,-0.78096
15.5767,354.212,-0.780973
15.5783,354.229,-0.780993
15.58,354.245,-0.781016
15.5817,354.262,-0.781052
15.5833,354.279,-0.781084
15.585,354.295,-0.781111
15.5867,354.312,-0.781147
15.5883,354.328,-0.781176
15.59,354.345,-0.781195
15.5917,354.362,-0.78121
15.5933,354.379,-0.781226
15.595,354.395,-0.781233
15.5967,354.412,-0.781234
15.5983,354.429,-0.781229
15.6,354.445,-0.781232
15.6017,354.462,-0.781239
15.6033,354.479,-0.781251
15.605,354.495,-0.781271
15.6067,354.512,-0.781304
15.6083,354.528,-0.781333
15.61,354.545,-0.781362
15.6117,354.562,-0.781394
15.6133,354.579,-0.781433
15.615,354.596,-0.781474
15.6167,354.612,-0.781511
15.6183,354.629,-0.78155
15.62,354.645,-0.781581
15.6217,354.662,-0.78162
15.6233,354.678,-0.781671
15.625,354.695,-0.78172
15.6267,354.711,-0.781763
15.6283,354.728,-0.781806
15.63,354.745,-0.781849
15.6317,354.761,-0.781884
15.6333,354.778,-0.781909
15.635,354.795,-0.781929
15.6367,354.811,-0.78194
15.6383,354.828,-0.781955
15.64,354.844,-0.781965
15.6417,354.861,-0.78197
15.6433,354.878,-0.781973
15.645,354.894,-0.781989
15.6467,354.911,-0.782009
15.6483,354.928,-0.78203
15.65,354.945,-0.782051
15.6517,354.961,-0.782073
15.6533,354.978,-0.782086
15.655,354.995,-0.782099
15.6567,355.011,-0.78212
15.6583,355.028,-0.782145
15.66,355.045,-0.782168
15.6617,355.061,-0.782192
15.6633,355.078,-0.782212
15.665,355.095,-0.78223
15.6667,355.111,-0.782238
15.6683,355.128,-0.782236
15.67,355.144,-0.782224
15.6717,355.161,-0.782188
15.6733,355.177,-0.782148
15.675,355.194,-0.782115
15.6767,355.211,-0.782093
15.6783,355.228,-0.782075
15.68,355.244,-0.782062
15.6817,355.261,-0.782067
15.6833,355.277,-0.782086
15.685,355.294,-0.78212
15.6867,355.311,-0.782163
15.6883,355.328,-0.782206
15.69,355.344,-0.782249
15.6917,355.361,-0.782288
15.6933,355.378,-0.782321
15.695,355.394,-0.782348
15.6967,355.411,-0.782373
15.6983,355.428,-0.782395
15.7,355.444,-0.782407
15.7017,355.461,-0.782408
15.7033,355.478,-0.782405
15.705,355.494,-0.782406
15.7067,355.511,-0.782412
15.7083,355.528,-0.782421
15.71,355.544,-0.782429
15.7117,355.561,-0.782432
15.7133,355.577,-0.78244
15.715,355.594,-0.782451
15.7167,355.611,-0.782474
15.7183,355.628,-0.782489
15.72,355.644,-0.782504
15.7217,355.66,-0.782525
15.7233,355.677,-0.782551
15.725,355.694,-0.782583
15.7267,355.71,-0.782624
15.7283,355.727,-0.782667
15.73,355.744,-0.78271
15.7317,355.76,-0.782749
15.7333,355.777,-0.782774
15.735,355.794,-0.782808
15.7367,355.81,-0.782835
15.7383,355.827,-0.78285
15.74,355.844,-0.782853
15.7417,355.861,-0.782847
15.7433,355.877,-0.78284
15.745,355.894,-0.782837
15.7467,355.911,-0.782837
15.7483,355.927,-0.78284
15.75,355.944,-0.782843
15.7517,355.961,-0.782853
15.7533,355.977,-0.782872
15.755,355.994,-0.782894
15.7567,356.01,-0.782915
15.7583,356.027,-0.782933
15.76,356.044,-0.782953
15.7617,356.061,-0.78298
15.7633,356.077,-0.78301
15.765,356.095,-0.783041
15.7667,356.111,-0.783072
15.7683,356.128,-0.783097
15.77,356.145,-0.783114
15.7717,356.161,-0.783122
15.7733,356.178,-0.783132
15.775,356.195,-0.783139
15.7767,356.211,-0.783146
15.7783,356.228,-0.783156
15.78,356.244,-0.783181
15.7817,356.261,-0.783203
15.7833,356.277,-0.783225
15.785,356.294,-0.783247
15.7867,356.31,-0.78327
15.7883,356.327,-0.78329
15.79,356.344,-0.783307
15.7917,356.361,-0.783308
15.7933,356.377,-0.7833
15.795,356.394,-0.783286
15.7967,356.41,-0.783271
15.7983,356.427,-0.783263
15.8,356.443,-0.78326
15.8017,356.46,-0.783267
15.8033,356.477,-0.783281
15.805,356.494,-0.783299
15.8067,356.51,-0.78332
15.8083,356.527,-0.783346
15.81,356.544,-0.783368
15.8117,356.56,-0.783392
15.8133,356.577,-0.783409
15.815,356.594,-0.783424
15.8167,356.611,-0.783436
15.8183,356.627,-0.78345
15.82,356.644,-0.783477
15.8217,356.66,-0.783509
15.8233,356.677,-0.783536
15.825,356.694,-0.783568
15.8267,356.71,-0.783592
15.8283,356.727,-0.783614
15.83,356.744,-0.78363
15.8317,356.76,-0.783635
15.8333,356.777,-0.783632
15.835,356.793,-0.783627
15.8367,356.81,-0.783617
15.8383,356.827,-0.783608
15.84,356.843,-0.783603
15.8417,356.86,-0.783602
15.8433,356.877,-0.783606
15.845,356.893,-0.783617
15.8467,356.91,-0.783636
15.8483,356.927,-0.783666
15.85,356.943,-0.783695
15.8517,356.96,-0.78373
15.8533,356.977,-0.783793
15.855,356.993,-0.783899
15.8567,357.01,-0.78395
15.8583,357.026,-0.783995
15.86,357.043,-0.784037
15.8617,357.06,-0.784069
15.8633,357.076,-0.7841
15.865,357.093,-0.784119
15.8667,357.11,-0.784133
15.8683,357.126,-0.784149
15.87,357.143,-0.784167
15.8717,357.159,-0.784193
15.8733,357.176,-0.784218
15.875,357.192,-0.784241
15.8767,357.21,-0.784264
15.8783,357.226,-0.78428
15.88,357.243,-0.784293
15.8817,357.259,-0.784303
15.8833,357.276,-0.784307
15.885,357.293,-0.784299
15.8867,357.309,-0.784284
15.8883,357.326,-0.784268
15.89,357.342,-0.784257
15.8917,357.359,-0.784237
15.8933,357.376,-0.784227
15.895,357.392,-0.784218
15.8967,357.409,-0.78421
15.8983,357.426,-0.784204
15.9,357.443,-0.784207
15.9017,357.459,-0.784211
15.9033,357.475,-0.784216
15.905,357.492,-0.784225
15.9067,357.509,-0.784244
15.9083,357.525,-0.784273
15.91,357.542,-0.784311
15.9117,357.559,-0.784355
15.9133,357.575,-0.784411
15.915,357.592,-0.784481
15.9167,357.609,-0.784527
15.9183,357.626,-0.784555
15.92,357.642,-0.784573
15.9217,357.659,-0.784581
15.9233,357.675,-0.784575
15.925,357.692,-0.784568
15.9267,357.709,-0.784552
15.9283,357.726,-0.784535
15.93,357.742,-0.784519
15.9317,357.759,-0.78451
15.9333,357.775,-0.784501
15.935,357.792,-0.7845
15.9367,357.808,-0.784508
15.9383,357.825,-0.784523
15.94,357.842,-0.784552
15.9417,357.858,-0.784582
15.9433,357.875,-0.78462
15.945,357.892,-0.784655
15.9467,357.908,-0.78469
15.9483,357.925,-0.784719
15.95,357.942,-0.784736
15.9517,357.959,-0.784747
15.9533,357.975,-0.784753
15.955,357.992,-0.78476
15.9567,358.009,-0.784765
15.9583,358.025,-0.784781
15.96,358.042,-0.784801
15.9617,358.058,-0.784829
15.9633,358.075,-0.784858
15.965,358.091,-0.78489
15.9667,358.108,-0.78493
15.9683,358.125,-0.784966
15.97,358.141,-0.785
15.9717,358.158,-0.785029
15.9733,358.174,-0.785052
15.975,358.191,-0.785065
15.9767,358.208,-0.785072
15.9783,358.224,-0.785072
15.98,358.241,-0.785063
15.9817,358.257,-0.785034
15.9833,358.274,-0.785015
15.985,358.291,-0.784992
15.9867,358.308,-0.784977
15.9883,358.324,-0.784968
15.99,358.341,-0.784974
15.9917,358.358,-0.784985
15.9933,358.374,-0.785007
15.995,358.391,-0.785049
15.9967,358.408,-0.785112
15.9983,358.425,-0.785197
16,358.441,-0.785271
16.0017,358.458,-0.785368
16.0033,358.474,-0.785417
16.005,358.491,-0.785461
16.0067,358.508,-0.785489
16.0083,358.524,-0.7855
16.01,358.541,-0.785505
16.0117,358.557,-0.785504
16.0133,358.574,-0.785496
16.015,358.59,-0.785495
16.0167,358.607,-0.785496
16.0183,358.624,-0.785507
16.02,358.641,-0.785521
16.0217,358.657,-0.785534
16.0233,358.674,-0.785543
16.025,358.69,-0.785547
16.0267,358.707,-0.785553
16.0283,358.724,-0.785557
16.03,358.741,-0.78556
16.0317,358.757,-0.785566
16.0333,358.774,-0.78557
16.035,358.791,-0.785577
16.0367,358.807,-0.785584
16.0383,358.824,-0.785598
16.04,358.841,-0.785612
16.0417,358.857,-0.785618
16.0433,358.874,-0.785624
16.045,358.891,-0.785637
16.0467,358.907,-0.78565
16.0483,358.924,-0.785656
16.05,358.941,-0.785662
16.0517,358.957,-0.785675
16.0533,358.974,-0.785686
16.055,358.991,-0.785698
16.0567,359.007,-0.785711
16.0583,359.024,-0.785723
16.06,359.041,-0.785728
16.0617,359.057,-0.785733
16.0633,359.074,-0.785738
16.065,359.09,-0.785748
16.0667,359.107,-0.785762
16.0683,359.123,-0.785776
16.07,359.14,-0.785807
16.0717,359.157,-0.78584
16.0733,359.173,-0.785881
16.075,359.19,-0.785923
16.0767,359.207,-0.785965
16.0783,359.224,-0.786008
16.08,359.24,-0.786047
16.0817,359.257,-0.786078
16.0833,359.274,-0.786103
16.085,359.29,-0.786117
16.0867,359.307,-0.786125
16.0883,359.323,-0.786125
16.09,359.34,-0.786131
16.0917,359.356,-0.786131
16.0933,359.373,-0.786134
16.095,359.39,-0.786137
16.0967,359.407,-0.786148
16.0983,359.423,-0.78616
16.1,359.44,-0.786182
16.1017,359.456,-0.78621
16.1033,359.473,-0.786237
16.105,359.489,-0.78626
16.1067,359.506,-0.786279
16.1083,359.523,-0.786301
16.11,359.539,-0.786314
16.1117,359.556,-0.786328
16.1133,359.573,-0.786334
16.115,359.59,-0.78634
16.1167,359.606,-0.786348
16.1183,359.623,-0.78636
16.12,359.639,-0.786374
16.1217,359.656,-0.786386
16.1233,359.673,-0.786405
16.125,359.689,-0.786421
16.1267,359.706,-0.786442
16.1283,359.722,-0.786457
16.13,359.739,-0.786481
16.1317,359.756,-0.786507
16.1333,359.772,-0.786526
16.135,359.789,-0.786544
16.1367,359.806,-0.786562
16.1383,359.823,-0.786581
16.14,359.839,-0.786608
16.1417,359.856,-0.78663
16.1433,359.873,-0.786655
16.145,359.889,-0.786666
16.1467,359.906,-0.786674
16.1483,359.923,-0.786682
16.15,359.939,-0.786698
16.1517,359.956,-0.786721
16.1533,359.973,-0.786753
16.155,359.989,-0.786789
16.1567,360.006,-0.78682
16.1583,360.022,-0.786848
16.16,360.039,-0.78687
16.1617,360.055,-0.786898
16.1633,360.072,-0.786915
16.165,360.089,-0.786924
16.1667,360.105,-0.786929
16.1683,360.122,-0.786928
16.17,360.139,-0.786932
16.1717,360.155,-0.786935
16.1733,360.172,-0.786937
16.175,360.189,-0.78693
16.1767,360.205,-0.786918
16.1783,360.222,-0.786909
16.18,360.238,-0.786904
16.1817,360.256,-0.786896
16.1833,360.272,-0.786888
16.185,360.288,-0.786883
16.1867,360.305,-0.786882
16.1883,360.322,-0.786892
16.19,360.338,-0.786907
16.1917,360.355,-0.786934
16.1933,360.372,-0.786953
16.195,360.389,-0.786971
16.1967,360.405,-0.786987
16.1983,360.422,-0.787001
16.2,360.439,-0.787012
16.2017,360.455,-0.787018
16.2033,360.472,-0.787025
16.205,360.488,-0.787032
16.2067,360.505,-0.787038
16.2083,360.522,-0.78704
16.21,360.539,-0.787049
16.2117,360.555,-0.787053
16.2133,360.572,-0.787058
16.215,360.588,-0.787072
16.2167,360.605,-0.787094
16.2183,360.622,-0.787126
16.22,360.638,-0.787161
16.2217,360.655,-0.787195
16.2233,360.672,-0.787234
16.225,360.688,-0.787278
16.2267,360.705,-0.787321
16.2283,360.721,-0.787356
16.23,360.738,-0.787384
16.2317,360.755,-0.787394
16.2333,360.771,-0.787399
16.235,360.788,-0.787406
16.2367,360.805,-0.787414
16.2383,360.822,-0.787417
16.24,360.838,-0.787423
16.2417,360.855,-0.787432
16.2433,360.872,-0.787449
16.245,360.888,-0.787468
16.2467,360.905,-0.787493
16.2483,360.921,-0.787525
16.25,360.938,-0.78755
16.2517,360.955,-0.787572
16.2533,360.972,-0.787599
16.255,360.988,-0.787632
16.2567,361.005,-0.787659
16.2583,361.022,-0.787678
16.26,361.038,-0.787697
16.2617,361.055,-0.787711
16.2633,361.072,-0.787732
16.265,361.088,-0.787744
16.2667,361.105,-0.787741
16.2683,361.122,-0.787729
16.27,361.138,-0.787712
16.2717,361.155,-0.787706
16.2733,361.171,-0.787705
16.275,361.188,-0.787699
16.2767,361.205,-0.787691
16.2783,361.221,-0.787695
16.28,361.238,-0.78771
16.2817,361.255,-0.787728
16.2833,361.271,-0.787747
16.285,361.287,-0.787761
16.2867,361.304,-0.787766
16.2883,361.321,-0.787768
16.29,361.337,-0.787772
16.2917,361.354,-0.787778
16.2933,361.371,-0.787787
16.295,361.387,-0.787797
16.2967,361.404,-0.787806
16.2983,361.421,-0.787825
16.3,361.438,-0.787851
16.3017,361.454,-0.787883
16.3033,361.471,-0.78791
16.305,361.487,-0.787931
16.3067,361.504,-0.787948
16.3083,361.521,-0.787957
16.31,361.538,-0.787963
16.3117,361.554,-0.787968
16.3133,361.571,-0.787965
16.315,361.587,-0.787962
16.3167,361.604,-0.787959
16.3183,361.621,-0.787963
16.32,361.637,-0.787983
16.3217,361.654,-0.788002
16.3233,361.671,-0.788023
16.325,361.687,-0.788033
16.3267,361.704,-0.788036
16.3283,361.72,-0.788024
16.33,361.737,-0.788012
16.3317,361.754,-0.787991
16.3333,361.771,-0.787967
16.335,361.787,-0.787949
16.3367,361.804,-0.787927
16.3383,361.82,-0.787917
16.34,361.837,-0.787916
16.3417,361.853,-0.787923
16.3433,361.87,-0.787933
16.345,361.887,-0.787944
16.3467,361.904,-0.787957
16.3483,361.92,-0.787969
16.35,361.937,-0.787992
16.3517,361.954,-0.788021
16.3533,361.97,-0.788043
16.355,361.987,-0.788062
16.3567,362.003,-0.788084
16.3583,362.02,-0.788111
16.36,362.037,-0.788141
16.3617,362.054,-0.788168
16.3633,362.07,-0.788183
16.365,362.087,-0.788192
16.3667,362.103,-0.78821
16.3683,362.12,-0.78824
16.37,362.137,-0.78828
16.3717,362.153,-0.788322
16.3733,362.17,-0.788364
16.375,362.186,-0.788404
16.3767,362.203,-0.788442
16.3783,362.22,-0.78847
16.38,362.236,-0.788493
16.3817,362.253,-0.788506
16.3833,362.27,-0.788512
16.385,362.286,-0.788519
16.3867,362.303,-0.788517
16.3883,362.32,-0.788517
16.39,362.337,-0.788524
16.3917,362.353,-0.788532
16.3933,362.37,-0.788541
16.395,362.386,-0.788554
16.3967,362.403,-0.788568
16.3983,362.42,-0.788564
16.4,362.436,-0.788561
16.4017,362.453,-0.78855
16.4033,362.47,-0.788551
16.405,362.486,-0.788542
16.4067,362.503,-0.788538
16.4083,362.519,-0.788541
16.41,362.536,-0.788551
16.4117,362.553,-0.788557
16.4133,362.569,-0.788561
16.415,362.586,-0.788567
16.4167,362.603,-0.788569
16.4183,362.619,-0.788564
16.42,362.636,-0.788561
16.4217,362.653,-0.788558
16.4233,362.669,-0.788557
16.425,362.686,-0.788553
16.4267,362.703,-0.788545
16.4283,362.719,-0.788542
16.43,362.736,-0.788547
16.4317,362.753,-0.788554
16.4333,362.769,-0.788561
16.435,362.786,-0.788569
16.4367,362.802,-0.788576
16.4383,362.819,-0.788587
16.44,362.836,-0.788608
16.4417,362.853,-0.788631
16.4433,362.869,-0.788653
16.445,362.886,-0.788666
16.4467,362.903,-0.788691
16.4483,362.919,-0.788724
16.45,362.936,-0.788756
16.4517,362.952,-0.788781
16.4533,362.969,-0.788801
16.455,362.985,-0.788813
16.4567,363.002,-0.788822
16.4583,363.019,-0.788832
16.46,363.035,-0.78884
16.4617,363.052,-0.788841
16.4633,363.068,-0.788843
16.465,363.086,-0.788846
16.4667,363.102,-0.788858
16.4683,363.119,-0.788868
16.47,363.135,-0.788872
16.4717,363.152,-0.788876
16.4733,363.168,-0.788887
16.475,363.185,-0.788906
16.4767,363.202,-0.788922
16.4783,363.218,-0.788936
16.48,363.235,-0.788946
16.4817,363.252,-0.788953
16.4833,363.268,-0.788954
16.485,363.285,-0.788956
16.4867,363.302,-0.788949
16.4883,363.318,-0.788939
16.49,363.335,-0.788921
16.4917,363.351,-0.7889
16.4933,363.368,-0.788885
16.495,363.385,-0.788877
16.4967,363.402,-0.78888
16.4983,363.418,-0.788883
16.5,363.435,-0.788892
16.5017,363.452,-0.788895
16.5033,363.468,-0.788892
16.505,363.485,-0.788887
16.5067,363.501,-0.78889
16.5083,363.518,-0.788885
16.51,363.535,-0.788882
16.5117,363.551,-0.788882
16.5133,363.568,-0.78889
16.515,363.585,-0.7889
16.5167,363.601,-0.788909
16.5183,363.618,-0.788922
16.52,363.634,-0.788935
16.5217,363.651,-0.788944
16.5233,363.668,-0.788942
16.525,363.684,-0.788922
16.5267,363.701,-0.788904
16.5283,363.717,-0.788884
16.53,363.734,-0.788866
16.5317,363.751,-0.78885
16.5333,363.768,-0.788834
16.535,363.785,-0.788822
16.5367,363.801,-0.78882
16.5383,363.818,-0.788821
16.54,363.834,-0.788824
16.5417,363.851,-0.788831
16.5433,363.868,-0.788843
16.545,363.884,-0.788853
16.5467,363.901,-0.788864
16.5483,363.917,-0.788881
16.55,363.934,-0.788899
16.5517,363.951,-0.788909
16.5533,363.968,-0.788918
16.555,363.984,-0.788922
16.5567,364.001,-0.788934
16.5583,364.017,-0.788954
16.56,364.034,-0.788968
16.5617,364.051,-0.788988
16.5633,364.067,-0.78901
16.565,364.084,-0.789022
16.5667,364.101,-0.789029
16.5683,364.117,-0.789038
16.57,364.134,-0.789034
16.5717,364.151,-0.789022
16.5733,364.167,-0.78901
16.575,364.184,-0.789002
16.5767,364.201,-0.788996
16.5783,364.217,-0.788993
16.58,364.234,-0.788994
16.5817,364.25,-0.788995
16.5833,364.267,-0.789006
16.585,364.284,-0.789029
16.5867,364.301,-0.789048
16.5883,364.317,-0.789069
16.59,364.334,-0.789092
16.5917,364.35,-0.789108
16.5933,364.367,-0.789122
16.595,364.384,-0.789121
16.5967,364.4,-0.789117
16.5983,364.417,-0.789104
16.6,364.434,-0.789088
16.6017,364.451,-0.789063
16.6033,364.467,-0.789047
16.605,364.483,-0.789029
16.6067,364.5,-0.789013
16.6083,364.517,-0.789006
16.61,364.533,-0.789012
16.6117,364.55,-0.789022
16.6133,364.566,-0.789025
16.615,364.583,-0.789023
16.6167,364.6,-0.789033
16.6183,364.616,-0.789044
16.62,364.633,-0.789044
16.6217,364.65,-0.78904
16.6233,364.667,-0.789034
16.625,364.684,-0.789031
16.6267,364.7,-0.789031
16.6283,364.717,-0.789035
16.63,364.734,-0.789048
16.6317,364.75,-0.789058
16.6333,364.767,-0.789072
16.635,364.783,-0.789091
16.6367,364.8,-0.789108
16.6383,364.816,-0.789136
16.64,364.833,-0.789146
16.6417,364.85,-0.789149
16.6433,364.866,-0.789147
16.645,364.883,-0.789144
16.6467,364.9,-0.789137
16.6483,364.916,-0.789129
16.65,364.933,-0.789121
16.6517,364.95,-0.789108
16.6533,364.967,-0.789104
16.655,364.983,-0.789102
16.6567,365,-0.789114
16.6583,365.016,-0.789129
16.66,365.033,-0.789144
16.6617,365.049,-0.789153
16.6633,365.066,-0.789162
16.665,365.083,-0.789183
16.6667,365.1,-0.789206
16.6683,365.117,-0.789217
16.67,365.133,-0.789221
16.6717,365.15,-0.789211
16.6733,365.167,-0.789189
16.675,365.184,-0.789171
16.6767,365.2,-0.789153
16.6783,365.217,-0.789138
16.68,365.233,-0.789119
16.6817,365.25,-0.789097
16.6833,365.266,-0.789078
16.685,365.283,-0.789077
16.6867,365.3,-0.789092
16.6883,365.316,-0.789114
16.69,365.333,-0.789128
16.6917,365.35,-0.789134
16.6933,365.367,-0.78914
16.695,365.383,-0.78914
16.6967,365.4,-0.789139
16.6983,365.417,-0.789132
16.7,365.433,-0.789118
16.7017,365.45,-0.78911
16.7033,365.467,-0.789106
16.705,365.484,-0.789115
16.7067,365.5,-0.789128
16.7083,365.517,-0.78914
16.71,365.533,-0.789145
16.7117,365.55,-0.789151
16.7133,365.567,-0.789154
16.715,365.583,-0.789158
16.7167,365.6,-0.789157
16.7183,365.616,-0.789156
16.72,365.633,-0.789151
16.7217,365.65,-0.789143
16.7233,365.667,-0.789136
16.725,365.683,-0.789134
16.7267,365.7,-0.78913
16.7283,365.717,-0.789127
16.73,365.733,-0.78913
16.7317,365.749,-0.789141
16.7333,365.766,-0.789151
16.735,365.783,-0.789169
16.7367,365.799,-0.78919
16.7383,365.816,-0.789205
16.74,365.833,-0.789215
16.7417,365.849,-0.789228
16.7433,365.866,-0.789243
16.745,365.883,-0.789262
16.7467,365.899,-0.789265
16.7483,365.916,-0.789269
16.75,365.933,-0.789276
16.7517,365.95,-0.789286
16.7533,365.966,-0.789304
16.755,365.983,-0.789321
16.7567,365.999,-0.789327
16.7583,366.016,-0.789327
16.76,366.033,-0.789328
16.7617,366.049,-0.789331
16.7633,366.066,-0.789333
16.765,366.083,-0.789327
16.7667,366.1,-0.789308
16.7683,366.116,-0.789285
16.77,366.133,-0.789267
16.7717,366.149,-0.789248
16.7733,366.166,-0.789236
16.775,366.182,-0.789226
16.7767,366.198,-0.789205
16.7783,366.215,-0.789187
16.78,366.232,-0.78917
16.7817,366.249,-0.789151
16.7833,366.265,-0.789133
16.785,366.282,-0.789107
16.7867,366.299,-0.78908
16.7883,366.315,-0.789067
16.79,366.332,-0.789061
16.7917,366.349,-0.789068
16.7933,366.365,-0.789081
16.795,366.382,-0.789103
16.7967,366.399,-0.789125
16.7983,366.415,-0.789143
16.8,366.432,-0.789143
16.8017,366.449,-0.78914
16.8033,366.465,-0.789131
16.805,366.482,-0.789125
16.8067,366.499,-0.789118
16.8083,366.515,-0.789115
16.81,366.532,-0.789121
16.8117,366.549,-0.789131
16.8133,366.565,-0.789138
16.815,366.582,-0.789145
16.8167,366.599,-0.789143
16.8183,366.615,-0.789137
16.82,366.632,-0.789129
16.8217,366.648,-0.789117
16.8233,366.665,-0.789111
16.825,366.682,-0.78911
16.8267,366.699,-0.789121
16.8283,366.715,-0.78914
16.83,366.732,-0.789164
16.8317,366.749,-0.789182
16.8333,366.766,-0.789202
16.835,366.782,-0.789221
16.8367,366.799,-0.78923
16.8383,366.815,-0.789233
16.84,366.832,-0.78923
16.8417,366.849,-0.789217
16.8433,366.866,-0.789201
16.845,366.882,-0.789189
16.8467,366.899,-0.789174
16.8483,366.915,-0.789157
16.85,366.932,-0.789145
16.8517,366.949,-0.789141
16.8533,366.965,-0.789138
16.855,366.982,-0.789136
16.8567,366.999,-0.789128
16.8583,367.016,-0.789128
16.86,367.032,-0.789132
16.8617,367.049,-0.789141
16.8633,367.065,-0.789147
16.865,367.082,-0.789158
16.8667,367.099,-0.789183
16.8683,367.116,-0.789212
16.87,367.132,-0.789249
16.8717,367.148,-0.789285
16.8733,367.165,-0.789317
16.875,367.182,-0.789344
16.8767,367.199,-0.789365
16.8783,367.215,-0.789375
16.88,367.232,-0.789375
16.8817,367.249,-0.789366
16.8833,367.265,-0.789358
16.885,367.282,-0.789341
16.8867,367.299,-0.789321
16.8883,367.315,-0.7893
16.89,367.332,-0.789282
16.8917,367.349,-0.789258
16.8933,367.366,-0.78924
16.895,367.382,-0.789224
16.8967,367.399,-0.789214
16.8983,367.416,-0.789205
16.9,367.432,-0.789197
16.9017,367.449,-0.789191
16.9033,367.466,-0.789192
16.905,367.482,-0.789188
16.9067,367.499,-0.789183
16.9083,367.515,-0.789186
16.91,367.532,-0.789195
16.9117,367.549,-0.789204
16.9133,367.566,-0.789221
16.915,367.582,-0.789245
16.9167,367.598,-0.789272
16.9183,367.615,-0.789299
16.92,367.632,-0.789326
16.9217,367.649,-0.789349
16.9233,367.665,-0.789367
16.925,367.682,-0.78938
16.9267,367.699,-0.789393
16.9283,367.716,-0.789402
16.93,367.732,-0.789407
16.9317,367.749,-0.789413
16.9333,367.766,-0.789413
16.935,367.782,-0.789414
16.9367,367.799,-0.789419
16.9383,367.816,-0.789418
16.94,367.832,-0.789415
16.9417,367.849,-0.78941
16.9433,367.866,-0.789407
16.945,367.882,-0.78941
16.9467,367.899,-0.789419
16.9483,367.915,-0.789428
16.95,367.932,-0.789431
16.9517,367.949,-0.789429
16.9533,367.965,-0.789435
16.955,367.982,-0.789441
16.9567,367.999,-0.789449
16.9583,368.015,-0.789446
16.96,368.032,-0.789441
16.9617,368.049,-0.789435
16.9633,368.066,-0.789424
16.965,368.082,-0.789417
16.9667,368.099,-0.789414
16.9683,368.115,-0.789417
16.97,368.132,-0.789416
16.9717,368.149,-0.789415
16.9733,368.166,-0.789412
16.975,368.182,-0.789406
16.9767,368.199,-0.789391
16.9783,368.215,-0.789376
16.98,368.232,-0.789354
16.9817,368.249,-0.78933
16.9833,368.265,-0.7893
16.985,368.282,-0.789273
16.9867,368.299,-0.789261
16.9883,368.315,-0.789252
16.99,368.332,-0.789247
16.9917,368.349,-0.789251
16.9933,368.365,-0.789264
16.995,368.382,-0.789276
16.9967,368.399,-0.789291
16.9983,368.415,-0.789307
17,368.432,-0.789324
17.0017,368.448,-0.789341
17.0033,368.465,-0.789353
17.005,368.482,-0.789369
17.0067,368.499,-0.789375
17.0083,368.515,-0.789377
17.01,368.532,-0.789369
17.0117,368.548,-0.789358
17.0133,368.565,-0.789348
17.015,368.582,-0.789345
17.0167,368.599,-0.789342
17.0183,368.615,-0.789347
17.02,368.632,-0.789349
17.0217,368.648,-0.789345
17.0233,368.665,-0.789346
17.025,368.682,-0.789342
17.0267,368.698,-0.789341
17.0283,368.715,-0.789344
17.03,368.732,-0.789352
17.0317,368.748,-0.789357
17.0333,368.765,-0.789363
17.035,368.781,-0.789371
17.0367,368.798,-0.789376
17.0383,368.815,-0.789375
17.04,368.831,-0.789371
17.0417,368.848,-0.789364
17.0433,368.865,-0.789351
17.045,368.882,-0.789345
17.0467,368.898,-0.789339
17.0483,368.915,-0.789337
17.05,368.932,-0.789333
17.0517,368.948,-0.789332
17.0533,368.965,-0.789337
17.055,368.981,-0.789342
17.0567,368.998,-0.789335
17.0583,369.015,-0.789325
17.06,369.031,-0.789312
17.0617,369.048,-0.789301
17.0633,369.064,-0.789288
17.065,369.081,-0.789276
17.0667,369.098,-0.789275
17.0683,369.115,-0.78928
17.07,369.131,-0.78929
17.0717,369.148,-0.789305
17.0733,369.165,-0.789308
17.075,369.181,-0.789303
17.0767,369.198,-0.789292
17.0783,369.215,-0.789285
17.08,369.232,-0.789292
17.0817,369.248,-0.789293
17.0833,369.265,-0.789302
17.085,369.281,-0.789315
17.0867,369.298,-0.789327
17.0883,369.315,-0.789348
17.09,369.331,-0.78936
17.0917,369.348,-0.789371
17.0933,369.364,-0.789372
17.095,369.381,-0.78937
17.0967,369.398,-0.789364
17.0983,369.414,-0.789353
17.1,369.431,-0.789336
17.1017,369.448,-0.789312
17.1033,369.464,-0.789293
17.105,369.481,-0.789272
17.1067,369.498,-0.78926
17.1083,369.515,-0.789249
17.11,369.531,-0.789245
17.1117,369.548,-0.789249
17.1133,369.565,-0.789256
17.115,369.581,-0.789276
17.1167,369.598,-0.78931
17.1183,369.614,-0.789352
17.12,369.631,-0.789387
17.1217,369.648,-0.78942
17.1233,369.664,-0.789445
17.125,369.681,-0.789451
17.1267,369.698,-0.789454
17.1283,369.715,-0.78944
17.13,369.732,-0.789399
17.1317,369.748,-0.789311
17.1333,369.765,-0.78923
17.135,369.781,-0.789163
17.1367,369.798,-0.789128
17.1383,369.814,-0.789092
17.14,369.831,-0.78907
17.1417,369.848,-0.789049
17.1433,369.864,-0.78904
17.145,369.881,-0.789041
17.1467,369.897,-0.789043
17.1483,369.914,-0.789042
17.15,369.931,-0.789044
17.1517,369.948,-0.789051
17.1533,369.964,-0.789067
17.155,369.981,-0.789084
17.1567,369.997,-0.789101
17.1583,370.014,-0.789112
17.16,370.031,-0.789118
17.1617,370.048,-0.789122
17.1633,370.064,-0.789107
17.165,370.081,-0.789085
17.1667,370.097,-0.789065
17.1683,370.114,-0.789043
17.17,370.13,-0.789011
17.1717,370.147,-0.788992
17.1733,370.164,-0.788975
17.175,370.181,-0.788966
17.1767,370.197,-0.788963
17.1783,370.214,-0.788971
17.18,370.231,-0.788994
17.1817,370.247,-0.789016
17.1833,370.264,-0.78904
17.185,370.28,-0.789066
17.1867,370.297,-0.789091
17.1883,370.314,-0.789108
17.19,370.33,-0.789111
17.1917,370.347,-0.789109
17.1933,370.364,-0.789094
17.195,370.38,-0.789069
17.1967,370.397,-0.789033
17.1983,370.414,-0.788997
17.2,370.43,-0.788957
17.2017,370.447,-0.788919
17.2033,370.464,-0.788879
17.205,370.48,-0.788852
17.2067,370.497,-0.788837
17.2083,370.513,-0.788825
17.21,370.53,-0.788828
17.2117,370.547,-0.788841
17.2133,370.564,-0.788861
17.215,370.58,-0.788888
17.2167,370.597,-0.788915
17.2183,370.613,-0.788945
17.22,370.63,-0.788974
17.2217,370.647,-0.788996
17.2233,370.664,-0.789013
17.225,370.68,-0.789021
17.2267,370.697,-0.78902
17.2283,370.714,-0.789008
17.23,370.73,-0.789001
17.2317,370.747,-0.788989
17.2333,370.764,-0.788965
17.235,370.78,-0.788946
17.2367,370.797,-0.788929
17.2383,370.813,-0.788909
17.24,370.83,-0.788888
17.2417,370.847,-0.788868
17.2433,370.863,-0.788854
17.245,370.88,-0.78884
17.2467,370.897,-0.788831
17.2483,370.913,-0.788828
17.25,370.93,-0.788829
17.2517,370.947,-0.788823
17.2533,370.963,-0.788815
17.255,370.98,-0.788806
17.2567,370.996,-0.788798
17.2583,371.013,-0.78879
17.26,371.03,-0.788785
17.2617,371.047,-0.788774
17.2633,371.063,-0.788766
17.265,371.08,-0.788769
17.2667,371.097,-0.788777
17.2683,371.113,-0.788789
17.27,371.13,-0.788798
17.2717,371.147,-0.788809
17.2733,371.163,-0.788811
17.275,371.18,-0.788807
17.2767,371.197,-0.788798
17.2783,371.213,-0.788792
17.28,371.23,-0.788779
17.2817,371.247,-0.788764
17.2833,371.263,-0.788749
17.285,371.28,-0.788732
17.2867,371.297,-0.788715
17.2883,371.314,-0.788697
17.29,371.33,-0.78868
17.2917,371.347,-0.788664
17.2933,371.363,-0.788656
17.295,371.38,-0.788654
17.2967,371.397,-0.788659
17.2983,371.414,-0.788659
17.3,371.43,-0.788664
17.3017,371.446,-0.788668
17.3033,371.463,-0.788669
17.305,371.48,-0.78867
17.3067,371.497,-0.788667
17.3083,371.513,-0.788666
17.31,371.53,-0.788665
17.3117,371.546,-0.788658
17.3133,371.563,-0.788646
17.315,371.58,-0.788631
17.3167,371.596,-0.788623
17.3183,371.613,-0.78862
17.32,371.63,-0.788615
17.3217,371.646,-0.78861
17.3233,371.663,-0.788605
17.325,371.68,-0.788605
17.3267,371.696,-0.788608
17.3283,371.712,-0.788609
17.33,371.729,-0.788599
17.3317,371.746,-0.78859
17.3333,371.763,-0.788577
17.335,371.78,-0.788573
17.3367,371.796,-0.788583
17.3383,371.813,-0.788604
17.34,371.83,-0.788633
17.3417,371.847,-0.788664
17.3433,371.863,-0.788698
17.345,371.88,-0.78872
17.3467,371.896,-0.788737
17.3483,371.913,-0.788739
17.35,371.929,-0.788738
17.3517,371.946,-0.788726
17.3533,371.963,-0.788718
17.355,371.98,-0.788715
17.3567,371.996,-0.788721
17.3583,372.013,-0.788739
17.36,372.03,-0.788767
17.3617,372.046,-0.78879
17.3633,372.063,-0.788809
17.365,372.079,-0.788815
17.3667,372.096,-0.788807
17.3683,372.113,-0.788786
17.37,372.13,-0.788754
17.3717,372.146,-0.788692
17.3733,372.163,-0.78863
17.375,372.18,-0.788557
17.3767,372.196,-0.788511
17.3783,372.213,-0.788477
17.38,372.229,-0.788449
17.3817,372.246,-0.788421
17.3833,372.262,-0.788399
17.385,372.279,-0.788387
17.3867,372.296,-0.788367
17.3883,372.312,-0.788356
17.39,372.329,-0.788348
17.3917,372.346,-0.788339
17.3933,372.362,-0.788335
17.395,372.379,-0.788333
17.3967,372.396,-0.788339
17.3983,372.413,-0.788345
17.4,372.429,-0.788351
17.4017,372.446,-0.788357
17.4033,372.462,-0.788356
17.405,372.479,-0.788361
17.4067,372.496,-0.788368
17.4083,372.512,-0.788377
17.41,372.529,-0.788378
17.4117,372.546,-0.788379
17.4133,372.562,-0.78838
17.415,372.579,-0.788392
17.4167,372.596,-0.788403
17.4183,372.613,-0.788413
17.42,372.629,-0.788425
17.4217,372.646,-0.788438
17.4233,372.663,-0.788451
17.425,372.679,-0.788455
17.4267,372.695,-0.788462
17.4283,372.712,-0.788474
17.43,372.729,-0.788482
17.4317,372.745,-0.788489
17.4333,372.762,-0.788497
17.435,372.779,-0.788501
17.4367,372.795,-0.788499
17.4383,372.812,-0.788494
17.44,372.829,-0.788493
17.4417,372.845,-0.788498
17.4433,372.862,-0.788493
17.445,372.879,-0.788485
17.4467,372.895,-0.788466
17.4483,372.912,-0.788444
17.45,372.929,-0.788426
17.4517,372.945,-0.788412
17.4533,372.962,-0.788403
17.455,372.979,-0.78839
17.4567,372.995,-0.788377
17.4583,373.012,-0.788364
17.46,373.029,-0.788362
17.4617,373.045,-0.788373
17.4633,373.062,-0.788379
17.465,373.079,-0.788377
17.4667,373.095,-0.788376
17.4683,373.112,-0.788378
17.47,373.128,-0.788381
17.4717,373.145,-0.788381
17.4733,373.162,-0.788376
17.475,373.178,-0.788361
17.4767,373.195,-0.788339
17.4783,373.212,-0.788324
17.48,373.228,-0.788311
17.4817,373.245,-0.788296
17.4833,373.262,-0.788277
17.485,373.278,-0.788254
17.4867,373.295,-0.78824
17.4883,373.312,-0.788216
17.49,373.328,-0.788198
17.4917,373.345,-0.788171
17.4933,373.361,-0.788146
17.495,373.378,-0.788122
17.4967,373.395,-0.788097
17.4983,373.411,-0.788075
17.5,373.428,-0.788047
17.5017,373.445,-0.788025
17.5033,373.461,-0.788007
17.505,373.478,-0.787992
