Ramp 10.00 °C/min to 375.00 °C,,
Time,Temperature,Heat Flow (Normalized)
min,°C,W/g
5.00333,249.861,-0.199378
5.005,249.861,-0.199387
5.00667,249.861,-0.199395
5.00833,249.861,-0.199394
5.01,249.861,-0.199396
5.01167,249.861,-0.199395
5.01333,249.861,-0.199396
5.015,249.861,-0.199401
5.01667,249.861,-0.199413
5.01833,249.861,-0.199428
5.02,249.861,-0.199451
5.02167,249.861,-0.199476
5.02333,249.861,-0.199499
5.025,249.862,-0.199522
5.02667,249.862,-0.199542
5.02833,249.863,-0.199568
5.03,249.863,-0.199592
5.03167,249.864,-0.199616
5.03333,249.865,-0.199646
5.035,249.866,-0.199687
5.03667,249.867,-0.199725
5.03833,249.868,-0.199771
5.04,249.869,-0.199816
5.04167,249.87,-0.199858
5.04333,249.871,-0.199893
5.045,249.873,-0.19992
5.04667,249.874,-0.199935
5.04833,249.876,-0.199924
5.05,249.877,-0.199881
5.05167,249.879,-0.199773
5.05333,249.881,-0.199556
5.055,249.883,-0.199015
5.05667,249.885,-0.198094
5.05833,249.888,-0.196562
5.06,249.89,-0.194304
5.06167,249.893,-0.190924
5.06333,249.896,-0.187964
5.065,249.899,-0.184567
5.06667,249.902,-0.180329
5.06833,249.905,-0.175841
5.07,249.909,-0.171564
5.07167,249.912,-0.167427
5.07333,249.916,-0.164166
5.075,249.92,-0.160859
5.07667,249.924,-0.157666
5.07833,249.929,-0.154742
5.08,249.934,-0.152118
5.08167,249.938,-0.149337
5.08333,249.943,-0.147333
5.085,249.948,-0.14548
5.08667,249.954,-0.14415
5.08833,249.96,-0.143203
5.09,249.965,-0.142835
5.09167,249.971,-0.142795
5.09333,249.977,-0.142993
5.095,249.984,-0.14338
5.09667,249.991,-0.143839
5.09833,249.997,-0.144303
5.1,250.004,-0.144751
5.10167,250.012,-0.146333
5.10333,250.019,-0.147322
5.105,250.026,-0.147857
5.10667,250.034,-0.148153
5.10833,250.042,-0.148794
5.11,250.05,-0.150054
5.11167,250.059,-0.152557
5.11333,250.067,-0.15677
5.115,250.076,-0.164108
5.11667,250.085,-0.173887
5.11833,250.094,-0.186567
5.12,250.103,-0.198647
5.12167,250.112,-0.209256
5.12333,250.122,-0.219261
5.125,250.131,-0.228384
5.12667,250.141,-0.237883
5.12833,250.151,-0.246286
5.13,250.161,-0.253983
5.13167,250.171,-0.262764
5.13333,250.181,-0.271592
5.135,250.191,-0.281147
5.13667,250.202,-0.290344
5.13833,250.213,-0.297463
5.14,250.224,-0.304838
5.14167,250.235,-0.313776
5.14333,250.246,-0.322226
5.145,250.258,-0.331112
5.14667,250.269,-0.340499
5.14833,250.28,-0.348681
5.15,250.292,-0.355974
5.15167,250.304,-0.364642
5.15333,250.315,-0.372662
5.155,250.327,-0.380046
5.15667,250.339,-0.388206
5.15833,250.351,-0.396005
5.16,250.363,-0.403499
5.16167,250.376,-0.411062
5.16333,250.388,-0.418715
5.165,250.4,-0.426097
5.16667,250.413,-0.433526
5.16833,250.426,-0.440866
5.17,250.438,-0.447872
5.17167,250.451,-0.454349
5.17333,250.464,-0.461432
5.175,250.477,-0.468316
5.17667,250.49,-0.47405
5.17833,250.503,-0.480075
5.18,250.516,-0.486962
5.18167,250.529,-0.492403
5.18333,250.542,-0.49797
5.185,250.556,-0.503932
5.18667,250.569,-0.50892
5.18833,250.583,-0.514826
5.19,250.596,-0.52153
5.19167,250.61,-0.527594
5.19333,250.624,-0.533348
5.195,250.637,-0.53902
5.19667,250.651,-0.544094
5.19833,250.665,-0.549544
5.2,250.679,-0.554332
5.20167,250.692,-0.559258
5.20333,250.706,-0.563603
5.205,250.721,-0.567581
5.20667,250.735,-0.57122
5.20833,250.749,-0.575982
5.21,250.763,-0.580433
5.21167,250.778,-0.583692
5.21333,250.792,-0.587384
5.215,250.806,-0.590255
5.21667,250.821,-0.595887
5.21833,250.835,-0.599947
5.22,250.85,-0.603692
5.22167,250.864,-0.608012
5.22333,250.879,-0.611841
5.225,250.893,-0.615076
5.22667,250.908,-0.61938
5.22833,250.923,-0.623315
5.23,250.937,-0.627499
5.23167,250.952,-0.630317
5.23333,250.967,-0.632988
5.235,250.982,-0.636057
5.23667,250.997,-0.639104
5.23833,251.011,-0.640677
5.24,251.026,-0.643032
5.24167,251.041,-0.646082
5.24333,251.056,-0.648449
5.245,251.071,-0.650319
5.24667,251.086,-0.65302
5.24833,251.101,-0.656121
5.25,251.116,-0.659045
5.25167,251.132,-0.662763
5.25333,251.147,-0.666304
5.255,251.162,-0.669057
5.25667,251.178,-0.671309
5.25833,251.193,-0.674387
5.26,251.208,-0.677477
5.26167,251.223,-0.680008
5.26333,251.238,-0.681112
5.265,251.253,-0.682786
5.26667,251.269,-0.684457
5.26833,251.284,-0.686931
5.27,251.3,-0.688869
5.27167,251.315,-0.69077
5.27333,251.331,-0.6916
5.275,251.346,-0.693915
5.27667,251.362,-0.695946
5.27833,251.378,-0.698612
5.28,251.393,-0.700965
5.28167,251.409,-0.702707
5.28333,251.424,-0.705885
5.285,251.44,-0.70807
5.28667,251.455,-0.709611
5.28833,251.471,-0.710826
5.29,251.486,-0.71353
5.29167,251.502,-0.716232
5.29333,251.518,-0.71882
5.295,251.533,-0.719824
5.29667,251.549,-0.721461
5.29833,251.565,-0.722389
5.3,251.581,-0.723046
5.30167,251.596,-0.723776
5.30333,251.612,-0.725065
5.305,251.628,-0.725969
5.30667,251.644,-0.726548
5.30833,251.66,-0.728251
5.31,251.675,-0.729576
5.31167,251.691,-0.731479
5.31333,251.707,-0.733208
5.315,251.723,-0.734218
5.31667,251.739,-0.735661
5.31833,251.755,-0.736003
5.32,251.771,-0.736649
5.32167,251.786,-0.737371
5.32333,251.802,-0.73832
5.325,251.818,-0.739924
5.32667,251.834,-0.741265
5.32833,251.85,-0.74276
5.33,251.866,-0.744504
5.33167,251.882,-0.746136
5.33333,251.898,-0.747868
5.335,251.914,-0.749185
5.33667,251.93,-0.750477
5.33833,251.946,-0.751044
5.34,251.962,-0.751276
5.34167,251.978,-0.751419
5.34333,251.994,-0.751995
5.345,252.01,-0.752604
5.34667,252.026,-0.753407
5.34833,252.042,-0.754536
5.35,252.058,-0.755758
5.35167,252.074,-0.757474
5.35333,252.09,-0.758811
5.355,252.106,-0.759882
5.35667,252.122,-0.760373
5.35833,252.138,-0.760591
5.36,252.154,-0.760581
5.36167,252.171,-0.760751
5.36333,252.186,-0.76105
5.365,252.203,-0.761475
5.36667,252.219,-0.761762
5.36833,252.235,-0.762183
5.37,252.251,-0.762572
5.37167,252.268,-0.763024
5.37333,252.283,-0.763628
5.375,252.3,-0.764243
5.37667,252.316,-0.764801
5.37833,252.332,-0.765283
5.38,252.348,-0.76578
5.38167,252.364,-0.76631
5.38333,252.38,-0.76698
5.385,252.397,-0.767508
5.38667,252.413,-0.767984
5.38833,252.429,-0.768255
5.39,252.445,-0.768579
5.39167,252.462,-0.769186
5.39333,252.478,-0.769906
5.395,252.494,-0.770504
5.39667,252.51,-0.77092
5.39833,252.526,-0.771248
5.4,252.542,-0.771652
5.40167,252.558,-0.772089
5.40333,252.575,-0.772412
5.405,252.591,-0.772762
5.40667,252.607,-0.77309
5.40833,252.624,-0.773481
5.41,252.64,-0.773873
5.41167,252.657,-0.774322
5.41333,252.673,-0.775011
5.415,252.689,-0.775698
5.41667,252.705,-0.776221
5.41833,252.721,-0.776703
5.42,252.738,-0.777237
5.42167,252.754,-0.777714
5.42333,252.77,-0.778139
5.425,252.786,-0.778526
5.42667,252.803,-0.778804
5.42833,252.819,-0.778997
5.43,252.835,-0.779134
5.43167,252.852,-0.779335
5.43333,252.868,-0.779597
5.435,252.884,-0.779807
5.43667,252.901,-0.780013
5.43833,252.917,-0.780115
5.44,252.933,-0.780263
5.44167,252.949,-0.780502
5.44333,252.966,-0.780803
5.445,252.982,-0.781042
5.44667,252.998,-0.781277
5.44833,253.015,-0.781442
5.45,253.031,-0.781679
5.45167,253.047,-0.781981
5.45333,253.064,-0.782318
5.455,253.08,-0.782667
5.45667,253.096,-0.783057
5.45833,253.113,-0.783422
5.46,253.129,-0.783836
5.46167,253.145,-0.78422
5.46333,253.161,-0.784611
5.465,253.178,-0.78491
5.46667,253.194,-0.785187
5.46833,253.211,-0.785699
5.47,253.227,-0.786186
5.47167,253.243,-0.786684
5.47333,253.259,-0.787083
5.475,253.276,-0.787524
5.47667,253.292,-0.787957
5.47833,253.309,-0.788321
5.48,253.325,-0.788555
5.48167,253.341,-0.788813
5.48333,253.358,-0.789036
5.485,253.374,-0.78928
5.48667,253.391,-0.789585
5.48833,253.407,-0.789896
5.49,253.424,-0.790117
5.49167,253.44,-0.790359
5.49333,253.456,-0.790586
5.495,253.473,-0.790794
5.49667,253.489,-0.790936
5.49833,253.505,-0.791124
5.5,253.521,-0.791365
5.50167,253.538,-0.791541
5.50333,253.554,-0.791691
5.505,253.57,-0.791887
5.50667,253.587,-0.792078
5.50833,253.603,-0.792288
5.51,253.619,-0.792505
5.51167,253.636,-0.792701
5.51333,253.653,-0.792916
5.515,253.669,-0.793185
5.51667,253.685,-0.793463
5.51833,253.701,-0.793788
5.52,253.718,-0.794138
5.52167,253.734,-0.794413
5.52333,253.751,-0.794647
5.525,253.767,-0.794853
5.52667,253.784,-0.794952
5.52833,253.8,-0.795064
5.53,253.816,-0.795136
5.53167,253.833,-0.795207
5.53333,253.849,-0.79528
5.535,253.865,-0.795354
5.53667,253.882,-0.795435
5.53833,253.898,-0.795594
5.54,253.915,-0.795768
5.54167,253.931,-0.795961
5.54333,253.947,-0.796118
5.545,253.964,-0.796249
5.54667,253.98,-0.796346
5.54833,253.997,-0.796426
5.55,254.013,-0.796505
5.55167,254.03,-0.796796
5.55333,254.046,-0.796868
5.555,254.062,-0.797117
5.55667,254.079,-0.797194
5.55833,254.095,-0.797294
5.56,254.111,-0.797379
5.56167,254.128,-0.797485
5.56333,254.144,-0.797617
5.565,254.161,-0.797758
5.56667,254.177,-0.79788
5.56833,254.194,-0.798011
5.57,254.21,-0.798111
5.57167,254.227,-0.798206
5.57333,254.243,-0.798319
5.575,254.259,-0.798445
5.57667,254.276,-0.798557
5.57833,254.292,-0.798672
5.58,254.308,-0.798792
5.58167,254.325,-0.798905
5.58333,254.341,-0.799029
5.585,254.358,-0.79914
5.58667,254.374,-0.799239
5.58833,254.39,-0.799335
5.59,254.406,-0.799432
5.59167,254.423,-0.799537
5.59333,254.44,-0.799726
5.595,254.456,-0.799916
5.59667,254.472,-0.800121
5.59833,254.489,-0.80044
5.6,254.505,-0.800778
5.60167,254.522,-0.80105
5.60333,254.538,-0.801182
5.605,254.555,-0.801288
5.60667,254.571,-0.801392
5.60833,254.587,-0.801491
5.61,254.604,-0.801685
5.61167,254.62,-0.801829
5.61333,254.636,-0.801976
5.615,254.653,-0.802119
5.61667,254.669,-0.80225
5.61833,254.686,-0.802349
5.62,254.703,-0.802483
5.62167,254.719,-0.802664
5.62333,254.736,-0.802904
5.625,254.752,-0.803123
5.62667,254.768,-0.803302
5.62833,254.785,-0.803459
5.63,254.801,-0.803608
5.63167,254.818,-0.803734
5.63333,254.834,-0.803845
5.635,254.85,-0.803949
5.63667,254.867,-0.804049
5.63833,254.884,-0.804149
5.64,254.9,-0.804254
5.64167,254.917,-0.804357
5.64333,254.933,-0.804455
5.645,254.949,-0.804555
5.64667,254.966,-0.804654
5.64833,254.982,-0.804762
5.65,254.999,-0.804877
5.65167,255.015,-0.805072
5.65333,255.032,-0.805225
5.655,255.048,-0.80534
5.65667,255.064,-0.805457
5.65833,255.081,-0.805572
5.66,255.098,-0.805676
5.66167,255.114,-0.805779
5.66333,255.131,-0.805869
5.665,255.147,-0.805958
5.66667,255.164,-0.806049
5.66833,255.18,-0.806142
5.67,255.196,-0.806238
5.67167,255.212,-0.806333
5.67333,255.229,-0.806436
5.675,255.246,-0.806544
5.67667,255.262,-0.806655
5.67833,255.278,-0.80677
5.68,255.295,-0.80689
5.68167,255.312,-0.807
5.68333,255.328,-0.807114
5.685,255.345,-0.807231
5.68667,255.361,-0.807345
5.68833,255.378,-0.807479
5.69,255.394,-0.807606
5.69167,255.411,-0.807835
5.69333,255.427,-0.808027
5.695,255.443,-0.808176
5.69667,255.46,-0.808303
5.69833,255.476,-0.808442
5.7,255.492,-0.808566
5.70167,255.509,-0.808692
5.70333,255.526,-0.808859
5.705,255.542,-0.809062
5.70667,255.558,-0.809301
5.70833,255.575,-0.809488
5.71,255.592,-0.809675
5.71167,255.608,-0.809853
5.71333,255.625,-0.809981
5.715,255.641,-0.810103
5.71667,255.658,-0.810226
5.71833,255.674,-0.810387
5.72,255.691,-0.810491
5.72167,255.707,-0.810593
5.72333,255.724,-0.8107
5.725,255.74,-0.810805
5.72667,255.757,-0.810908
5.72833,255.773,-0.811017
5.73,255.79,-0.811126
5.73167,255.806,-0.811237
5.73333,255.822,-0.811339
5.735,255.839,-0.811441
5.73667,255.856,-0.811546
5.73833,255.872,-0.811648
5.74,255.889,-0.811747
5.74167,255.905,-0.811858
5.74333,255.921,-0.811982
5.745,255.938,-0.812112
5.74667,255.955,-0.812362
5.74833,255.971,-0.81265
5.75,255.987,-0.813102
5.75167,256.004,-0.813533
5.75333,256.02,-0.813892
5.755,256.037,-0.814072
5.75667,256.054,-0.814234
5.75833,256.07,-0.814358
5.76,256.087,-0.814473
5.76167,256.103,-0.814581
5.76333,256.12,-0.814676
5.765,256.136,-0.814769
5.76667,256.152,-0.814852
5.76833,256.169,-0.814942
5.77,256.185,-0.815041
5.77167,256.202,-0.815137
5.77333,256.218,-0.815222
5.775,256.235,-0.815312
5.77667,256.251,-0.815411
5.77833,256.268,-0.815504
5.78,256.285,-0.815598
5.78167,256.301,-0.815698
5.78333,256.317,-0.815795
5.785,256.334,-0.815891
5.78667,256.35,-0.816003
5.78833,256.367,-0.816128
5.79,256.383,-0.816305
5.79167,256.4,-0.816486
5.79333,256.416,-0.816703
5.795,256.433,-0.816915
5.79667,256.449,-0.817131
5.79833,256.466,-0.817314
5.8,256.483,-0.817441
5.80167,256.499,-0.81756
5.80333,256.516,-0.81767
5.805,256.532,-0.817778
5.80667,256.548,-0.817882
5.80833,256.565,-0.817979
5.81,256.581,-0.818069
5.81167,256.598,-0.818159
5.81333,256.615,-0.818241
5.815,256.631,-0.818328
5.81667,256.648,-0.818419
5.81833,256.664,-0.818511
5.82,256.681,-0.818602
5.82167,256.698,-0.818688
5.82333,256.714,-0.818782
5.825,256.73,-0.818886
5.82667,256.747,-0.818988
5.82833,256.763,-0.819091
5.83,256.78,-0.8192
5.83167,256.796,-0.819312
5.83333,256.813,-0.819424
5.835,256.829,-0.81954
5.83667,256.846,-0.81966
5.83833,256.862,-0.819778
5.84,256.879,-0.819895
5.84167,256.896,-0.820013
5.84333,256.912,-0.820129
5.845,256.929,-0.820248
5.84667,256.945,-0.820367
5.84833,256.962,-0.820516
5.85,256.978,-0.820701
5.85167,256.995,-0.820837
5.85333,257.011,-0.820962
5.855,257.028,-0.821082
5.85667,257.044,-0.821205
5.85833,257.061,-0.821321
5.86,257.077,-0.821439
5.86167,257.094,-0.821548
5.86333,257.11,-0.821653
5.865,257.127,-0.821758
5.86667,257.144,-0.821863
5.86833,257.16,-0.821964
5.87,257.177,-0.822061
5.87167,257.193,-0.822153
5.87333,257.21,-0.822247
5.875,257.226,-0.822346
5.87667,257.243,-0.82245
5.87833,257.259,-0.822549
5.88,257.276,-0.822657
5.88167,257.292,-0.822767
5.88333,257.309,-0.822872
5.885,257.326,-0.822978
5.88667,257.342,-0.823083
5.88833,257.358,-0.823193
5.89,257.375,-0.823295
5.89167,257.392,-0.823401
5.89333,257.408,-0.823511
5.895,257.425,-0.823621
5.89667,257.442,-0.82373
5.89833,257.458,-0.823845
5.9,257.475,-0.823961
5.90167,257.491,-0.824081
5.90333,257.508,-0.824205
5.905,257.524,-0.824326
5.90667,257.541,-0.824451
5.90833,257.557,-0.824577
5.91,257.573,-0.824735
5.91167,257.59,-0.824903
5.91333,257.606,-0.825025
5.915,257.623,-0.825138
5.91667,257.64,-0.825249
5.91833,257.656,-0.825359
5.92,257.673,-0.825467
5.92167,257.689,-0.825579
5.92333,257.706,-0.825689
5.925,257.722,-0.825799
5.92667,257.739,-0.82591
5.92833,257.755,-0.826026
5.93,257.772,-0.826134
5.93167,257.789,-0.82623
5.93333,257.805,-0.826324
5.935,257.822,-0.826413
5.93667,257.838,-0.826502
5.93833,257.855,-0.826593
5.94,257.871,-0.826679
5.94167,257.888,-0.826764
5.94333,257.904,-0.826846
5.945,257.921,-0.826927
5.94667,257.937,-0.827011
5.94833,257.954,-0.827103
5.95,257.97,-0.827199
5.95167,257.987,-0.827299
5.95333,258.004,-0.827404
5.955,258.02,-0.827508
5.95667,258.037,-0.827617
5.95833,258.053,-0.827729
5.96,258.07,-0.82784
5.96167,258.087,-0.827947
5.96333,258.103,-0.828052
5.965,258.12,-0.828149
5.96667,258.136,-0.828241
5.96833,258.153,-0.828346
5.97,258.169,-0.82845
5.97167,258.186,-0.828554
5.97333,258.202,-0.828651
5.975,258.219,-0.828749
5.97667,258.235,-0.828846
5.97833,258.252,-0.828944
5.98,258.268,-0.829041
5.98167,258.285,-0.829136
5.98333,258.302,-0.829235
5.985,258.318,-0.829341
5.98667,258.335,-0.829451
5.98833,258.352,-0.829553
5.99,258.368,-0.829655
5.99167,258.385,-0.829756
5.99333,258.401,-0.829861
5.995,258.418,-0.829973
5.99667,258.434,-0.830081
5.99833,258.451,-0.830186
6,258.467,-0.83028
6.00167,258.484,-0.830367
6.00333,258.5,-0.83046
6.005,258.517,-0.830547
6.00667,258.533,-0.830625
6.00833,258.55,-0.830694
6.01,258.566,-0.830769
6.01167,258.583,-0.830843
6.01333,258.6,-0.830929
6.015,258.616,-0.831024
6.01667,258.633,-0.831121
6.01833,258.649,-0.831218
6.02,258.666,-0.831318
6.02167,258.682,-0.831419
6.02333,258.699,-0.831523
6.025,258.716,-0.831628
6.02667,258.732,-0.831731
6.02833,258.749,-0.831827
6.03,258.765,-0.831923
6.03167,258.782,-0.832021
6.03333,258.799,-0.832114
6.035,258.815,-0.832202
6.03667,258.832,-0.832286
6.03833,258.849,-0.832377
6.04,258.866,-0.832466
6.04167,258.882,-0.832553
6.04333,258.899,-0.832643
6.045,258.915,-0.83273
6.04667,258.932,-0.832811
6.04833,258.948,-0.832889
6.05,258.964,-0.83296
6.05167,258.981,-0.833034
6.05333,258.998,-0.833105
6.055,259.014,-0.833178
6.05667,259.031,-0.833247
6.05833,259.047,-0.833322
6.06,259.064,-0.833395
6.06167,259.08,-0.833471
6.06333,259.097,-0.833549
6.065,259.114,-0.833633
6.06667,259.13,-0.833712
6.06833,259.147,-0.833789
6.07,259.164,-0.833864
6.07167,259.181,-0.833938
6.07333,259.197,-0.834019
6.075,259.213,-0.834105
6.07667,259.23,-0.834188
6.07833,259.247,-0.83428
6.08,259.263,-0.834376
6.08167,259.28,-0.834475
6.08333,259.297,-0.834576
6.085,259.313,-0.834688
6.08667,259.33,-0.834793
6.08833,259.346,-0.834901
6.09,259.363,-0.835006
6.09167,259.379,-0.835102
6.09333,259.396,-0.835186
6.095,259.412,-0.835268
6.09667,259.429,-0.835349
6.09833,259.446,-0.83543
6.1,259.462,-0.835516
6.10167,259.479,-0.835603
6.10333,259.495,-0.835694
6.105,259.511,-0.835786
6.10667,259.528,-0.835882
6.10833,259.545,-0.835975
6.11,259.562,-0.836063
6.11167,259.578,-0.836152
6.11333,259.595,-0.836243
6.115,259.611,-0.836327
6.11667,259.628,-0.836409
6.11833,259.645,-0.836487
6.12,259.662,-0.836568
6.12167,259.678,-0.836647
6.12333,259.694,-0.836734
6.125,259.71,-0.836818
6.12667,259.727,-0.836898
6.12833,259.744,-0.83698
6.13,259.761,-0.837056
6.13167,259.777,-0.83713
6.13333,259.794,-0.837206
6.135,259.81,-0.837282
6.13667,259.827,-0.837354
6.13833,259.844,-0.837425
6.14,259.86,-0.837505
6.14167,259.877,-0.837588
6.14333,259.893,-0.83768
6.145,259.911,-0.837773
6.14667,259.927,-0.837867
6.14833,259.944,-0.837956
6.15,259.96,-0.838045
6.15167,259.977,-0.838128
6.15333,259.993,-0.838211
6.155,260.01,-0.838287
6.15667,260.026,-0.83836
6.15833,260.043,-0.838433
6.16,260.059,-0.8385
6.16167,260.076,-0.83857
6.16333,260.093,-0.838636
6.165,260.109,-0.838701
6.16667,260.126,-0.838769
6.16833,260.143,-0.838841
6.17,260.159,-0.838908
6.17167,260.175,-0.838978
6.17333,260.192,-0.839049
6.175,260.208,-0.839113
6.17667,260.225,-0.839171
6.17833,260.242,-0.839226
6.18,260.259,-0.839286
6.18167,260.275,-0.839344
6.18333,260.292,-0.839399
6.185,260.308,-0.839459
6.18667,260.325,-0.839522
6.18833,260.342,-0.839583
6.19,260.358,-0.839648
6.19167,260.375,-0.839722
6.19333,260.392,-0.839805
6.195,260.408,-0.839887
6.19667,260.425,-0.839973
6.19833,260.441,-0.840057
6.2,260.458,-0.840139
6.20167,260.475,-0.840228
6.20333,260.491,-0.840311
6.205,260.508,-0.840389
6.20667,260.524,-0.840467
6.20833,260.541,-0.840553
6.21,260.557,-0.840642
6.21167,260.574,-0.840733
6.21333,260.591,-0.840824
6.215,260.607,-0.840918
6.21667,260.624,-0.841013
6.21833,260.64,-0.841102
6.22,260.657,-0.841186
6.22167,260.674,-0.841257
6.22333,260.69,-0.841316
6.225,260.707,-0.841365
6.22667,260.723,-0.841417
6.22833,260.74,-0.841468
6.23,260.757,-0.841522
6.23167,260.773,-0.84157
6.23333,260.79,-0.841628
6.235,260.807,-0.8417
6.23667,260.823,-0.841777
6.23833,260.84,-0.84185
6.24,260.856,-0.841918
6.24167,260.873,-0.841982
6.24333,260.89,-0.842049
6.245,260.906,-0.842118
6.24667,260.923,-0.842183
6.24833,260.94,-0.842245
6.25,260.956,-0.842307
6.25167,260.973,-0.842366
6.25333,260.989,-0.842427
6.255,261.006,-0.842488
6.25667,261.023,-0.842553
6.25833,261.039,-0.842619
6.26,261.056,-0.842687
6.26167,261.072,-0.842756
6.26333,261.089,-0.842826
6.265,261.106,-0.842895
6.26667,261.122,-0.842967
6.26833,261.139,-0.843034
6.27,261.155,-0.843094
6.27167,261.172,-0.843156
6.27333,261.189,-0.843212
6.275,261.205,-0.843266
6.27667,261.222,-0.843319
6.27833,261.238,-0.843372
6.28,261.255,-0.843429
6.28167,261.271,-0.84348
6.28333,261.288,-0.843534
6.285,261.305,-0.843587
6.28667,261.322,-0.843642
6.28833,261.338,-0.8437
6.29,261.355,-0.843758
6.29167,261.371,-0.843818
6.29333,261.388,-0.843876
6.295,261.404,-0.843942
6.29667,261.421,-0.844006
6.29833,261.438,-0.84408
6.3,261.454,-0.844154
6.30167,261.471,-0.844225
6.30333,261.487,-0.844299
6.305,261.504,-0.844372
6.30667,261.521,-0.844445
6.30833,261.537,-0.844516
6.31,261.553,-0.84458
6.31167,261.57,-0.844636
6.31333,261.587,-0.844694
6.315,261.603,-0.84475
6.31667,261.62,-0.844805
6.31833,261.637,-0.844857
6.32,261.654,-0.844903
6.32167,261.67,-0.844961
6.32333,261.687,-0.845014
6.325,261.704,-0.84507
6.32667,261.72,-0.845133
6.32833,261.737,-0.845205
6.33,261.753,-0.845273
6.33167,261.77,-0.845346
6.33333,261.787,-0.845414
6.335,261.803,-0.845482
6.33667,261.82,-0.845545
6.33833,261.836,-0.845603
6.34,261.853,-0.845663
6.34167,261.869,-0.845718
6.34333,261.886,-0.845777
6.345,261.902,-0.845829
6.34667,261.919,-0.845888
6.34833,261.936,-0.845946
6.35,261.953,-0.846012
6.35167,261.969,-0.846078
6.35333,261.986,-0.846139
6.355,262.003,-0.846194
6.35667,262.019,-0.846243
6.35833,262.036,-0.846301
6.36,262.052,-0.846353
6.36167,262.069,-0.846406
6.36333,262.086,-0.846461
6.365,262.102,-0.84652
6.36667,262.119,-0.846577
6.36833,262.135,-0.846645
6.37,262.152,-0.84672
6.37167,262.169,-0.846794
6.37333,262.185,-0.846865
6.375,262.202,-0.84694
6.37667,262.219,-0.847009
6.37833,262.235,-0.847075
6.38,262.252,-0.847141
6.38167,262.269,-0.847202
6.38333,262.285,-0.847267
6.385,262.302,-0.847346
6.38667,262.319,-0.847429
6.38833,262.335,-0.847518
6.39,262.352,-0.847637
6.39167,262.368,-0.847719
6.39333,262.385,-0.8478
6.395,262.401,-0.84787
6.39667,262.418,-0.847925
6.39833,262.435,-0.847974
6.4,262.452,-0.848021
6.40167,262.468,-0.848062
6.40333,262.485,-0.848106
6.405,262.501,-0.848147
6.40667,262.518,-0.848184
6.40833,262.534,-0.848232
6.41,262.551,-0.848275
6.41167,262.567,-0.84832
6.41333,262.584,-0.848366
6.415,262.601,-0.848413
6.41667,262.618,-0.848457
6.41833,262.634,-0.848503
6.42,262.65,-0.848544
6.42167,262.667,-0.848583
6.42333,262.684,-0.848618
6.425,262.701,-0.848654
6.42667,262.717,-0.848687
6.42833,262.734,-0.848718
6.43,262.751,-0.848753
6.43167,262.767,-0.848804
6.43333,262.784,-0.848865
6.435,262.801,-0.848933
6.43667,262.817,-0.849007
6.43833,262.834,-0.849149
6.44,262.851,-0.8493
6.44167,262.867,-0.849467
6.44333,262.884,-0.849657
6.445,262.9,-0.849787
6.44667,262.917,-0.849862
6.44833,262.933,-0.849929
6.45,262.95,-0.849986
6.45167,262.966,-0.85004
6.45333,262.983,-0.850084
6.455,263,-0.850118
6.45667,263.016,-0.850146
6.45833,263.033,-0.850165
6.46,263.05,-0.850185
6.46167,263.066,-0.850214
6.46333,263.083,-0.850247
6.465,263.1,-0.850287
6.46667,263.117,-0.850337
6.46833,263.133,-0.85039
6.47,263.15,-0.850443
6.47167,263.166,-0.850505
6.47333,263.183,-0.850572
6.475,263.2,-0.850642
6.47667,263.216,-0.850711
6.47833,263.233,-0.850772
6.48,263.249,-0.850823
6.48167,263.266,-0.850874
6.48333,263.283,-0.850919
6.485,263.299,-0.850973
6.48667,263.316,-0.851018
6.48833,263.333,-0.851056
6.49,263.349,-0.851092
6.49167,263.366,-0.851125
6.49333,263.383,-0.851153
6.495,263.399,-0.851179
6.49667,263.416,-0.851195
6.49833,263.433,-0.851216
6.5,263.449,-0.851239
6.50167,263.466,-0.85126
6.50333,263.482,-0.851292
6.505,263.5,-0.851334
6.50667,263.516,-0.851382
6.50833,263.532,-0.85144
6.51,263.549,-0.851497
6.51167,263.566,-0.851555
6.51333,263.582,-0.851607
6.515,263.599,-0.851653
6.51667,263.616,-0.851698
6.51833,263.632,-0.851739
6.52,263.649,-0.851776
6.52167,263.665,-0.851807
6.52333,263.682,-0.85184
6.525,263.699,-0.851876
6.52667,263.716,-0.85192
6.52833,263.732,-0.851957
6.53,263.749,-0.852003
6.53167,263.765,-0.852042
6.53333,263.782,-0.852086
6.535,263.799,-0.852134
6.53667,263.815,-0.852186
6.53833,263.832,-0.852235
6.54,263.849,-0.852288
6.54167,263.865,-0.85234
6.54333,263.882,-0.852387
6.545,263.898,-0.852435
6.54667,263.915,-0.852487
6.54833,263.932,-0.852539
6.55,263.949,-0.85258
6.55167,263.965,-0.852614
6.55333,263.981,-0.852632
6.555,263.998,-0.852644
6.55667,264.015,-0.852654
6.55833,264.031,-0.852655
6.56,264.047,-0.852656
6.56167,264.064,-0.852661
6.56333,264.081,-0.852682
6.565,264.097,-0.852719
6.56667,264.114,-0.852765
6.56833,264.131,-0.852812
6.57,264.147,-0.85287
6.57167,264.164,-0.852934
6.57333,264.181,-0.852996
6.575,264.197,-0.85307
6.57667,264.214,-0.853143
6.57833,264.23,-0.853201
6.58,264.247,-0.853247
6.58167,264.264,-0.853294
6.58333,264.281,-0.853335
6.585,264.297,-0.853366
6.58667,264.314,-0.853384
6.58833,264.331,-0.853393
6.59,264.347,-0.853408
6.59167,264.364,-0.853431
6.59333,264.381,-0.853461
6.595,264.397,-0.853497
6.59667,264.414,-0.853532
6.59833,264.43,-0.853566
6.6,264.447,-0.853605
6.60167,264.464,-0.85364
6.60333,264.48,-0.853669
6.605,264.497,-0.853692
6.60667,264.514,-0.853713
6.60833,264.531,-0.853736
6.61,264.547,-0.853761
6.61167,264.564,-0.853797
6.61333,264.581,-0.85384
6.615,264.597,-0.853872
6.61667,264.614,-0.853911
6.61833,264.63,-0.853951
6.62,264.647,-0.853988
6.62167,264.664,-0.854023
6.62333,264.68,-0.854053
6.625,264.697,-0.854078
6.62667,264.714,-0.854099
6.62833,264.73,-0.854118
6.63,264.747,-0.854142
6.63167,264.764,-0.854177
6.63333,264.781,-0.854216
6.635,264.797,-0.854256
6.63667,264.814,-0.854293
6.63833,264.831,-0.854332
6.64,264.847,-0.854383
6.64167,264.864,-0.854431
6.64333,264.88,-0.854483
6.645,264.897,-0.854536
6.64667,264.914,-0.854588
6.64833,264.931,-0.854638
6.65,264.947,-0.854683
6.65167,264.964,-0.854732
6.65333,264.98,-0.854775
6.655,264.997,-0.85482
6.65667,265.014,-0.854858
6.65833,265.03,-0.85489
6.66,265.047,-0.85493
6.66167,265.064,-0.854967
6.66333,265.08,-0.855006
6.665,265.097,-0.855045
6.66667,265.114,-0.855081
6.66833,265.13,-0.855124
6.67,265.147,-0.855167
6.67167,265.163,-0.855211
6.67333,265.18,-0.855259
6.675,265.197,-0.855297
6.67667,265.213,-0.855334
6.67833,265.23,-0.855372
6.68,265.247,-0.85541
6.68167,265.263,-0.855445
6.68333,265.28,-0.855471
6.685,265.297,-0.855492
6.68667,265.314,-0.855513
6.68833,265.33,-0.855538
6.69,265.347,-0.855566
6.69167,265.363,-0.855595
6.69333,265.381,-0.855623
6.695,265.397,-0.855658
6.69667,265.414,-0.855695
6.69833,265.43,-0.855742
6.7,265.447,-0.855795
6.70167,265.463,-0.855848
6.70333,265.48,-0.855905
6.705,265.497,-0.855955
6.70667,265.513,-0.856
6.70833,265.53,-0.856043
6.71,265.547,-0.856071
6.71167,265.563,-0.856096
6.71333,265.58,-0.856126
6.715,265.596,-0.85616
6.71667,265.613,-0.856199
6.71833,265.63,-0.85625
6.72,265.646,-0.856308
6.72167,265.663,-0.856363
6.72333,265.68,-0.856414
6.725,265.696,-0.856461
6.72667,265.713,-0.856504
6.72833,265.729,-0.856538
6.73,265.746,-0.856564
6.73167,265.763,-0.856586
6.73333,265.78,-0.85661
6.735,265.796,-0.856628
6.73667,265.813,-0.856647
6.73833,265.829,-0.856661
6.74,265.846,-0.856672
6.74167,265.863,-0.856674
6.74333,265.879,-0.856671
6.745,265.896,-0.856664
6.74667,265.913,-0.856658
6.74833,265.929,-0.856653
6.75,265.946,-0.856657
6.75167,265.963,-0.856672
6.75333,265.979,-0.8567
6.755,265.996,-0.856736
6.75667,266.013,-0.856785
6.75833,266.03,-0.856855
6.76,266.046,-0.856928
6.76167,266.062,-0.856986
6.76333,266.079,-0.85704
6.765,266.096,-0.857087
6.76667,266.112,-0.857128
6.76833,266.129,-0.857163
6.77,266.146,-0.857193
6.77167,266.162,-0.857218
6.77333,266.179,-0.857235
6.775,266.196,-0.857252
6.77667,266.212,-0.857278
6.77833,266.229,-0.857299
6.78,266.245,-0.857318
6.78167,266.262,-0.857339
6.78333,266.279,-0.857355
6.785,266.295,-0.857372
6.78667,266.312,-0.857392
6.78833,266.329,-0.857414
6.79,266.345,-0.85744
6.79167,266.362,-0.857461
6.79333,266.379,-0.857482
6.795,266.395,-0.857503
6.79667,266.412,-0.857523
6.79833,266.429,-0.857544
6.8,266.445,-0.857568
6.80167,266.462,-0.857594
6.80333,266.479,-0.857626
6.805,266.495,-0.857669
6.80667,266.512,-0.857711
6.80833,266.529,-0.857754
6.81,266.545,-0.857799
6.81167,266.562,-0.857835
6.81333,266.578,-0.85787
6.815,266.595,-0.857897
6.81667,266.611,-0.857921
6.81833,266.628,-0.857939
6.82,266.645,-0.857964
6.82167,266.661,-0.857989
6.82333,266.678,-0.858014
6.825,266.695,-0.858036
6.82667,266.712,-0.85806
6.82833,266.728,-0.858089
6.83,266.745,-0.858118
6.83167,266.761,-0.858147
6.83333,266.778,-0.858177
6.835,266.795,-0.858198
6.83667,266.812,-0.858215
6.83833,266.828,-0.85824
6.84,266.845,-0.858268
6.84167,266.861,-0.858295
6.84333,266.878,-0.858323
6.845,266.895,-0.858351
6.84667,266.911,-0.858381
6.84833,266.928,-0.858416
6.85,266.945,-0.85846
6.85167,266.961,-0.858509
6.85333,266.978,-0.85856
6.855,266.995,-0.85861
6.85667,267.011,-0.858659
6.85833,267.028,-0.858699
6.86,267.044,-0.858734
6.86167,267.061,-0.858759
6.86333,267.078,-0.858773
6.865,267.095,-0.858779
6.86667,267.111,-0.858793
6.86833,267.128,-0.858809
6.87,267.145,-0.858821
6.87167,267.161,-0.858844
6.87333,267.178,-0.858875
6.875,267.195,-0.858922
6.87667,267.211,-0.858961
6.87833,267.228,-0.858999
6.88,267.244,-0.859028
6.88167,267.261,-0.859059
6.88333,267.278,-0.859091
6.885,267.295,-0.859131
6.88667,267.311,-0.859174
6.88833,267.328,-0.859216
6.89,267.344,-0.859253
6.89167,267.361,-0.859292
6.89333,267.378,-0.859331
6.895,267.395,-0.85937
6.89667,267.411,-0.859396
6.89833,267.428,-0.859418
6.9,267.445,-0.859427
6.90167,267.461,-0.859434
6.90333,267.478,-0.85944
6.905,267.495,-0.859458
6.90667,267.511,-0.859473
6.90833,267.528,-0.859495
6.91,267.544,-0.859522
6.91167,267.561,-0.85956
6.91333,267.578,-0.85961
6.915,267.594,-0.859668
6.91667,267.611,-0.859743
6.91833,267.628,-0.859799
6.92,267.645,-0.859845
6.92167,267.661,-0.859876
6.92333,267.678,-0.859908
6.925,267.695,-0.859935
6.92667,267.711,-0.85995
6.92833,267.728,-0.859957
6.93,267.744,-0.859973
6.93167,267.761,-0.859988
6.93333,267.778,-0.860002
6.935,267.794,-0.860016
6.93667,267.811,-0.860029
6.93833,267.828,-0.860041
6.94,267.844,-0.86006
6.94167,267.861,-0.860074
6.94333,267.878,-0.860095
6.945,267.895,-0.860123
6.94667,267.911,-0.860157
6.94833,267.928,-0.8602
6.95,267.944,-0.860253
6.95167,267.961,-0.86031
6.95333,267.978,-0.860363
6.955,267.994,-0.860405
6.95667,268.011,-0.860445
6.95833,268.028,-0.86047
6.96,268.044,-0.860485
6.96167,268.061,-0.860491
6.96333,268.078,-0.860492
6.965,268.094,-0.860492
6.96667,268.111,-0.860502
6.96833,268.128,-0.860514
6.97,268.144,-0.86052
6.97167,268.161,-0.860528
6.97333,268.177,-0.860539
6.975,268.193,-0.860542
6.97667,268.21,-0.860548
6.97833,268.227,-0.860561
6.98,268.243,-0.86058
6.98167,268.26,-0.860598
6.98333,268.277,-0.860629
6.985,268.294,-0.860671
6.98667,268.31,-0.860722
6.98833,268.327,-0.860778
6.99,268.344,-0.860839
6.99167,268.36,-0.860885
6.99333,268.377,-0.860917
6.995,268.394,-0.860951
6.99667,268.41,-0.860985
6.99833,268.427,-0.861015
7,268.444,-0.861034
7.00167,268.46,-0.861045
7.00333,268.477,-0.861051
7.005,268.493,-0.861068
7.00667,268.51,-0.861084
7.00833,268.527,-0.861098
7.01,268.543,-0.861112
7.01167,268.56,-0.861125
7.01333,268.577,-0.861138
7.015,268.593,-0.861153
7.01667,268.61,-0.861167
7.01833,268.627,-0.861176
7.02,268.643,-0.861177
7.02167,268.66,-0.861185
7.02333,268.677,-0.8612
7.025,268.693,-0.861224
7.02667,268.71,-0.861254
7.02833,268.727,-0.861287
7.03,268.743,-0.861329
7.03167,268.76,-0.861378
7.03333,268.776,-0.861427
7.035,268.793,-0.861474
7.03667,268.81,-0.861513
7.03833,268.826,-0.861552
7.04,268.843,-0.861588
7.04167,268.859,-0.861615
7.04333,268.876,-0.861639
7.045,268.893,-0.861663
7.04667,268.909,-0.861687
7.04833,268.926,-0.861707
7.05,268.943,-0.861737
7.05167,268.96,-0.861771
7.05333,268.976,-0.861805
7.055,268.993,-0.861824
7.05667,269.01,-0.861847
7.05833,269.026,-0.861867
7.06,269.043,-0.861886
7.06167,269.059,-0.861901
7.06333,269.076,-0.861914
7.065,269.092,-0.861927
7.06667,269.109,-0.861945
7.06833,269.126,-0.861964
7.07,269.142,-0.861981
7.07167,269.159,-0.862002
7.07333,269.176,-0.862022
7.075,269.192,-0.862046
7.07667,269.209,-0.862077
7.07833,269.226,-0.862113
7.08,269.243,-0.862152
7.08167,269.26,-0.862194
7.08333,269.276,-0.862242
7.085,269.293,-0.862292
7.08667,269.31,-0.862336
7.08833,269.326,-0.86238
7.09,269.343,-0.862419
7.09167,269.36,-0.862444
7.09333,269.376,-0.862461
7.095,269.392,-0.862476
7.09667,269.409,-0.862492
7.09833,269.426,-0.862498
7.1,269.443,-0.862493
7.10167,269.459,-0.862493
7.10333,269.476,-0.86249
7.105,269.492,-0.862501
7.10667,269.509,-0.862515
7.10833,269.526,-0.862533
7.11,269.542,-0.86256
7.11167,269.559,-0.862593
7.11333,269.576,-0.862634
7.115,269.592,-0.862677
7.11667,269.609,-0.862727
7.11833,269.625,-0.862778
7.12,269.642,-0.862826
7.12167,269.659,-0.862859
7.12333,269.675,-0.86288
7.125,269.692,-0.862895
7.12667,269.708,-0.862908
7.12833,269.725,-0.862917
7.13,269.742,-0.86292
7.13167,269.758,-0.862933
7.13333,269.775,-0.862948
7.135,269.792,-0.86297
7.13667,269.808,-0.863001
7.13833,269.825,-0.863037
7.14,269.842,-0.863076
7.14167,269.858,-0.86312
7.14333,269.875,-0.863163
7.145,269.892,-0.863206
7.14667,269.908,-0.863243
7.14833,269.925,-0.863273
7.15,269.942,-0.863298
7.15167,269.958,-0.863324
7.15333,269.975,-0.863352
7.155,269.991,-0.863377
7.15667,270.008,-0.863399
7.15833,270.025,-0.863417
7.16,270.041,-0.863435
7.16167,270.058,-0.863453
7.16333,270.074,-0.863459
7.165,270.091,-0.863456
7.16667,270.108,-0.863457
7.16833,270.124,-0.863463
7.17,270.141,-0.863468
7.17167,270.158,-0.863472
7.17333,270.174,-0.863487
7.175,270.191,-0.86351
7.17667,270.208,-0.863541
7.17833,270.224,-0.863573
7.18,270.241,-0.863609
7.18167,270.258,-0.86364
7.18333,270.274,-0.863669
7.185,270.291,-0.863691
7.18667,270.308,-0.863706
7.18833,270.324,-0.863721
7.19,270.341,-0.86373
7.19167,270.357,-0.863745
7.19333,270.374,-0.863752
7.195,270.391,-0.863763
7.19667,270.407,-0.863785
7.19833,270.424,-0.863811
7.2,270.441,-0.863834
7.20167,270.458,-0.863853
7.20333,270.474,-0.863862
7.205,270.491,-0.863871
7.20667,270.507,-0.863882
7.20833,270.524,-0.863883
7.21,270.541,-0.86389
7.21167,270.557,-0.863895
7.21333,270.574,-0.863905
7.215,270.591,-0.863927
7.21667,270.607,-0.863959
7.21833,270.624,-0.863995
7.22,270.64,-0.864036
7.22167,270.656,-0.864082
7.22333,270.673,-0.864134
7.225,270.69,-0.864185
7.22667,270.707,-0.864222
7.22833,270.723,-0.864258
7.23,270.74,-0.864293
7.23167,270.756,-0.864325
7.23333,270.773,-0.864356
7.235,270.79,-0.864377
7.23667,270.806,-0.86439
7.23833,270.823,-0.86441
7.24,270.84,-0.864427
7.24167,270.856,-0.864441
7.24333,270.873,-0.864458
7.245,270.89,-0.864479
7.24667,270.906,-0.864497
7.24833,270.923,-0.864522
7.25,270.94,-0.864543
7.25167,270.956,-0.864555
7.25333,270.973,-0.864568
7.255,270.989,-0.864586
7.25667,271.006,-0.864612
7.25833,271.023,-0.864631
7.26,271.039,-0.864651
7.26167,271.056,-0.864678
7.26333,271.073,-0.864713
7.265,271.089,-0.864746
7.26667,271.106,-0.864784
7.26833,271.123,-0.864824
7.27,271.139,-0.864865
7.27167,271.156,-0.864905
7.27333,271.172,-0.864946
7.275,271.189,-0.864982
7.27667,271.205,-0.865006
7.27833,271.222,-0.865018
7.28,271.239,-0.86503
7.28167,271.255,-0.865033
7.28333,271.272,-0.865034
7.285,271.288,-0.865032
7.28667,271.305,-0.86503
7.28833,271.322,-0.865033
7.29,271.339,-0.86504
7.29167,271.355,-0.865051
7.29333,271.372,-0.865061
7.295,271.389,-0.865082
7.29667,271.405,-0.865115
7.29833,271.422,-0.865158
7.3,271.439,-0.865204
7.30167,271.455,-0.865283
7.30333,271.472,-0.865355
7.305,271.488,-0.865431
7.30667,271.505,-0.865504
7.30833,271.521,-0.865572
7.31,271.538,-0.865617
7.31167,271.555,-0.865658
7.31333,271.571,-0.865692
7.315,271.588,-0.865716
7.31667,271.604,-0.865737
7.31833,271.621,-0.865754
7.32,271.638,-0.865771
7.32167,271.655,-0.86578
7.32333,271.672,-0.865791
7.325,271.688,-0.8658
7.32667,271.705,-0.865814
7.32833,271.721,-0.865839
7.33,271.738,-0.865868
7.33167,271.755,-0.865901
7.33333,271.771,-0.865929
7.335,271.788,-0.865955
7.33667,271.804,-0.865968
7.33833,271.821,-0.865974
7.34,271.838,-0.865984
7.34167,271.855,-0.865981
7.34333,271.871,-0.865979
7.345,271.888,-0.865976
7.34667,271.905,-0.865976
7.34833,271.921,-0.865984
7.35,271.938,-0.866005
7.35167,271.955,-0.866026
7.35333,271.971,-0.866057
7.355,271.988,-0.866087
7.35667,272.004,-0.866121
7.35833,272.021,-0.866164
7.36,272.038,-0.866199
7.36167,272.054,-0.866229
7.36333,272.071,-0.866259
7.365,272.087,-0.86629
7.36667,272.104,-0.866319
7.36833,272.121,-0.866338
7.37,272.138,-0.866363
7.37167,272.154,-0.866392
7.37333,272.171,-0.866426
7.375,272.188,-0.866467
7.37667,272.205,-0.866511
7.37833,272.221,-0.866557
7.38,272.238,-0.8666
7.38167,272.254,-0.866641
7.38333,272.271,-0.866687
7.385,272.287,-0.866725
7.38667,272.304,-0.86676
7.38833,272.32,-0.866799
7.39,272.337,-0.866832
7.39167,272.354,-0.866859
7.39333,272.37,-0.866888
7.395,272.387,-0.866913
7.39667,272.404,-0.866931
7.39833,272.42,-0.866949
7.4,272.437,-0.866965
7.40167,272.454,-0.866988
7.40333,272.471,-0.867018
7.405,272.487,-0.867048
7.40667,272.504,-0.867078
7.40833,272.521,-0.86711
7.41,272.537,-0.867147
7.41167,272.554,-0.867185
7.41333,272.571,-0.867221
7.415,272.587,-0.867256
7.41667,272.603,-0.867284
7.41833,272.62,-0.867314
7.42,272.637,-0.86734
7.42167,272.653,-0.867361
7.42333,272.67,-0.867389
7.425,272.687,-0.867416
7.42667,272.704,-0.867443
7.42833,272.72,-0.867469
7.43,272.737,-0.8675
7.43167,272.754,-0.867532
7.43333,272.77,-0.867566
7.435,272.787,-0.867601
7.43667,272.804,-0.867642
7.43833,272.82,-0.867683
7.44,272.837,-0.867722
7.44167,272.853,-0.867762
7.44333,272.87,-0.867789
7.445,272.887,-0.86782
7.44667,272.904,-0.867856
7.44833,272.92,-0.867892
7.45,272.936,-0.86793
7.45167,272.953,-0.867963
7.45333,272.969,-0.867995
7.455,272.986,-0.86802
7.45667,273.003,-0.868045
7.45833,273.02,-0.868071
7.46,273.037,-0.868103
7.46167,273.053,-0.868127
7.46333,273.07,-0.868155
7.465,273.087,-0.868197
7.46667,273.104,-0.86824
7.46833,273.12,-0.86829
7.47,273.137,-0.868338
7.47167,273.154,-0.868389
7.47333,273.17,-0.868435
7.475,273.187,-0.868475
7.47667,273.204,-0.868509
7.47833,273.221,-0.868542
7.48,273.237,-0.868566
7.48167,273.254,-0.868585
7.48333,273.27,-0.868611
7.485,273.287,-0.86863
7.48667,273.303,-0.868646
7.48833,273.32,-0.868652
7.49,273.337,-0.868667
7.49167,273.354,-0.868692
7.49333,273.37,-0.868717
7.495,273.387,-0.868745
7.49667,273.404,-0.868774
7.49833,273.42,-0.868804
7.5,273.437,-0.868831
7.50167,273.453,-0.86886
7.50333,273.47,-0.868888
7.505,273.487,-0.86891
7.50667,273.503,-0.868929
7.50833,273.52,-0.868946
7.51,273.536,-0.868974
7.51167,273.553,-0.869001
7.51333,273.57,-0.869039
7.515,273.587,-0.869084
7.51667,273.604,-0.869139
7.51833,273.62,-0.869193
7.52,273.637,-0.869245
7.52167,273.654,-0.869294
7.52333,273.67,-0.869332
7.525,273.687,-0.869365
7.52667,273.704,-0.869395
7.52833,273.72,-0.869424
7.53,273.737,-0.869445
7.53167,273.753,-0.86946
7.53333,273.77,-0.869478
7.535,273.787,-0.869493
7.53667,273.803,-0.869519
7.53833,273.82,-0.86955
7.54,273.837,-0.86958
7.54167,273.853,-0.869625
7.54333,273.87,-0.869674
7.545,273.887,-0.869732
7.54667,273.903,-0.869792
7.54833,273.92,-0.869846
7.55,273.937,-0.86989
7.55167,273.953,-0.86993
7.55333,273.97,-0.869961
7.555,273.987,-0.869982
7.55667,274.004,-0.869994
7.55833,274.02,-0.870003
7.56,274.037,-0.870011
7.56167,274.053,-0.870017
7.56333,274.07,-0.870029
7.565,274.087,-0.870041
7.56667,274.104,-0.870053
7.56833,274.12,-0.870066
7.57,274.137,-0.87009
7.57167,274.153,-0.870126
7.57333,274.17,-0.870166
7.575,274.187,-0.870209
7.57667,274.204,-0.870255
7.57833,274.22,-0.870303
7.58,274.237,-0.870347
7.58167,274.253,-0.870397
7.58333,274.27,-0.870456
7.585,274.287,-0.870506
7.58667,274.303,-0.870541
7.58833,274.32,-0.870564
7.59,274.336,-0.870589
7.59167,274.353,-0.870608
7.59333,274.369,-0.87062
7.595,274.386,-0.870623
7.59667,274.403,-0.870628
7.59833,274.42,-0.870639
7.6,274.436,-0.870658
7.60167,274.452,-0.870683
7.60333,274.469,-0.870715
7.605,274.486,-0.870754
7.60667,274.503,-0.870788
7.60833,274.519,-0.870825
7.61,274.536,-0.870876
7.61167,274.552,-0.87092
7.61333,274.569,-0.87096
7.615,274.586,-0.870994
7.61667,274.602,-0.871035
7.61833,274.619,-0.871074
7.62,274.636,-0.87111
7.62167,274.652,-0.871139
7.62333,274.669,-0.871167
7.625,274.686,-0.871188
7.62667,274.702,-0.87121
7.62833,274.719,-0.871236
7.63,274.736,-0.871259
7.63167,274.752,-0.871277
7.63333,274.769,-0.871296
7.635,274.785,-0.871324
7.63667,274.802,-0.871349
7.63833,274.818,-0.871384
7.64,274.836,-0.871408
7.64167,274.852,-0.871425
7.64333,274.869,-0.871437
7.645,274.885,-0.871451
7.64667,274.902,-0.871474
7.64833,274.919,-0.871502
7.65,274.936,-0.871527
7.65167,274.952,-0.87156
7.65333,274.969,-0.871586
7.655,274.986,-0.871615
7.65667,275.003,-0.871639
7.65833,275.019,-0.871653
7.66,275.035,-0.871665
7.66167,275.052,-0.871673
7.66333,275.069,-0.871672
7.665,275.086,-0.871673
7.66667,275.103,-0.871676
7.66833,275.119,-0.871688
7.67,275.136,-0.871704
7.67167,275.152,-0.87172
7.67333,275.169,-0.871753
7.675,275.186,-0.871792
7.67667,275.203,-0.871826
7.67833,275.219,-0.871861
7.68,275.236,-0.871903
7.68167,275.252,-0.871939
7.68333,275.269,-0.871977
7.685,275.285,-0.872014
7.68667,275.302,-0.872053
7.68833,275.319,-0.872094
7.69,275.335,-0.872134
7.69167,275.352,-0.872174
7.69333,275.369,-0.872222
7.695,275.386,-0.872268
7.69667,275.402,-0.872311
7.69833,275.419,-0.872354
7.7,275.436,-0.872398
7.70167,275.453,-0.87244
7.70333,275.469,-0.872471
7.705,275.485,-0.872496
7.70667,275.502,-0.872523
7.70833,275.519,-0.872551
7.71,275.535,-0.872578
7.71167,275.552,-0.872607
7.71333,275.569,-0.872642
7.715,275.585,-0.872679
7.71667,275.602,-0.872721
7.71833,275.619,-0.872765
7.72,275.635,-0.872809
7.72167,275.652,-0.872853
7.72333,275.668,-0.872895
7.725,275.685,-0.872936
7.72667,275.702,-0.872969
7.72833,275.719,-0.872999
7.73,275.736,-0.873022
7.73167,275.752,-0.873037
7.73333,275.769,-0.873053
7.735,275.785,-0.873073
7.73667,275.802,-0.873091
7.73833,275.818,-0.87311
7.74,275.835,-0.873125
7.74167,275.852,-0.873131
7.74333,275.869,-0.873154
7.745,275.885,-0.873182
7.74667,275.902,-0.873212
7.74833,275.919,-0.873242
7.75,275.935,-0.873273
7.75167,275.952,-0.873308
7.75333,275.968,-0.873349
7.755,275.985,-0.873393
7.75667,276.001,-0.873437
7.75833,276.018,-0.873478
7.76,276.035,-0.873501
7.76167,276.052,-0.873509
7.76333,276.068,-0.873514
7.765,276.085,-0.873506
7.76667,276.102,-0.873492
7.76833,276.118,-0.873467
7.77,276.135,-0.873453
7.77167,276.152,-0.873443
7.77333,276.168,-0.873443
7.775,276.185,-0.873459
7.77667,276.201,-0.873486
7.77833,276.218,-0.873517
7.78,276.235,-0.873547
7.78167,276.252,-0.873593
7.78333,276.268,-0.873633
7.785,276.285,-0.873669
7.78667,276.301,-0.873696
7.78833,276.318,-0.873722
7.79,276.335,-0.873748
7.79167,276.352,-0.873769
7.79333,276.368,-0.873791
7.795,276.385,-0.873806
7.79667,276.401,-0.873819
7.79833,276.417,-0.873829
7.8,276.434,-0.873857
7.80167,276.451,-0.873894
7.80333,276.468,-0.873929
7.805,276.485,-0.873966
7.80667,276.501,-0.874005
7.80833,276.518,-0.874048
7.81,276.535,-0.87409
7.81167,276.551,-0.874127
7.81333,276.568,-0.874157
7.815,276.585,-0.874174
7.81667,276.601,-0.874191
7.81833,276.618,-0.874206
7.82,276.635,-0.874229
7.82167,276.651,-0.87426
7.82333,276.668,-0.874296
7.825,276.685,-0.874336
7.82667,276.701,-0.874378
7.82833,276.718,-0.874422
7.83,276.735,-0.874458
7.83167,276.751,-0.874491
7.83333,276.767,-0.874521
7.835,276.784,-0.874543
7.83667,276.801,-0.874558
7.83833,276.817,-0.874567
7.84,276.834,-0.87457
7.84167,276.851,-0.874577
7.84333,276.868,-0.874591
7.845,276.884,-0.874618
7.84667,276.901,-0.874646
7.84833,276.917,-0.874671
7.85,276.934,-0.874703
7.85167,276.951,-0.874744
7.85333,276.968,-0.874784
7.855,276.984,-0.874824
7.85667,277.001,-0.874867
7.85833,277.018,-0.874912
7.86,277.034,-0.874953
7.86167,277.051,-0.87499
7.86333,277.068,-0.875028
7.865,277.084,-0.87506
7.86667,277.101,-0.875089
7.86833,277.117,-0.875116
7.87,277.134,-0.87514
7.87167,277.151,-0.875161
7.87333,277.167,-0.875183
7.875,277.184,-0.87521
7.87667,277.201,-0.875241
7.87833,277.217,-0.875276
7.88,277.234,-0.875314
7.88167,277.25,-0.875355
7.88333,277.267,-0.875393
7.885,277.284,-0.875422
7.88667,277.3,-0.875456
7.88833,277.317,-0.875485
7.89,277.334,-0.875516
7.89167,277.351,-0.875551
7.89333,277.367,-0.875587
7.895,277.384,-0.87562
7.89667,277.4,-0.875653
7.89833,277.417,-0.875685
7.9,277.434,-0.875714
7.90167,277.45,-0.875735
7.90333,277.467,-0.875743
7.905,277.484,-0.875747
7.90667,277.501,-0.875757
7.90833,277.517,-0.875765
7.91,277.533,-0.875782
7.91167,277.55,-0.875792
7.91333,277.567,-0.875806
7.915,277.584,-0.875825
7.91667,277.6,-0.875849
7.91833,277.617,-0.875876
7.92,277.633,-0.875909
7.92167,277.65,-0.875941
7.92333,277.667,-0.875976
7.925,277.683,-0.876015
7.92667,277.7,-0.876054
7.92833,277.716,-0.87609
7.93,277.733,-0.876122
7.93167,277.75,-0.876151
7.93333,277.767,-0.876174
7.935,277.783,-0.876194
7.93667,277.8,-0.876213
7.93833,277.817,-0.876232
7.94,277.834,-0.876255
7.94167,277.85,-0.876279
7.94333,277.866,-0.876298
7.945,277.883,-0.876319
7.94667,277.9,-0.876345
7.94833,277.916,-0.876379
7.95,277.933,-0.87642
7.95167,277.95,-0.876463
7.95333,277.966,-0.876505
7.955,277.983,-0.876555
7.95667,278,-0.876605
7.95833,278.016,-0.876655
7.96,278.033,-0.876705
7.96167,278.05,-0.876749
7.96333,278.066,-0.876787
7.965,278.083,-0.876816
7.96667,278.1,-0.876833
7.96833,278.116,-0.876851
7.97,278.133,-0.876865
7.97167,278.15,-0.876878
7.97333,278.167,-0.876891
7.975,278.183,-0.8769
7.97667,278.2,-0.876907
7.97833,278.217,-0.876916
7.98,278.233,-0.876918
7.98167,278.25,-0.876916
7.98333,278.267,-0.876916
7.985,278.283,-0.876917
7.98667,278.3,-0.87692
7.98833,278.316,-0.876935
7.99,278.333,-0.876954
7.99167,278.349,-0.876982
7.99333,278.366,-0.877029
7.995,278.383,-0.877094
7.99667,278.399,-0.877206
7.99833,278.416,-0.877309
8,278.433,-0.877438
8.00167,278.45,-0.877549
8.00333,278.466,-0.877609
8.005,278.483,-0.877663
8.00667,278.5,-0.877698
8.00833,278.516,-0.877728
8.01,278.533,-0.877752
8.01167,278.55,-0.877769
8.01333,278.566,-0.877784
8.015,278.583,-0.877802
8.01667,278.599,-0.877817
8.01833,278.616,-0.877833
8.02,278.633,-0.877854
8.02167,278.649,-0.877881
8.02333,278.666,-0.877924
8.025,278.683,-0.877973
8.02667,278.699,-0.878018
8.02833,278.715,-0.878063
8.03,278.732,-0.878109
8.03167,278.749,-0.878157
8.03333,278.765,-0.878209
8.035,278.782,-0.878255
8.03667,278.798,-0.878297
8.03833,278.815,-0.878338
8.04,278.832,-0.878378
8.04167,278.849,-0.878411
8.04333,278.866,-0.878442
8.045,278.883,-0.878461
8.04667,278.899,-0.878474
8.04833,278.916,-0.878486
8.05,278.933,-0.878488
8.05167,278.949,-0.878485
8.05333,278.966,-0.878486
8.055,278.982,-0.878488
8.05667,278.999,-0.878501
8.05833,279.016,-0.878509
8.06,279.033,-0.878526
8.06167,279.049,-0.878557
8.06333,279.066,-0.878601
8.065,279.083,-0.878648
8.06667,279.099,-0.878696
8.06833,279.116,-0.878739
8.07,279.133,-0.878778
8.07167,279.149,-0.87882
8.07333,279.165,-0.87886
8.075,279.182,-0.878901
8.07667,279.199,-0.878927
8.07833,279.215,-0.878942
8.08,279.232,-0.878947
8.08167,279.249,-0.878948
8.08333,279.265,-0.878962
8.085,279.282,-0.878981
8.08667,279.299,-0.878995
8.08833,279.315,-0.879007
8.09,279.332,-0.879027
8.09167,279.349,-0.879056
8.09333,279.365,-0.879085
8.095,279.382,-0.879117
8.09667,279.398,-0.879146
8.09833,279.415,-0.87917
8.1,279.432,-0.87919
8.10167,279.448,-0.879215
8.10333,279.465,-0.879245
8.105,279.482,-0.879284
8.10667,279.498,-0.879327
8.10833,279.515,-0.879378
8.11,279.532,-0.879436
8.11167,279.549,-0.879493
8.11333,279.565,-0.879547
8.115,279.582,-0.879602
8.11667,279.599,-0.879651
8.11833,279.615,-0.87969
8.12,279.632,-0.879724
8.12167,279.648,-0.879751
8.12333,279.665,-0.879772
8.125,279.682,-0.87979
8.12667,279.698,-0.879809
8.12833,279.715,-0.879821
8.13,279.732,-0.879835
8.13167,279.749,-0.879839
8.13333,279.765,-0.879845
8.135,279.782,-0.87986
8.13667,279.798,-0.879875
8.13833,279.815,-0.8799
8.14,279.832,-0.879932
8.14167,279.848,-0.879962
8.14333,279.865,-0.879996
8.145,279.881,-0.880042
8.14667,279.898,-0.88009
8.14833,279.915,-0.880139
8.15,279.932,-0.88019
8.15167,279.948,-0.880239
8.15333,279.965,-0.880289
8.155,279.982,-0.880332
8.15667,279.998,-0.880371
8.15833,280.015,-0.880406
8.16,280.032,-0.88043
8.16167,280.048,-0.880448
8.16333,280.065,-0.880468
8.165,280.082,-0.880492
8.16667,280.098,-0.880516
8.16833,280.115,-0.880531
8.17,280.131,-0.880545
8.17167,280.148,-0.880557
8.17333,280.165,-0.880566
8.175,280.181,-0.880573
8.17667,280.198,-0.880583
8.17833,280.215,-0.8806
8.18,280.231,-0.880621
8.18167,280.247,-0.880646
8.18333,280.264,-0.880673
8.185,280.281,-0.880709
8.18667,280.297,-0.880752
8.18833,280.314,-0.880796
8.19,280.331,-0.880831
8.19167,280.347,-0.88087
8.19333,280.364,-0.880903
8.195,280.381,-0.88094
8.19667,280.397,-0.880967
8.19833,280.414,-0.880998
8.2,280.431,-0.881021
8.20167,280.447,-0.881044
8.20333,280.464,-0.881074
8.205,280.481,-0.881109
8.20667,280.498,-0.88115
8.20833,280.514,-0.881193
8.21,280.531,-0.881234
8.21167,280.548,-0.881276
8.21333,280.564,-0.881316
8.215,280.581,-0.881352
8.21667,280.598,-0.881388
8.21833,280.614,-0.881413
8.22,280.631,-0.881433
8.22167,280.647,-0.881444
8.22333,280.664,-0.881445
8.225,280.68,-0.881444
8.22667,280.697,-0.881441
8.22833,280.713,-0.881427
8.23,280.731,-0.881415
8.23167,280.747,-0.881408
8.23333,280.764,-0.881403
8.235,280.78,-0.881406
8.23667,280.798,-0.881415
8.23833,280.814,-0.881439
8.24,280.831,-0.881469
8.24167,280.848,-0.881506
8.24333,280.864,-0.881552
8.245,280.881,-0.881603
8.24667,280.898,-0.881649
8.24833,280.914,-0.881694
8.25,280.931,-0.881732
8.25167,280.948,-0.881761
8.25333,280.964,-0.881787
8.255,280.981,-0.881813
8.25667,280.998,-0.881832
8.25833,281.014,-0.881853
8.26,281.031,-0.881886
8.26167,281.047,-0.881921
8.26333,281.064,-0.881958
8.265,281.081,-0.881991
8.26667,281.097,-0.882028
8.26833,281.114,-0.882063
8.27,281.131,-0.882111
8.27167,281.147,-0.882156
8.27333,281.164,-0.882194
8.275,281.181,-0.882234
8.27667,281.197,-0.882265
8.27833,281.214,-0.882293
8.28,281.231,-0.882313
8.28167,281.248,-0.882338
8.28333,281.264,-0.882366
8.285,281.281,-0.882395
8.28667,281.297,-0.882416
8.28833,281.315,-0.882444
8.29,281.331,-0.882482
8.29167,281.347,-0.88253
8.29333,281.364,-0.882586
8.295,281.381,-0.882634
8.29667,281.397,-0.882673
8.29833,281.414,-0.882713
8.3,281.431,-0.882756
8.30167,281.447,-0.8828
8.30333,281.464,-0.88284
8.305,281.481,-0.882873
8.30667,281.498,-0.882903
8.30833,281.514,-0.882938
8.31,281.53,-0.882973
8.31167,281.547,-0.883009
8.31333,281.564,-0.883051
8.315,281.58,-0.883094
8.31667,281.597,-0.883136
8.31833,281.614,-0.883177
8.32,281.631,-0.883215
8.32167,281.647,-0.883247
8.32333,281.664,-0.88327
8.325,281.681,-0.883297
8.32667,281.697,-0.883312
8.32833,281.714,-0.883317
8.33,281.73,-0.883315
8.33167,281.747,-0.883322
8.33333,281.764,-0.88334
8.335,281.78,-0.883354
8.33667,281.797,-0.883371
8.33833,281.814,-0.883391
8.34,281.83,-0.883419
8.34167,281.847,-0.883448
8.34333,281.864,-0.883485
8.345,281.88,-0.883529
8.34667,281.897,-0.883569
8.34833,281.914,-0.883602
8.35,281.931,-0.883629
8.35167,281.947,-0.88366
8.35333,281.964,-0.883693
8.355,281.981,-0.88373
8.35667,281.997,-0.883763
8.35833,282.014,-0.88379
8.36,282.031,-0.883818
8.36167,282.047,-0.883849
8.36333,282.064,-0.883891
8.365,282.08,-0.883934
8.36667,282.097,-0.883969
8.36833,282.114,-0.884001
8.37,282.13,-0.884031
8.37167,282.147,-0.884062
8.37333,282.164,-0.884095
8.375,282.18,-0.884126
8.37667,282.197,-0.884155
8.37833,282.214,-0.884177
8.38,282.231,-0.884194
8.38167,282.247,-0.884207
8.38333,282.264,-0.884218
8.385,282.281,-0.884225
8.38667,282.297,-0.884233
8.38833,282.314,-0.884243
8.39,282.33,-0.884261
8.39167,282.347,-0.884287
8.39333,282.363,-0.884313
8.395,282.38,-0.884341
8.39667,282.397,-0.884379
8.39833,282.413,-0.884415
8.4,282.43,-0.884452
8.40167,282.447,-0.884487
8.40333,282.464,-0.884526
8.405,282.48,-0.884571
8.40667,282.497,-0.884624
8.40833,282.514,-0.884676
8.41,282.531,-0.884731
8.41167,282.547,-0.884787
8.41333,282.564,-0.884838
8.415,282.581,-0.884889
8.41667,282.597,-0.88494
8.41833,282.614,-0.884993
8.42,282.631,-0.885037
8.42167,282.647,-0.885065
8.42333,282.663,-0.885091
8.425,282.68,-0.885114
8.42667,282.697,-0.885131
8.42833,282.714,-0.885146
8.43,282.73,-0.885161
8.43167,282.747,-0.885174
8.43333,282.764,-0.88519
8.435,282.78,-0.885213
8.43667,282.797,-0.885244
8.43833,282.814,-0.88528
8.44,282.83,-0.88532
8.44167,282.847,-0.885362
8.44333,282.864,-0.885408
8.445,282.88,-0.885454
8.44667,282.897,-0.885496
8.44833,282.914,-0.885538
8.45,282.93,-0.885575
8.45167,282.947,-0.885611
8.45333,282.964,-0.885643
8.455,282.98,-0.885679
8.45667,282.997,-0.885707
8.45833,283.014,-0.885732
8.46,283.03,-0.88576
8.46167,283.047,-0.885783
8.46333,283.064,-0.885803
8.465,283.08,-0.885823
8.46667,283.097,-0.885837
8.46833,283.114,-0.885852
8.47,283.13,-0.885873
8.47167,283.147,-0.885892
8.47333,283.164,-0.88592
8.475,283.181,-0.885945
8.47667,283.197,-0.88597
8.47833,283.214,-0.885999
8.48,283.231,-0.886021
8.48167,283.247,-0.886043
8.48333,283.264,-0.886069
8.485,283.28,-0.886099
8.48667,283.297,-0.88613
8.48833,283.313,-0.886158
8.49,283.33,-0.886191
8.49167,283.347,-0.886228
8.49333,283.364,-0.88627
8.495,283.38,-0.886308
8.49667,283.397,-0.886351
8.49833,283.413,-0.886386
8.5,283.43,-0.886424
8.50167,283.447,-0.886472
8.50333,283.464,-0.886521
8.505,283.48,-0.886561
8.50667,283.497,-0.886606
8.50833,283.514,-0.886648
8.51,283.53,-0.886699
8.51167,283.547,-0.886745
8.51333,283.563,-0.886785
8.515,283.58,-0.886816
8.51667,283.597,-0.886828
8.51833,283.613,-0.886831
8.52,283.63,-0.886839
8.52167,283.647,-0.886847
8.52333,283.663,-0.886858
8.525,283.68,-0.886877
8.52667,283.697,-0.886906
8.52833,283.714,-0.886951
8.53,283.73,-0.886995
8.53167,283.747,-0.887045
8.53333,283.764,-0.887094
8.535,283.78,-0.887137
8.53667,283.796,-0.887178
8.53833,283.813,-0.887222
8.54,283.83,-0.88726
8.54167,283.847,-0.887304
8.54333,283.863,-0.887349
8.545,283.88,-0.887393
8.54667,283.897,-0.88743
8.54833,283.913,-0.887459
8.55,283.93,-0.887486
8.55167,283.947,-0.887516
8.55333,283.963,-0.88753
8.555,283.98,-0.887541
8.55667,283.996,-0.887557
8.55833,284.013,-0.887577
8.56,284.03,-0.887606
8.56167,284.047,-0.887634
8.56333,284.063,-0.887667
8.565,284.08,-0.887703
8.56667,284.096,-0.887734
8.56833,284.113,-0.887772
8.57,284.13,-0.887809
8.57167,284.147,-0.887839
8.57333,284.163,-0.887869
8.575,284.179,-0.887893
8.57667,284.196,-0.887928
8.57833,284.213,-0.887965
8.58,284.229,-0.888003
8.58167,284.246,-0.888051
8.58333,284.263,-0.888107
8.585,284.28,-0.88816
8.58667,284.296,-0.888209
8.58833,284.313,-0.888253
8.59,284.329,-0.888299
8.59167,284.346,-0.888338
8.59333,284.363,-0.888369
8.595,284.38,-0.888395
8.59667,284.396,-0.888404
8.59833,284.413,-0.888405
8.6,284.43,-0.888414
8.60167,284.446,-0.888425
8.60333,284.463,-0.888437
8.605,284.48,-0.888449
8.60667,284.497,-0.888464
8.60833,284.513,-0.888485
8.61,284.53,-0.888508
8.61167,284.547,-0.888535
8.61333,284.563,-0.88857
8.615,284.58,-0.888612
8.61667,284.596,-0.888659
8.61833,284.613,-0.8887
8.62,284.63,-0.888744
8.62167,284.646,-0.8888
8.62333,284.663,-0.888859
8.625,284.68,-0.888921
8.62667,284.696,-0.888982
8.62833,284.713,-0.88904
8.63,284.73,-0.889093
8.63167,284.747,-0.889151
8.63333,284.763,-0.88921
8.635,284.78,-0.889261
8.63667,284.797,-0.889297
8.63833,284.813,-0.889326
8.64,284.83,-0.889349
8.64167,284.846,-0.889376
8.64333,284.863,-0.889397
8.645,284.88,-0.889414
8.64667,284.896,-0.889436
8.64833,284.913,-0.889457
8.65,284.93,-0.889484
8.65167,284.946,-0.889516
8.65333,284.963,-0.889549
8.655,284.98,-0.889585
8.65667,284.997,-0.889622
8.65833,285.013,-0.88967
8.66,285.03,-0.889725
8.66167,285.046,-0.889779
8.66333,285.063,-0.889827
8.665,285.08,-0.889875
8.66667,285.096,-0.889927
8.66833,285.113,-0.889981
8.67,285.13,-0.890026
8.67167,285.146,-0.890067
8.67333,285.163,-0.890104
8.675,285.18,-0.89014
8.67667,285.197,-0.890184
8.67833,285.213,-0.890216
8.68,285.23,-0.890246
8.68167,285.246,-0.890275
8.68333,285.263,-0.890301
8.685,285.28,-0.890324
8.68667,285.296,-0.890353
8.68833,285.313,-0.890385
8.69,285.33,-0.890412
8.69167,285.346,-0.890445
8.69333,285.363,-0.890479
8.695,285.38,-0.890512
8.69667,285.396,-0.890543
8.69833,285.413,-0.89057
8.7,285.43,-0.890608
8.70167,285.446,-0.890646
8.70333,285.463,-0.890678
8.705,285.48,-0.890713
8.70667,285.496,-0.890753
8.70833,285.513,-0.890799
8.71,285.529,-0.89084
8.71167,285.546,-0.890877
8.71333,285.563,-0.89091
8.715,285.579,-0.890942
8.71667,285.596,-0.890973
8.71833,285.613,-0.891006
8.72,285.629,-0.891042
8.72167,285.646,-0.891084
8.72333,285.663,-0.891123
8.725,285.679,-0.89117
8.72667,285.696,-0.891213
8.72833,285.713,-0.891266
8.73,285.729,-0.891311
8.73167,285.746,-0.891355
8.73333,285.762,-0.891406
8.735,285.779,-0.891452
8.73667,285.796,-0.891494
8.73833,285.812,-0.891538
8.74,285.829,-0.891579
8.74167,285.846,-0.891622
8.74333,285.862,-0.891664
8.745,285.879,-0.891699
8.74667,285.896,-0.891736
8.74833,285.912,-0.891775
8.75,285.929,-0.891802
8.75167,285.946,-0.891833
8.75333,285.962,-0.891859
8.755,285.979,-0.891884
8.75667,285.996,-0.891907
8.75833,286.012,-0.891925
8.76,286.029,-0.891945
8.76167,286.046,-0.891976
8.76333,286.062,-0.892018
8.765,286.079,-0.892071
8.76667,286.095,-0.892122
8.76833,286.112,-0.892178
8.77,286.129,-0.892239
8.77167,286.145,-0.8923
8.77333,286.162,-0.892356
8.775,286.179,-0.892406
8.77667,286.195,-0.892451
8.77833,286.212,-0.89249
8.78,286.229,-0.892523
8.78167,286.246,-0.892552
8.78333,286.262,-0.892587
8.785,286.279,-0.89262
8.78667,286.296,-0.892648
8.78833,286.312,-0.892674
8.79,286.329,-0.892708
8.79167,286.346,-0.892748
8.79333,286.362,-0.892783
8.795,286.379,-0.892819
8.79667,286.396,-0.89285
8.79833,286.412,-0.892879
8.8,286.429,-0.892911
8.80167,286.446,-0.892948
8.80333,286.462,-0.89299
8.805,286.479,-0.893035
8.80667,286.495,-0.893085
8.80833,286.512,-0.893138
8.81,286.529,-0.893202
8.81167,286.545,-0.893265
8.81333,286.562,-0.893331
8.815,286.579,-0.893415
8.81667,286.595,-0.893484
8.81833,286.612,-0.893553
8.82,286.629,-0.893621
8.82167,286.646,-0.893691
8.82333,286.663,-0.893753
8.825,286.679,-0.89381
8.82667,286.696,-0.893862
8.82833,286.713,-0.893913
8.83,286.729,-0.893956
8.83167,286.746,-0.893991
8.83333,286.763,-0.894028
8.835,286.779,-0.894062
8.83667,286.796,-0.894099
8.83833,286.812,-0.894151
8.84,286.829,-0.894207
8.84167,286.846,-0.894265
8.84333,286.862,-0.894329
8.845,286.879,-0.894394
8.84667,286.896,-0.894461
8.84833,286.912,-0.894528
8.85,286.929,-0.894591
8.85167,286.946,-0.894651
8.85333,286.962,-0.894697
8.855,286.979,-0.894747
8.85667,286.995,-0.894793
8.85833,287.012,-0.894838
8.86,287.029,-0.894879
8.86167,287.046,-0.894919
8.86333,287.062,-0.894964
8.865,287.079,-0.895006
8.86667,287.095,-0.895046
8.86833,287.112,-0.895085
8.87,287.128,-0.895124
8.87167,287.145,-0.895173
8.87333,287.162,-0.895223
8.875,287.178,-0.895276
8.87667,287.195,-0.895331
8.87833,287.212,-0.895389
8.88,287.229,-0.895447
8.88167,287.246,-0.895503
8.88333,287.262,-0.895553
8.885,287.278,-0.895594
8.88667,287.295,-0.895622
8.88833,287.312,-0.895648
8.89,287.328,-0.895678
8.89167,287.345,-0.895714
8.89333,287.361,-0.895752
8.895,287.378,-0.895791
8.89667,287.395,-0.89584
8.89833,287.412,-0.895903
8.9,287.429,-0.895975
8.90167,287.445,-0.896055
8.90333,287.461,-0.896127
8.905,287.478,-0.896192
8.90667,287.495,-0.896253
8.90833,287.511,-0.896304
8.91,287.528,-0.896344
8.91167,287.545,-0.896376
8.91333,287.561,-0.896393
8.915,287.578,-0.896401
8.91667,287.595,-0.896402
8.91833,287.612,-0.896409
8.92,287.628,-0.896419
8.92167,287.645,-0.89643
8.92333,287.661,-0.896442
8.925,287.678,-0.896462
8.92667,287.695,-0.896489
8.92833,287.711,-0.896516
8.93,287.728,-0.896541
8.93167,287.744,-0.896565
8.93333,287.761,-0.896587
8.935,287.778,-0.896606
8.93667,287.794,-0.896627
8.93833,287.811,-0.896656
8.94,287.828,-0.896694
8.94167,287.844,-0.896728
8.94333,287.861,-0.896761
8.945,287.878,-0.896794
8.94667,287.894,-0.896835
8.94833,287.911,-0.896878
8.95,287.927,-0.896922
8.95167,287.944,-0.896967
8.95333,287.96,-0.897007
8.955,287.978,-0.897042
8.95667,287.994,-0.897078
8.95833,288.011,-0.897119
8.96,288.027,-0.897163
8.96167,288.044,-0.897214
8.96333,288.061,-0.897264
8.965,288.078,-0.897311
8.96667,288.094,-0.897355
8.96833,288.111,-0.897401
8.97,288.127,-0.897451
8.97167,288.144,-0.897502
8.97333,288.161,-0.897559
8.975,288.178,-0.89761
8.97667,288.194,-0.897664
8.97833,288.211,-0.897721
8.98,288.227,-0.897773
8.98167,288.244,-0.897831
8.98333,288.26,-0.897882
8.985,288.277,-0.897924
8.98667,288.294,-0.897958
8.98833,288.311,-0.897988
8.99,288.328,-0.898019
8.99167,288.344,-0.89806
8.99333,288.36,-0.898102
8.995,288.377,-0.898141
8.99667,288.393,-0.89819
8.99833,288.41,-0.898252
9,288.427,-0.898317
9.00167,288.444,-0.898385
9.00333,288.46,-0.898457
9.005,288.477,-0.898522
9.00667,288.493,-0.89858
9.00833,288.51,-0.898622
9.01,288.527,-0.898661
9.01167,288.543,-0.898687
9.01333,288.56,-0.898714
9.015,288.577,-0.898738
9.01667,288.593,-0.898759
9.01833,288.61,-0.898788
9.02,288.627,-0.898817
9.02167,288.643,-0.898857
9.02333,288.66,-0.898902
9.025,288.677,-0.898952
9.02667,288.693,-0.899003
9.02833,288.71,-0.899063
9.03,288.727,-0.899118
9.03167,288.743,-0.899167
9.03333,288.76,-0.899218
9.035,288.777,-0.89927
9.03667,288.793,-0.899322
9.03833,288.81,-0.89938
9.04,288.826,-0.899438
9.04167,288.843,-0.899499
9.04333,288.86,-0.899566
9.045,288.876,-0.899641
9.04667,288.893,-0.899713
9.04833,288.91,-0.899786
9.05,288.926,-0.899855
9.05167,288.943,-0.899918
9.05333,288.96,-0.899985
9.055,288.977,-0.900046
9.05667,288.994,-0.900096
9.05833,289.01,-0.900141
9.06,289.026,-0.900186
9.06167,289.043,-0.900228
9.06333,289.059,-0.900272
9.065,289.076,-0.900322
9.06667,289.093,-0.900369
9.06833,289.109,-0.90042
9.07,289.126,-0.900479
9.07167,289.143,-0.900554
9.07333,289.159,-0.900633
9.075,289.176,-0.900707
9.07667,289.193,-0.900776
9.07833,289.21,-0.900839
9.08,289.226,-0.900891
9.08167,289.243,-0.900934
9.08333,289.259,-0.900978
9.085,289.276,-0.901023
9.08667,289.292,-0.901074
9.08833,289.309,-0.901132
9.09,289.326,-0.901191
9.09167,289.343,-0.901254
9.09333,289.36,-0.901329
9.095,289.376,-0.901401
9.09667,289.393,-0.901465
9.09833,289.409,-0.901526
9.1,289.426,-0.901591
9.10167,289.442,-0.901646
9.10333,289.459,-0.9017
9.105,289.476,-0.901757
9.10667,289.493,-0.901805
9.10833,289.509,-0.901855
9.11,289.526,-0.901904
9.11167,289.542,-0.901954
9.11333,289.559,-0.901995
9.115,289.576,-0.902034
9.11667,289.592,-0.902079
9.11833,289.609,-0.902125
9.12,289.626,-0.902178
9.12167,289.642,-0.902236
9.12333,289.659,-0.902299
9.125,289.676,-0.902353
9.12667,289.692,-0.902399
9.12833,289.709,-0.902438
9.13,289.725,-0.902475
9.13167,289.742,-0.902501
9.13333,289.758,-0.902514
9.135,289.775,-0.902527
9.13667,289.792,-0.902551
9.13833,289.808,-0.902581
9.14,289.825,-0.902617
9.14167,289.842,-0.902661
9.14333,289.859,-0.902705
9.145,289.876,-0.902748
9.14667,289.892,-0.902798
9.14833,289.908,-0.902846
9.15,289.925,-0.902893
9.15167,289.942,-0.902936
9.15333,289.958,-0.902984
9.155,289.975,-0.903033
9.15667,289.992,-0.903081
9.15833,290.008,-0.90313
9.16,290.025,-0.903185
9.16167,290.041,-0.903238
9.16333,290.058,-0.903291
9.165,290.074,-0.903353
9.16667,290.092,-0.903414
9.16833,290.109,-0.903482
9.17,290.125,-0.903549
9.17167,290.142,-0.903612
9.17333,290.159,-0.903674
9.175,290.175,-0.903731
9.17667,290.192,-0.903781
9.17833,290.209,-0.903825
9.18,290.225,-0.903872
9.18167,290.242,-0.903921
9.18333,290.259,-0.903978
9.185,290.275,-0.904043
9.18667,290.292,-0.904113
9.18833,290.308,-0.904182
9.19,290.325,-0.90425
9.19167,290.342,-0.90432
9.19333,290.358,-0.904396
9.195,290.374,-0.904468
9.19667,290.391,-0.904541
9.19833,290.408,-0.904615
9.2,290.425,-0.904682
9.20167,290.441,-0.904755
9.20333,290.458,-0.904829
9.205,290.474,-0.904905
9.20667,290.491,-0.904977
9.20833,290.508,-0.905051
9.21,290.525,-0.905114
9.21167,290.541,-0.90518
9.21333,290.558,-0.905241
9.215,290.575,-0.905294
9.21667,290.591,-0.905357
9.21833,290.608,-0.905418
9.22,290.625,-0.905474
9.22167,290.641,-0.905526
9.22333,290.658,-0.905578
9.225,290.675,-0.905634
9.22667,290.691,-0.905696
9.22833,290.708,-0.90575
9.23,290.725,-0.905805
9.23167,290.741,-0.905853
9.23333,290.758,-0.905908
9.235,290.775,-0.905967
9.23667,290.791,-0.906031
9.23833,290.808,-0.906091
9.24,290.824,-0.906149
9.24167,290.841,-0.906211
9.24333,290.858,-0.90628
9.245,290.874,-0.906352
9.24667,290.891,-0.906422
9.24833,290.907,-0.90649
9.25,290.924,-0.906553
9.25167,290.941,-0.906609
9.25333,290.957,-0.906669
9.255,290.974,-0.906721
9.25667,290.991,-0.906769
9.25833,291.008,-0.906809
9.26,291.024,-0.906849
9.26167,291.041,-0.906889
9.26333,291.057,-0.906936
9.265,291.074,-0.906982
9.26667,291.09,-0.907027
9.26833,291.107,-0.907078
9.27,291.124,-0.907127
9.27167,291.14,-0.907176
9.27333,291.157,-0.90723
9.275,291.174,-0.907287
9.27667,291.19,-0.907348
9.27833,291.207,-0.9074
9.28,291.224,-0.907458
9.28167,291.241,-0.907525
9.28333,291.257,-0.9076
9.285,291.274,-0.907675
9.28667,291.29,-0.907751
9.28833,291.307,-0.907825
9.29,291.324,-0.907891
9.29167,291.341,-0.907961
9.29333,291.357,-0.908038
9.295,291.374,-0.908114
9.29667,291.39,-0.908183
9.29833,291.406,-0.90825
9.3,291.423,-0.908319
9.30167,291.44,-0.908396
9.30333,291.456,-0.908472
9.305,291.473,-0.908532
9.30667,291.49,-0.908583
9.30833,291.507,-0.908628
9.31,291.524,-0.908664
9.31167,291.54,-0.908698
9.31333,291.557,-0.908731
9.315,291.574,-0.908768
9.31667,291.59,-0.908804
9.31833,291.607,-0.908845
9.32,291.624,-0.908881
9.32167,291.641,-0.908924
9.32333,291.657,-0.908972
9.325,291.673,-0.909023
9.32667,291.69,-0.909077
9.32833,291.707,-0.909129
9.33,291.723,-0.90919
9.33167,291.739,-0.909252
9.33333,291.757,-0.909318
9.335,291.773,-0.909391
9.33667,291.79,-0.909464
9.33833,291.806,-0.90953
9.34,291.823,-0.909603
9.34167,291.84,-0.909676
9.34333,291.856,-0.909757
9.345,291.873,-0.909829
9.34667,291.889,-0.909893
9.34833,291.906,-0.909958
9.35,291.923,-0.910022
9.35167,291.94,-0.91008
9.35333,291.956,-0.910141
9.355,291.973,-0.910201
9.35667,291.989,-0.910259
9.35833,292.006,-0.910317
9.36,292.023,-0.910381
9.36167,292.039,-0.910456
9.36333,292.056,-0.910539
9.365,292.073,-0.910625
9.36667,292.089,-0.910739
9.36833,292.106,-0.910827
9.37,292.123,-0.910912
9.37167,292.139,-0.910996
9.37333,292.156,-0.911065
9.375,292.173,-0.911134
9.37667,292.189,-0.911195
9.37833,292.206,-0.911252
9.38,292.223,-0.911305
9.38167,292.239,-0.911357
9.38333,292.256,-0.91141
9.385,292.273,-0.911461
9.38667,292.289,-0.911496
9.38833,292.306,-0.911535
9.39,292.323,-0.911578
9.39167,292.34,-0.911626
9.39333,292.356,-0.911669
9.395,292.372,-0.91171
9.39667,292.389,-0.911754
9.39833,292.406,-0.911796
9.4,292.423,-0.911844
9.40167,292.439,-0.911889
9.40333,292.456,-0.91194
9.405,292.472,-0.91199
9.40667,292.489,-0.912041
9.40833,292.506,-0.912097
9.41,292.522,-0.912148
9.41167,292.539,-0.912209
9.41333,292.555,-0.912267
9.415,292.572,-0.912318
9.41667,292.589,-0.912371
9.41833,292.605,-0.912416
9.42,292.622,-0.91245
9.42167,292.639,-0.912487
9.42333,292.655,-0.912522
9.425,292.672,-0.912558
9.42667,292.689,-0.9126
9.42833,292.705,-0.912651
9.43,292.722,-0.912717
9.43167,292.739,-0.912787
9.43333,292.756,-0.912859
9.435,292.772,-0.912924
9.43667,292.789,-0.912989
9.43833,292.805,-0.913052
9.44,292.822,-0.913114
9.44167,292.839,-0.913169
9.44333,292.856,-0.91322
9.445,292.872,-0.913277
9.44667,292.889,-0.913336
9.44833,292.905,-0.913394
9.45,292.922,-0.913449
9.45167,292.938,-0.913501
9.45333,292.955,-0.913551
9.455,292.972,-0.913601
9.45667,292.988,-0.91365
9.45833,293.005,-0.913708
9.46,293.021,-0.913759
9.46167,293.038,-0.913812
9.46333,293.055,-0.913865
9.465,293.072,-0.913918
9.46667,293.088,-0.913975
9.46833,293.105,-0.914041
9.47,293.121,-0.914104
9.47167,293.138,-0.914163
9.47333,293.155,-0.914225
9.475,293.171,-0.914287
9.47667,293.188,-0.914359
9.47833,293.205,-0.914432
9.48,293.222,-0.914496
9.48167,293.238,-0.914551
9.48333,293.255,-0.914589
9.485,293.271,-0.914636
9.48667,293.288,-0.914686
9.48833,293.304,-0.914738
9.49,293.321,-0.91479
9.49167,293.337,-0.914839
9.49333,293.354,-0.914901
9.495,293.371,-0.914968
9.49667,293.388,-0.915036
9.49833,293.405,-0.915102
9.5,293.421,-0.915168
9.50167,293.438,-0.915226
9.50333,293.455,-0.915282
9.505,293.471,-0.915335
9.50667,293.488,-0.915374
9.50833,293.504,-0.915401
9.51,293.521,-0.915418
9.51167,293.537,-0.915438
9.51333,293.554,-0.915468
9.515,293.571,-0.915504
9.51667,293.587,-0.915536
9.51833,293.604,-0.915576
9.52,293.62,-0.915614
9.52167,293.637,-0.915664
9.52333,293.653,-0.915722
9.525,293.67,-0.915791
9.52667,293.687,-0.915875
9.52833,293.704,-0.916004
9.53,293.72,-0.916212
9.53167,293.737,-0.916433
9.53333,293.753,-0.916628
9.535,293.77,-0.916709
9.53667,293.787,-0.91678
9.53833,293.803,-0.916854
9.54,293.82,-0.916917
9.54167,293.837,-0.916966
9.54333,293.854,-0.917005
9.545,293.87,-0.91704
9.54667,293.887,-0.917073
9.54833,293.903,-0.917102
9.55,293.92,-0.917133
9.55167,293.937,-0.917164
9.55333,293.953,-0.917196
9.555,293.97,-0.917237
9.55667,293.986,-0.917282
9.55833,294.003,-0.917341
9.56,294.02,-0.917407
9.56167,294.036,-0.917473
9.56333,294.053,-0.917535
9.565,294.07,-0.917595
9.56667,294.086,-0.917654
9.56833,294.103,-0.917699
9.57,294.12,-0.917743
9.57167,294.137,-0.917785
9.57333,294.153,-0.917818
9.575,294.17,-0.917848
9.57667,294.186,-0.917878
9.57833,294.203,-0.917919
9.58,294.22,-0.917965
9.58167,294.236,-0.918012
9.58333,294.253,-0.918063
9.585,294.269,-0.918121
9.58667,294.286,-0.918181
9.58833,294.303,-0.918245
9.59,294.319,-0.918307
9.59167,294.336,-0.91837
9.59333,294.353,-0.918429
9.595,294.369,-0.918485
9.59667,294.386,-0.918547
9.59833,294.403,-0.918608
9.6,294.42,-0.91866
9.60167,294.436,-0.918712
9.60333,294.453,-0.91876
9.605,294.469,-0.918806
9.60667,294.486,-0.918856
9.60833,294.503,-0.9189
9.61,294.519,-0.918943
9.61167,294.536,-0.918987
9.61333,294.552,-0.919031
9.615,294.569,-0.919081
9.61667,294.586,-0.919135
9.61833,294.602,-0.919196
9.62,294.619,-0.919262
9.62167,294.636,-0.919327
9.62333,294.652,-0.919403
9.625,294.669,-0.91948
9.62667,294.686,-0.919559
9.62833,294.702,-0.91964
9.63,294.719,-0.91971
9.63167,294.735,-0.919776
9.63333,294.752,-0.919832
9.635,294.769,-0.919885
9.63667,294.785,-0.919944
9.63833,294.802,-0.919999
9.64,294.818,-0.920051
9.64167,294.835,-0.920094
9.64333,294.852,-0.920135
9.645,294.869,-0.920178
9.64667,294.885,-0.920228
9.64833,294.902,-0.920284
9.65,294.919,-0.920337
9.65167,294.936,-0.920396
9.65333,294.952,-0.920461
9.655,294.969,-0.920533
9.65667,294.986,-0.920605
9.65833,295.002,-0.920676
9.66,295.019,-0.920746
9.66167,295.036,-0.920809
9.66333,295.053,-0.920875
9.665,295.07,-0.920935
9.66667,295.086,-0.920992
9.66833,295.103,-0.921039
9.67,295.119,-0.921085
9.67167,295.136,-0.921124
9.67333,295.152,-0.921165
9.675,295.169,-0.921212
9.67667,295.186,-0.921266
9.67833,295.202,-0.921317
9.68,295.219,-0.921378
9.68167,295.236,-0.921446
9.68333,295.252,-0.921516
9.685,295.269,-0.92159
9.68667,295.286,-0.921663
9.68833,295.302,-0.92173
9.69,295.319,-0.921797
9.69167,295.335,-0.92187
9.69333,295.352,-0.92194
9.695,295.369,-0.92201
9.69667,295.385,-0.922076
9.69833,295.402,-0.922152
9.7,295.419,-0.922235
9.70167,295.435,-0.922313
9.70333,295.452,-0.922386
9.705,295.469,-0.92246
9.70667,295.485,-0.922522
9.70833,295.502,-0.922582
9.71,295.519,-0.922638
9.71167,295.536,-0.922693
9.71333,295.552,-0.922743
9.715,295.569,-0.922789
9.71667,295.586,-0.922838
9.71833,295.602,-0.922882
9.72,295.619,-0.922925
9.72167,295.636,-0.922967
9.72333,295.652,-0.923007
9.725,295.669,-0.923047
9.72667,295.686,-0.92309
9.72833,295.702,-0.923145
9.73,295.719,-0.923202
9.73167,295.735,-0.923268
9.73333,295.752,-0.923332
9.735,295.769,-0.923404
9.73667,295.785,-0.923475
9.73833,295.802,-0.923552
9.74,295.819,-0.923624
9.74167,295.835,-0.923696
9.74333,295.852,-0.923766
9.745,295.869,-0.923831
9.74667,295.885,-0.923894
9.74833,295.902,-0.923949
9.75,295.919,-0.924002
9.75167,295.935,-0.92405
9.75333,295.952,-0.924093
9.755,295.969,-0.924138
9.75667,295.985,-0.924185
9.75833,296.002,-0.924235
9.76,296.018,-0.924273
9.76167,296.035,-0.924317
9.76333,296.052,-0.924369
9.765,296.068,-0.924432
9.76667,296.085,-0.924505
9.76833,296.101,-0.92462
9.77,296.118,-0.924759
9.77167,296.135,-0.924872
9.77333,296.152,-0.924951
9.775,296.168,-0.925024
9.77667,296.185,-0.925097
9.77833,296.201,-0.925161
9.78,296.218,-0.92521
9.78167,296.235,-0.925245
9.78333,296.251,-0.92528
9.785,296.268,-0.925313
9.78667,296.285,-0.925348
9.78833,296.302,-0.925375
9.79,296.318,-0.925406
9.79167,296.335,-0.925442
9.79333,296.352,-0.925481
9.795,296.368,-0.92553
9.79667,296.385,-0.925589
9.79833,296.402,-0.925661
9.8,296.418,-0.925733
9.80167,296.435,-0.925812
9.80333,296.452,-0.925885
9.805,296.468,-0.925955
9.80667,296.484,-0.926022
9.80833,296.501,-0.92608
9.81,296.518,-0.926128
9.81167,296.534,-0.926169
9.81333,296.551,-0.926215
9.815,296.568,-0.926268
9.81667,296.584,-0.926318
9.81833,296.601,-0.926367
9.82,296.618,-0.926424
9.82167,296.635,-0.92648
9.82333,296.651,-0.92653
9.825,296.668,-0.926577
9.82667,296.685,-0.926623
9.82833,296.702,-0.926671
9.83,296.718,-0.926713
9.83167,296.735,-0.92676
9.83333,296.751,-0.926811
9.835,296.768,-0.926872
9.83667,296.784,-0.926939
9.83833,296.801,-0.927007
9.84,296.817,-0.927075
9.84167,296.834,-0.927143
9.84333,296.851,-0.927209
9.845,296.867,-0.927268
9.84667,296.884,-0.927325
9.84833,296.901,-0.927376
9.85,296.917,-0.927424
9.85167,296.934,-0.927482
9.85333,296.951,-0.927549
9.855,296.967,-0.927617
9.85667,296.984,-0.927683
9.85833,297,-0.927745
9.86,297.017,-0.927801
9.86167,297.034,-0.927853
9.86333,297.051,-0.927907
9.865,297.067,-0.92796
9.86667,297.084,-0.92801
9.86833,297.101,-0.92806
9.87,297.117,-0.92811
9.87167,297.134,-0.928161
9.87333,297.15,-0.92821
9.875,297.167,-0.928262
9.87667,297.184,-0.928316
9.87833,297.2,-0.928365
9.88,297.217,-0.92841
9.88167,297.234,-0.928459
9.88333,297.25,-0.928503
9.885,297.267,-0.928549
9.88667,297.284,-0.928592
9.88833,297.3,-0.928636
9.89,297.317,-0.928672
9.89167,297.334,-0.928703
9.89333,297.35,-0.928737
9.895,297.367,-0.928769
9.89667,297.383,-0.928805
9.89833,297.4,-0.928846
9.9,297.416,-0.928895
9.90167,297.433,-0.928948
9.90333,297.45,-0.929005
9.905,297.467,-0.92906
9.90667,297.483,-0.929115
9.90833,297.5,-0.92918
9.91,297.517,-0.929247
9.91167,297.533,-0.92931
9.91333,297.55,-0.929373
9.915,297.567,-0.929428
9.91667,297.583,-0.929494
9.91833,297.6,-0.92956
9.92,297.617,-0.929624
9.92167,297.633,-0.92968
9.92333,297.65,-0.92973
9.925,297.667,-0.92977
9.92667,297.683,-0.929806
9.92833,297.7,-0.92984
9.93,297.716,-0.929871
9.93167,297.733,-0.929898
9.93333,297.75,-0.929917
9.935,297.766,-0.929947
9.93667,297.783,-0.929988
9.93833,297.8,-0.930032
9.94,297.817,-0.93008
9.94167,297.833,-0.930121
9.94333,297.85,-0.930171
9.945,297.866,-0.930232
9.94667,297.883,-0.930294
9.94833,297.9,-0.930357
9.95,297.916,-0.930417
9.95167,297.933,-0.930472
9.95333,297.95,-0.930534
9.955,297.966,-0.930601
9.95667,297.983,-0.930669
9.95833,298,-0.930734
9.96,298.016,-0.930792
9.96167,298.033,-0.930852
9.96333,298.049,-0.930908
9.965,298.066,-0.930966
9.96667,298.083,-0.931021
9.96833,298.099,-0.931077
9.97,298.116,-0.931135
9.97167,298.133,-0.931198
9.97333,298.149,-0.931269
9.975,298.166,-0.931336
9.97667,298.183,-0.931406
9.97833,298.199,-0.931474
9.98,298.216,-0.931546
9.98167,298.232,-0.93161
9.98333,298.249,-0.931665
9.985,298.266,-0.931718
9.98667,298.283,-0.931767
9.98833,298.299,-0.931806
9.99,298.316,-0.931842
9.99167,298.332,-0.931883
9.99333,298.349,-0.931922
9.995,298.366,-0.931963
9.99667,298.382,-0.932014
9.99833,298.399,-0.932065
10,298.415,-0.932116
10.0017,298.432,-0.932166
10.0033,298.449,-0.932212
10.005,298.465,-0.932274
10.0067,298.482,-0.932334
10.0083,298.499,-0.9324
10.01,298.516,-0.932465
10.0117,298.533,-0.932524
10.0133,298.549,-0.932584
10.015,298.565,-0.932645
10.0167,298.582,-0.932695
10.0183,298.599,-0.93275
10.02,298.616,-0.932798
10.0217,298.632,-0.932843
10.0233,298.649,-0.932891
10.025,298.665,-0.932939
10.0267,298.682,-0.932991
10.0283,298.699,-0.933049
10.03,298.715,-0.933107
10.0317,298.732,-0.933175
10.0333,298.749,-0.933247
10.035,298.765,-0.933312
10.0367,298.782,-0.933374
10.0383,298.798,-0.933429
10.04,298.815,-0.933482
10.0417,298.831,-0.933537
10.0433,298.848,-0.933594
10.045,298.865,-0.933651
10.0467,298.882,-0.933703
10.0483,298.898,-0.933757
10.05,298.915,-0.933807
10.0517,298.932,-0.933859
10.0533,298.948,-0.933908
10.055,298.965,-0.933948
10.0567,298.981,-0.93398
10.0583,298.998,-0.934018
10.06,299.015,-0.93406
10.0617,299.032,-0.934116
10.0633,299.048,-0.934178
10.065,299.065,-0.934241
10.0667,299.081,-0.93431
10.0683,299.098,-0.934382
10.07,299.114,-0.934448
10.0717,299.131,-0.934515
10.0733,299.148,-0.934581
10.075,299.164,-0.934646
10.0767,299.181,-0.934695
10.0783,299.198,-0.934731
10.08,299.215,-0.934757
10.0817,299.231,-0.934779
10.0833,299.248,-0.934799
10.085,299.265,-0.934815
10.0867,299.282,-0.934841
10.0883,299.298,-0.934877
10.09,299.315,-0.934922
10.0917,299.331,-0.934972
10.0933,299.348,-0.935025
10.095,299.365,-0.935083
10.0967,299.382,-0.935139
10.0983,299.398,-0.935195
10.1,299.415,-0.935252
10.1017,299.431,-0.935313
10.1033,299.448,-0.935366
10.105,299.464,-0.935412
10.1067,299.481,-0.935451
10.1083,299.498,-0.935487
10.11,299.514,-0.935517
10.1117,299.531,-0.93555
10.1133,299.548,-0.935588
10.115,299.564,-0.935632
10.1167,299.581,-0.935683
10.1183,299.598,-0.935742
10.12,299.615,-0.935811
10.1217,299.631,-0.93588
10.1233,299.648,-0.935951
10.125,299.665,-0.936019
10.1267,299.681,-0.936084
10.1283,299.698,-0.936138
10.13,299.714,-0.936187
10.1317,299.731,-0.936232
10.1333,299.748,-0.936272
10.135,299.765,-0.936321
10.1367,299.781,-0.936374
10.1383,299.798,-0.936429
10.14,299.814,-0.936493
10.1417,299.831,-0.936562
10.1433,299.848,-0.936636
10.145,299.864,-0.936712
10.1467,299.881,-0.936784
10.1483,299.897,-0.936859
10.15,299.914,-0.936929
10.1517,299.931,-0.936998
10.1533,299.947,-0.93707
10.155,299.964,-0.937139
10.1567,299.981,-0.937206
10.1583,299.998,-0.937271
10.16,300.014,-0.937332
10.1617,300.031,-0.937379
10.1633,300.048,-0.937424
10.165,300.064,-0.937458
10.1667,300.08,-0.937488
10.1683,300.097,-0.937519
10.17,300.114,-0.937557
10.1717,300.13,-0.937587
10.1733,300.147,-0.937621
10.175,300.164,-0.937666
10.1767,300.181,-0.937719
10.1783,300.198,-0.937786
10.18,300.215,-0.937859
10.1817,300.231,-0.937927
10.1833,300.248,-0.937998
10.185,300.265,-0.938064
10.1867,300.281,-0.938125
10.1883,300.298,-0.938186
10.19,300.315,-0.938238
10.1917,300.331,-0.938284
10.1933,300.348,-0.938325
10.195,300.364,-0.938366
10.1967,300.381,-0.938406
10.1983,300.398,-0.938456
10.2,300.414,-0.938511
10.2017,300.431,-0.938569
10.2033,300.448,-0.938623
10.205,300.464,-0.938675
10.2067,300.481,-0.938725
10.2083,300.498,-0.938772
10.21,300.514,-0.938816
10.2117,300.531,-0.938853
10.2133,300.547,-0.938888
10.215,300.564,-0.938923
10.2167,300.58,-0.938962
10.2183,300.597,-0.939004
10.22,300.614,-0.939058
10.2217,300.631,-0.939118
10.2233,300.647,-0.939182
10.225,300.664,-0.939248
10.2267,300.681,-0.939299
10.2283,300.698,-0.939359
10.23,300.714,-0.939425
10.2317,300.731,-0.939492
10.2333,300.748,-0.939558
10.235,300.764,-0.939623
10.2367,300.78,-0.939687
10.2383,300.797,-0.939757
10.24,300.813,-0.939835
10.2417,300.83,-0.939913
10.2433,300.847,-0.93999
10.245,300.864,-0.940059
10.2467,300.88,-0.940115
10.2483,300.897,-0.940169
10.25,300.914,-0.940219
10.2517,300.93,-0.94026
10.2533,300.947,-0.94029
10.255,300.964,-0.940312
10.2567,300.981,-0.940336
10.2583,300.997,-0.940366
10.26,301.014,-0.940396
10.2617,301.031,-0.940429
10.2633,301.047,-0.940467
10.265,301.064,-0.94051
10.2667,301.08,-0.940564
10.2683,301.097,-0.940615
10.27,301.114,-0.940667
10.2717,301.13,-0.940717
10.2733,301.147,-0.940776
10.275,301.163,-0.940835
10.2767,301.18,-0.940904
10.2783,301.197,-0.940977
10.28,301.213,-0.941048
10.2817,301.23,-0.941117
10.2833,301.247,-0.941183
10.285,301.263,-0.941248
10.2867,301.28,-0.941308
10.2883,301.297,-0.941362
10.29,301.313,-0.941416
10.2917,301.33,-0.941474
10.2933,301.346,-0.941533
10.295,301.363,-0.941597
10.2967,301.38,-0.941655
10.2983,301.396,-0.941705
10.3,301.413,-0.941752
10.3017,301.43,-0.941796
10.3033,301.446,-0.941842
10.305,301.463,-0.941881
10.3067,301.48,-0.941917
10.3083,301.497,-0.941948
10.31,301.513,-0.941979
10.3117,301.53,-0.942011
10.3133,301.546,-0.942042
10.315,301.563,-0.942072
10.3167,301.579,-0.942106
10.3183,301.596,-0.94215
10.32,301.613,-0.942206
10.3217,301.629,-0.942272
10.3233,301.646,-0.942347
10.325,301.663,-0.942428
10.3267,301.679,-0.942558
10.3283,301.696,-0.942713
10.33,301.712,-0.942879
10.3317,301.729,-0.943
10.3333,301.746,-0.943077
10.335,301.762,-0.94314
10.3367,301.779,-0.943188
10.3383,301.796,-0.943224
10.34,301.812,-0.943254
10.3417,301.829,-0.943275
10.3433,301.845,-0.943295
10.345,301.862,-0.943314
10.3467,301.879,-0.943334
10.3483,301.896,-0.943364
10.35,301.912,-0.94341
10.3517,301.929,-0.94346
10.3533,301.946,-0.943513
10.355,301.962,-0.94357
10.3567,301.979,-0.943621
10.3583,301.995,-0.943672
10.36,302.012,-0.943717
10.3617,302.029,-0.943768
10.3633,302.046,-0.94382
10.365,302.062,-0.943874
10.3667,302.079,-0.943924
10.3683,302.096,-0.943979
10.37,302.113,-0.944035
10.3717,302.129,-0.944097
10.3733,302.146,-0.944166
10.375,302.162,-0.944234
10.3767,302.179,-0.944295
10.3783,302.196,-0.944351
10.38,302.212,-0.944409
10.3817,302.229,-0.944468
10.3833,302.246,-0.94453
10.385,302.262,-0.944582
10.3867,302.279,-0.944633
10.3883,302.295,-0.944682
10.39,302.312,-0.944729
10.3917,302.329,-0.944779
10.3933,302.345,-0.944824
10.395,302.362,-0.944865
10.3967,302.378,-0.944912
10.3983,302.395,-0.944957
10.4,302.412,-0.944999
10.4017,302.429,-0.945042
10.4033,302.445,-0.945085
10.405,302.462,-0.94513
10.4067,302.479,-0.945177
10.4083,302.495,-0.945217
10.41,302.512,-0.945267
10.4117,302.529,-0.945313
10.4133,302.545,-0.945359
10.415,302.562,-0.945397
10.4167,302.579,-0.945444
10.4183,302.595,-0.945491
10.42,302.612,-0.945538
10.4217,302.628,-0.945588
10.4233,302.645,-0.945649
10.425,302.662,-0.945711
10.4267,302.678,-0.945765
10.4283,302.695,-0.945835
10.43,302.712,-0.945918
10.4317,302.729,-0.946002
10.4333,302.745,-0.946127
10.435,302.762,-0.946228
10.4367,302.779,-0.946304
10.4383,302.796,-0.946375
10.44,302.812,-0.946447
10.4417,302.829,-0.94651
10.4433,302.845,-0.946557
10.445,302.863,-0.946585
10.4467,302.879,-0.946605
10.4483,302.895,-0.946622
10.45,302.911,-0.946639
10.4517,302.929,-0.946663
10.4533,302.945,-0.946697
10.455,302.962,-0.946745
10.4567,302.978,-0.946801
10.4583,302.995,-0.946873
10.46,303.011,-0.94695
10.4617,303.029,-0.947022
10.4633,303.045,-0.947096
10.465,303.062,-0.947164
10.4667,303.079,-0.947229
10.4683,303.095,-0.947287
10.47,303.112,-0.94734
10.4717,303.128,-0.947394
10.4733,303.145,-0.947442
10.475,303.162,-0.947485
10.4767,303.178,-0.94752
10.4783,303.195,-0.947558
10.48,303.211,-0.947596
10.4817,303.228,-0.947633
10.4833,303.245,-0.947675
10.485,303.261,-0.94772
10.4867,303.278,-0.947768
10.4883,303.295,-0.947822
10.49,303.311,-0.947879
10.4917,303.328,-0.947933
10.4933,303.344,-0.947989
10.495,303.361,-0.94804
10.4967,303.378,-0.948095
10.4983,303.395,-0.948155
10.5,303.411,-0.948215
10.5017,303.428,-0.948276
10.5033,303.444,-0.948339
10.505,303.461,-0.948406
10.5067,303.477,-0.948466
10.5083,303.494,-0.948513
10.51,303.511,-0.948561
10.5117,303.528,-0.948597
10.5133,303.544,-0.948626
10.515,303.561,-0.948645
10.5167,303.578,-0.948658
10.5183,303.594,-0.948678
10.52,303.611,-0.948697
10.5217,303.628,-0.948721
10.5233,303.644,-0.948759
10.525,303.661,-0.948809
10.5267,303.677,-0.948864
10.5283,303.694,-0.948914
10.53,303.711,-0.948974
10.5317,303.727,-0.949046
10.5333,303.744,-0.949119
10.535,303.761,-0.949187
10.5367,303.777,-0.94926
10.5383,303.794,-0.949336
10.54,303.811,-0.949408
10.5417,303.827,-0.949474
10.5433,303.844,-0.949531
10.545,303.861,-0.949584
10.5467,303.877,-0.949636
10.5483,303.894,-0.949688
10.55,303.91,-0.949744
10.5517,303.927,-0.9498
10.5533,303.944,-0.949854
10.555,303.961,-0.949909
10.5567,303.977,-0.949962
10.5583,303.994,-0.950016
10.56,304.011,-0.95007
10.5617,304.027,-0.950121
10.5633,304.044,-0.950172
10.565,304.061,-0.950224
10.5667,304.077,-0.950275
10.5683,304.094,-0.950328
10.57,304.111,-0.95038
10.5717,304.128,-0.950441
10.5733,304.144,-0.950509
10.575,304.161,-0.950573
10.5767,304.177,-0.950642
10.5783,304.194,-0.950709
10.58,304.211,-0.950771
10.5817,304.227,-0.950827
10.5833,304.244,-0.950874
10.585,304.26,-0.950919
10.5867,304.278,-0.950962
10.5883,304.294,-0.951007
10.59,304.311,-0.951055
10.5917,304.327,-0.951114
10.5933,304.344,-0.951171
10.595,304.361,-0.951235
10.5967,304.377,-0.951303
10.5983,304.394,-0.951369
10.6,304.411,-0.95143
10.6017,304.427,-0.951483
10.6033,304.444,-0.951528
10.605,304.461,-0.95157
10.6067,304.478,-0.951617
10.6083,304.494,-0.951657
10.61,304.511,-0.951694
10.6117,304.527,-0.951732
10.6133,304.544,-0.951774
10.615,304.561,-0.951823
10.6167,304.577,-0.951878
10.6183,304.594,-0.951938
10.62,304.61,-0.951994
10.6217,304.627,-0.95205
10.6233,304.644,-0.952113
10.625,304.66,-0.952172
10.6267,304.677,-0.952229
10.6283,304.693,-0.952282
10.63,304.71,-0.952334
10.6317,304.727,-0.952382
10.6333,304.743,-0.952429
10.635,304.76,-0.952482
10.6367,304.777,-0.952542
10.6383,304.794,-0.952608
10.64,304.81,-0.952672
10.6417,304.827,-0.952737
10.6433,304.844,-0.952801
10.645,304.86,-0.952856
10.6467,304.877,-0.952915
10.6483,304.894,-0.952977
10.65,304.91,-0.953031
10.6517,304.927,-0.953083
10.6533,304.943,-0.953139
10.655,304.96,-0.953188
10.6567,304.977,-0.953238
10.6583,304.994,-0.953285
10.66,305.01,-0.953329
10.6617,305.027,-0.953368
10.6633,305.044,-0.953414
10.665,305.06,-0.953459
10.6667,305.077,-0.953506
10.6683,305.094,-0.953553
10.67,305.11,-0.953604
10.6717,305.127,-0.953663
10.6733,305.144,-0.953723
10.675,305.16,-0.953784
10.6767,305.177,-0.953844
10.6783,305.193,-0.953908
10.68,305.21,-0.95398
10.6817,305.227,-0.954052
10.6833,305.244,-0.95412
10.685,305.26,-0.954178
10.6867,305.277,-0.954225
10.6883,305.293,-0.954265
10.69,305.31,-0.954302
10.6917,305.327,-0.95434
10.6933,305.343,-0.954383
10.695,305.36,-0.954428
10.6967,305.377,-0.954481
10.6983,305.393,-0.954547
10.7,305.411,-0.954618
10.7017,305.427,-0.954687
10.7033,305.444,-0.954744
10.705,305.46,-0.954798
10.7067,305.477,-0.954844
10.7083,305.494,-0.954884
10.71,305.51,-0.95492
10.7117,305.527,-0.954953
10.7133,305.543,-0.954987
10.715,305.559,-0.955026
10.7167,305.576,-0.955076
10.7183,305.593,-0.955123
10.72,305.609,-0.955177
10.7217,305.626,-0.95524
10.7233,305.643,-0.955315
10.725,305.66,-0.955392
10.7267,305.676,-0.955471
10.7283,305.693,-0.955551
10.73,305.71,-0.955622
10.7317,305.726,-0.955687
10.7333,305.743,-0.955741
10.735,305.76,-0.95579
10.7367,305.776,-0.955835
10.7383,305.793,-0.955878
10.74,305.81,-0.955916
10.7417,305.826,-0.955963
10.7433,305.843,-0.956015
10.745,305.86,-0.956071
10.7467,305.876,-0.956139
10.7483,305.893,-0.956204
10.75,305.909,-0.956276
10.7517,305.926,-0.956347
10.7533,305.942,-0.95642
10.755,305.959,-0.95649
10.7567,305.976,-0.956555
10.7583,305.993,-0.956615
10.76,306.009,-0.956674
10.7617,306.026,-0.956721
10.7633,306.043,-0.956765
10.765,306.059,-0.956811
10.7667,306.076,-0.956862
10.7683,306.093,-0.956921
10.77,306.109,-0.956981
10.7717,306.126,-0.957046
10.7733,306.142,-0.957109
10.775,306.159,-0.957168
10.7767,306.176,-0.957212
10.7783,306.192,-0.95725
10.78,306.209,-0.957284
10.7817,306.226,-0.957314
10.7833,306.242,-0.957341
10.785,306.259,-0.957363
10.7867,306.276,-0.957385
10.7883,306.293,-0.957421
10.79,306.309,-0.957469
10.7917,306.326,-0.957526
10.7933,306.342,-0.957599
10.795,306.359,-0.957734
10.7967,306.376,-0.957809
10.7983,306.392,-0.957886
10.8,306.409,-0.957955
10.8017,306.426,-0.95802
10.8033,306.442,-0.958078
10.805,306.459,-0.958131
10.8067,306.476,-0.95818
10.8083,306.492,-0.958236
10.81,306.509,-0.958281
10.8117,306.525,-0.958331
10.8133,306.542,-0.958384
10.815,306.559,-0.958445
10.8167,306.575,-0.958512
10.8183,306.592,-0.958579
10.82,306.609,-0.958641
10.8217,306.625,-0.958699
10.8233,306.642,-0.958748
10.825,306.659,-0.9588
10.8267,306.675,-0.95886
10.8283,306.692,-0.958914
10.83,306.709,-0.958972
10.8317,306.726,-0.959035
10.8333,306.742,-0.959097
10.835,306.759,-0.959166
10.8367,306.776,-0.959226
10.8383,306.792,-0.959292
10.84,306.809,-0.959352
10.8417,306.825,-0.959404
10.8433,306.842,-0.959454
10.845,306.858,-0.959504
10.8467,306.875,-0.95955
10.8483,306.892,-0.959599
10.85,306.908,-0.959652
10.8517,306.925,-0.959699
10.8533,306.942,-0.959756
10.855,306.959,-0.959815
10.8567,306.975,-0.959882
10.8583,306.992,-0.959949
10.86,307.009,-0.960017
10.8617,307.025,-0.960081
10.8633,307.042,-0.960146
10.865,307.059,-0.960206
10.8667,307.075,-0.96026
10.8683,307.092,-0.960316
10.87,307.109,-0.960359
10.8717,307.125,-0.960394
10.8733,307.142,-0.960415
10.875,307.158,-0.960447
10.8767,307.175,-0.960475
10.8783,307.192,-0.960499
10.88,307.208,-0.960523
10.8817,307.225,-0.960561
10.8833,307.242,-0.960605
10.885,307.258,-0.960649
10.8867,307.275,-0.960707
10.8883,307.291,-0.960766
10.89,307.308,-0.960832
10.8917,307.325,-0.960899
10.8933,307.341,-0.960981
10.895,307.358,-0.961112
10.8967,307.375,-0.961221
10.8983,307.392,-0.96132
10.9,307.408,-0.9614
10.9017,307.425,-0.961473
10.9033,307.441,-0.961538
10.905,307.458,-0.961596
10.9067,307.475,-0.961658
10.9083,307.491,-0.961712
10.91,307.508,-0.961769
10.9117,307.525,-0.961825
10.9133,307.541,-0.961887
10.915,307.558,-0.961948
10.9167,307.575,-0.962008
10.9183,307.591,-0.962065
10.92,307.608,-0.96212
10.9217,307.625,-0.962173
10.9233,307.641,-0.962231
10.925,307.658,-0.962283
10.9267,307.675,-0.962331
10.9283,307.691,-0.962374
10.93,307.708,-0.962421
10.9317,307.725,-0.962472
10.9333,307.741,-0.962516
10.935,307.758,-0.96257
10.9367,307.775,-0.962638
10.9383,307.792,-0.96271
10.94,307.809,-0.962785
10.9417,307.825,-0.962862
10.9433,307.842,-0.962946
10.945,307.859,-0.963026
10.9467,307.875,-0.963092
10.9483,307.892,-0.963149
10.95,307.908,-0.963204
10.9517,307.925,-0.96326
10.9533,307.942,-0.963309
10.955,307.958,-0.963349
10.9567,307.975,-0.963389
10.9583,307.992,-0.963421
10.96,308.008,-0.963444
10.9617,308.025,-0.963466
10.9633,308.042,-0.963486
10.965,308.058,-0.963523
10.9667,308.075,-0.963564
10.9683,308.091,-0.963623
10.97,308.108,-0.963687
10.9717,308.124,-0.963763
10.9733,308.141,-0.963838
10.975,308.158,-0.963914
10.9767,308.174,-0.963987
10.9783,308.191,-0.964056
10.98,308.208,-0.964121
10.9817,308.225,-0.964182
10.9833,308.241,-0.964239
10.985,308.258,-0.96429
10.9867,308.275,-0.964344
10.9883,308.292,-0.964398
10.99,308.308,-0.964456
10.9917,308.325,-0.96453
10.9933,308.342,-0.964606
10.995,308.358,-0.964674
10.9967,308.375,-0.964742
10.9983,308.391,-0.964815
11,308.408,-0.964882
11.0017,308.425,-0.964943
11.0033,308.442,-0.965001
11.005,308.459,-0.965049
11.0067,308.475,-0.965101
11.0083,308.492,-0.965146
11.01,308.509,-0.965193
11.0117,308.525,-0.965236
11.0133,308.542,-0.965282
11.015,308.558,-0.965326
11.0167,308.575,-0.965375
11.0183,308.592,-0.965424
11.02,308.608,-0.965473
11.0217,308.625,-0.965527
11.0233,308.641,-0.965574
11.025,308.658,-0.965622
11.0267,308.674,-0.965672
11.0283,308.691,-0.96572
11.03,308.708,-0.965769
11.0317,308.724,-0.965815
11.0333,308.741,-0.96586
11.035,308.758,-0.965897
11.0367,308.774,-0.965941
11.0383,308.791,-0.965984
11.04,308.807,-0.966036
11.0417,308.824,-0.966085
11.0433,308.841,-0.966129
11.045,308.857,-0.966182
11.0467,308.875,-0.966237
11.0483,308.891,-0.966288
11.05,308.908,-0.966333
11.0517,308.924,-0.966372
11.0533,308.941,-0.96641
11.055,308.958,-0.966458
11.0567,308.974,-0.966513
11.0583,308.991,-0.966571
11.06,309.007,-0.966634
11.0617,309.024,-0.966701
11.0633,309.041,-0.966793
11.065,309.058,-0.966907
11.0667,309.074,-0.967066
11.0683,309.091,-0.967228
11.07,309.107,-0.967308
11.0717,309.124,-0.967374
11.0733,309.141,-0.96744
11.075,309.157,-0.9675
11.0767,309.174,-0.967556
11.0783,309.191,-0.967613
11.08,309.207,-0.967671
11.0817,309.224,-0.967728
11.0833,309.241,-0.967783
11.085,309.257,-0.967832
11.0867,309.274,-0.967876
11.0883,309.291,-0.967919
11.09,309.307,-0.96795
11.0917,309.324,-0.967977
11.0933,309.341,-0.968006
11.095,309.357,-0.96803
11.0967,309.373,-0.968057
11.0983,309.39,-0.968091
11.1,309.407,-0.968135
11.1017,309.424,-0.968182
11.1033,309.44,-0.968231
11.105,309.457,-0.968288
11.1067,309.474,-0.968351
11.1083,309.49,-0.968421
11.11,309.507,-0.968489
11.1117,309.524,-0.968559
11.1133,309.54,-0.968621
11.115,309.557,-0.968689
11.1167,309.574,-0.968755
11.1183,309.591,-0.968816
11.12,309.607,-0.968872
11.1217,309.623,-0.968921
11.1233,309.64,-0.968969
11.125,309.657,-0.969013
11.1267,309.674,-0.969064
11.1283,309.691,-0.969123
11.13,309.707,-0.96919
11.1317,309.724,-0.969255
11.1333,309.741,-0.969316
11.135,309.757,-0.969382
11.1367,309.774,-0.969448
11.1383,309.79,-0.969507
11.14,309.807,-0.969553
11.1417,309.824,-0.969593
11.1433,309.84,-0.969633
11.145,309.857,-0.969678
11.1467,309.874,-0.969725
11.1483,309.89,-0.969782
11.15,309.907,-0.969846
11.1517,309.923,-0.969909
11.1533,309.94,-0.969977
11.155,309.957,-0.970046
11.1567,309.973,-0.970117
11.1583,309.99,-0.970184
11.16,310.007,-0.970241
11.1617,310.023,-0.970294
11.1633,310.04,-0.970351
11.165,310.057,-0.970413
11.1667,310.073,-0.970472
11.1683,310.09,-0.970526
11.17,310.107,-0.970578
11.1717,310.124,-0.970629
11.1733,310.14,-0.970679
11.175,310.157,-0.970728
11.1767,310.174,-0.970775
11.1783,310.19,-0.970826
11.18,310.207,-0.97088
11.1817,310.223,-0.970943
11.1833,310.24,-0.971011
11.185,310.256,-0.97108
11.1867,310.273,-0.971151
11.1883,310.29,-0.971221
11.19,310.306,-0.971287
11.1917,310.323,-0.971353
11.1933,310.34,-0.971413
11.195,310.356,-0.971477
11.1967,310.372,-0.971543
11.1983,310.389,-0.971609
11.2,310.406,-0.971672
11.2017,310.421,-0.971731
11.2033,310.438,-0.971791
11.205,310.455,-0.971851
11.2067,310.472,-0.971918
11.2083,310.488,-0.971987
11.21,310.506,-0.972062
11.2117,310.522,-0.972134
11.2133,310.539,-0.972206
11.215,310.556,-0.972273
11.2167,310.572,-0.972345
11.2183,310.589,-0.972418
11.22,310.606,-0.97249
11.2217,310.623,-0.972555
11.2233,310.64,-0.972619
11.225,310.656,-0.972684
11.2267,310.672,-0.972747
11.2283,310.689,-0.972806
11.23,310.706,-0.97286
11.2317,310.722,-0.972913
11.2333,310.739,-0.972964
11.235,310.756,-0.973019
11.2367,310.772,-0.973078
11.2383,310.789,-0.973141
11.24,310.806,-0.973198
11.2417,310.822,-0.973265
11.2433,310.839,-0.973328
11.245,310.856,-0.97339
11.2467,310.872,-0.97345
11.2483,310.889,-0.973513
11.25,310.906,-0.973583
11.2517,310.922,-0.973659
11.2533,310.939,-0.973731
11.255,310.956,-0.973802
11.2567,310.973,-0.973862
11.2583,310.989,-0.973913
11.26,311.006,-0.973964
11.2617,311.023,-0.974014
11.2633,311.039,-0.97406
11.265,311.056,-0.974104
11.2667,311.072,-0.974151
11.2683,311.089,-0.974201
11.27,311.106,-0.974261
11.2717,311.122,-0.974327
11.2733,311.139,-0.974393
11.275,311.155,-0.974463
11.2767,311.172,-0.974535
11.2783,311.189,-0.974608
11.28,311.206,-0.974683
11.2817,311.222,-0.974765
11.2833,311.239,-0.974847
11.285,311.256,-0.974924
11.2867,311.272,-0.974996
11.2883,311.289,-0.975062
11.29,311.305,-0.975119
11.2917,311.322,-0.975169
11.2933,311.339,-0.975211
11.295,311.355,-0.975241
11.2967,311.372,-0.975277
11.2983,311.389,-0.975316
11.3,311.406,-0.975357
11.3017,311.422,-0.975408
11.3033,311.439,-0.975471
11.305,311.456,-0.975541
11.3067,311.472,-0.975615
11.3083,311.489,-0.975695
11.31,311.505,-0.975796
11.3117,311.522,-0.975887
11.3133,311.539,-0.975977
11.315,311.556,-0.97606
11.3167,311.572,-0.976133
11.3183,311.589,-0.976199
11.32,311.605,-0.97627
11.3217,311.622,-0.976345
11.3233,311.638,-0.976426
11.325,311.655,-0.976492
11.3267,311.672,-0.97655
11.3283,311.689,-0.976608
11.33,311.705,-0.976674
11.3317,311.722,-0.976741
11.3333,311.738,-0.976806
11.335,311.755,-0.976877
11.3367,311.772,-0.976937
11.3383,311.788,-0.977004
11.34,311.805,-0.977076
11.3417,311.822,-0.977142
11.3433,311.838,-0.977204
11.345,311.855,-0.977262
11.3467,311.871,-0.977331
11.3483,311.888,-0.977409
11.35,311.905,-0.97749
11.3517,311.922,-0.977567
11.3533,311.939,-0.977642
11.355,311.955,-0.977715
11.3567,311.972,-0.977778
11.3583,311.989,-0.977835
11.36,312.005,-0.977891
11.3617,312.022,-0.977949
11.3633,312.038,-0.978008
11.365,312.055,-0.978067
11.3667,312.071,-0.978128
11.3683,312.088,-0.978192
11.37,312.105,-0.978251
11.3717,312.121,-0.978317
11.3733,312.138,-0.978385
11.375,312.155,-0.978451
11.3767,312.171,-0.978521
11.3783,312.188,-0.978591
11.38,312.205,-0.97867
11.3817,312.221,-0.978756
11.3833,312.238,-0.978838
11.385,312.254,-0.978915
11.3867,312.271,-0.978991
11.3883,312.287,-0.979061
11.39,312.304,-0.979133
11.3917,312.321,-0.979202
11.3933,312.338,-0.979276
11.395,312.355,-0.979352
11.3967,312.372,-0.979427
11.3983,312.388,-0.979505
11.4,312.405,-0.979583
11.4017,312.421,-0.979662
11.4033,312.438,-0.979741
11.405,312.454,-0.979815
11.4067,312.471,-0.97989
11.4083,312.488,-0.979959
11.41,312.504,-0.980021
11.4117,312.521,-0.980079
11.4133,312.538,-0.980137
11.415,312.555,-0.980194
11.4167,312.571,-0.980263
11.4183,312.588,-0.980338
11.42,312.604,-0.980414
11.4217,312.621,-0.980489
11.4233,312.638,-0.980574
11.425,312.654,-0.980666
11.4267,312.671,-0.980758
11.4283,312.688,-0.98085
11.43,312.704,-0.980942
11.4317,312.721,-0.981069
11.4333,312.738,-0.981162
11.435,312.754,-0.981251
11.4367,312.771,-0.981336
11.4383,312.788,-0.981419
11.44,312.804,-0.981487
11.4417,312.821,-0.981557
11.4433,312.837,-0.981633
11.445,312.854,-0.981716
11.4467,312.87,-0.981803
11.4483,312.887,-0.981888
11.45,312.904,-0.981982
11.4517,312.921,-0.982082
11.4533,312.937,-0.982188
11.455,312.954,-0.982285
11.4567,312.971,-0.982376
11.4583,312.987,-0.982452
11.46,313.004,-0.982518
11.4617,313.021,-0.982576
11.4633,313.037,-0.982638
11.465,313.054,-0.982695
11.4667,313.071,-0.982749
11.4683,313.087,-0.982812
11.47,313.104,-0.982879
11.4717,313.121,-0.982955
11.4733,313.137,-0.983035
11.475,313.154,-0.983117
11.4767,313.171,-0.983208
11.4783,313.187,-0.983292
11.48,313.204,-0.983374
11.4817,313.22,-0.983457
11.4833,313.237,-0.983529
11.485,313.254,-0.983603
11.4867,313.27,-0.983671
11.4883,313.287,-0.983737
11.49,313.304,-0.983814
11.4917,313.32,-0.983895
11.4933,313.337,-0.983981
11.495,313.354,-0.984068
11.4967,313.37,-0.984148
11.4983,313.387,-0.984236
11.5,313.404,-0.984332
11.5017,313.421,-0.98443
11.5033,313.437,-0.984528
11.505,313.454,-0.984619
11.5067,313.471,-0.984709
11.5083,313.487,-0.9848
11.51,313.503,-0.984897
11.5117,313.52,-0.984991
11.5133,313.537,-0.985078
11.515,313.554,-0.985162
11.5167,313.571,-0.985245
11.5183,313.587,-0.985334
11.52,313.604,-0.985422
11.5217,313.62,-0.985508
11.5233,313.637,-0.985586
11.525,313.654,-0.985661
11.5267,313.671,-0.985735
11.5283,313.688,-0.985796
11.53,313.704,-0.985857
11.5317,313.721,-0.985911
11.5333,313.738,-0.985965
11.535,313.754,-0.986021
11.5367,313.771,-0.986084
11.5383,313.787,-0.98616
11.54,313.804,-0.986247
11.5417,313.82,-0.986344
11.5433,313.837,-0.986443
11.545,313.854,-0.986541
11.5467,313.87,-0.986632
11.5483,313.887,-0.986716
11.55,313.904,-0.98679
11.5517,313.92,-0.986865
11.5533,313.937,-0.986937
11.555,313.954,-0.987007
11.5567,313.97,-0.987071
11.5583,313.987,-0.98714
11.56,314.004,-0.98722
11.5617,314.021,-0.987312
11.5633,314.037,-0.987401
11.565,314.054,-0.987487
11.5667,314.07,-0.987577
11.5683,314.087,-0.98767
11.57,314.104,-0.987762
11.5717,314.121,-0.987857
11.5733,314.137,-0.987956
11.575,314.154,-0.988057
11.5767,314.171,-0.988158
11.5783,314.187,-0.988258
11.58,314.204,-0.988356
11.5817,314.221,-0.988445
11.5833,314.237,-0.988526
11.585,314.254,-0.988607
11.5867,314.271,-0.988681
11.5883,314.287,-0.988747
11.59,314.304,-0.988814
11.5917,314.32,-0.988881
11.5933,314.337,-0.988946
11.595,314.354,-0.989016
11.5967,314.37,-0.989091
11.5983,314.387,-0.98918
11.6,314.403,-0.989272
11.6017,314.42,-0.989362
11.6033,314.437,-0.989456
11.605,314.454,-0.989549
11.6067,314.47,-0.989642
11.6083,314.487,-0.989736
11.61,314.504,-0.989826
11.6117,314.52,-0.989912
11.6133,314.537,-0.98999
11.615,314.554,-0.990061
11.6167,314.57,-0.99013
11.6183,314.587,-0.990204
11.62,314.604,-0.990278
11.6217,314.62,-0.990355
11.6233,314.637,-0.990434
11.625,314.653,-0.990528
11.6267,314.669,-0.99062
11.6283,314.687,-0.990708
11.63,314.703,-0.990805
11.6317,314.72,-0.990899
11.6333,314.736,-0.990986
11.635,314.753,-0.991065
11.6367,314.77,-0.991143
11.6383,314.786,-0.991223
11.64,314.803,-0.991302
11.6417,314.82,-0.991374
11.6433,314.837,-0.991449
11.645,314.853,-0.991528
11.6467,314.87,-0.991615
11.6483,314.887,-0.99171
11.65,314.903,-0.991806
11.6517,314.92,-0.991946
11.6533,314.937,-0.992141
11.655,314.953,-0.99231
11.6567,314.97,-0.992466
11.6583,314.986,-0.992615
11.66,315.003,-0.992722
11.6617,315.019,-0.992818
11.6633,315.036,-0.992905
11.665,315.053,-0.992989
11.6667,315.07,-0.993072
11.6683,315.087,-0.993153
11.67,315.103,-0.993242
11.6717,315.12,-0.993332
11.6733,315.137,-0.993421
11.675,315.153,-0.993522
11.6767,315.169,-0.993628
11.6783,315.186,-0.993774
11.68,315.203,-0.993891
11.6817,315.219,-0.993999
11.6833,315.236,-0.994116
11.685,315.252,-0.994221
11.6867,315.269,-0.99432
11.6883,315.286,-0.994408
11.69,315.302,-0.994485
11.6917,315.319,-0.994557
11.6933,315.336,-0.994622
11.695,315.353,-0.994676
11.6967,315.369,-0.994733
11.6983,315.386,-0.994788
11.7,315.403,-0.99484
11.7017,315.419,-0.994892
11.7033,315.436,-0.994953
11.705,315.453,-0.995031
11.7067,315.469,-0.995119
11.7083,315.486,-0.995206
11.71,315.503,-0.995303
11.7117,315.519,-0.995404
11.7133,315.536,-0.995509
11.715,315.552,-0.995684
11.7167,315.569,-0.995858
11.7183,315.586,-0.995994
11.72,315.602,-0.9961
11.7217,315.619,-0.996222
11.7233,315.636,-0.996365
11.725,315.652,-0.996474
11.7267,315.669,-0.996585
11.7283,315.685,-0.996694
11.73,315.702,-0.996798
11.7317,315.719,-0.996899
11.7333,315.735,-0.997003
11.735,315.752,-0.997097
11.7367,315.769,-0.997192
11.7383,315.785,-0.997286
11.74,315.802,-0.997376
11.7417,315.819,-0.997462
11.7433,315.835,-0.997539
11.745,315.852,-0.99762
11.7467,315.869,-0.997698
11.7483,315.885,-0.997778
11.75,315.902,-0.997863
11.7517,315.919,-0.997954
11.7533,315.935,-0.998046
11.755,315.952,-0.998151
11.7567,315.969,-0.998248
11.7583,315.985,-0.998347
11.76,316.002,-0.998443
11.7617,316.018,-0.998533
11.7633,316.035,-0.998623
11.765,316.052,-0.998715
11.7667,316.069,-0.998809
11.7683,316.085,-0.998906
11.77,316.102,-0.999007
11.7717,316.118,-0.999097
11.7733,316.134,-0.999193
11.775,316.152,-0.999292
11.7767,316.168,-0.999395
11.7783,316.185,-0.999506
11.78,316.201,-0.999619
11.7817,316.218,-0.999734
11.7833,316.235,-0.999843
11.785,316.251,-0.999956
11.7867,316.268,-1.00007
11.7883,316.284,-1.00021
11.79,316.301,-1.00032
11.7917,316.318,-1.00044
11.7933,316.335,-1.00056
11.795,316.351,-1.00068
11.7967,316.368,-1.00079
11.7983,316.384,-1.00089
11.8,316.401,-1.00098
11.8017,316.418,-1.00105
11.8033,316.434,-1.00113
11.805,316.451,-1.0012
11.8067,316.468,-1.00127
11.8083,316.484,-1.00135
11.81,316.501,-1.00144
11.8117,316.517,-1.00154
11.8133,316.534,-1.00165
11.815,316.551,-1.00176
11.8167,316.567,-1.00187
11.8183,316.584,-1.002
11.82,316.6,-1.00218
11.8217,316.617,-1.00233
11.8233,316.634,-1.00245
11.825,316.65,-1.00256
11.8267,316.667,-1.00267
11.8283,316.684,-1.00277
11.83,316.7,-1.00286
11.8317,316.717,-1.00295
11.8333,316.734,-1.00303
11.835,316.751,-1.00311
11.8367,316.767,-1.0032
11.8383,316.784,-1.00328
11.84,316.8,-1.00337
11.8417,316.817,-1.00346
11.8433,316.834,-1.00355
11.845,316.85,-1.00365
11.8467,316.867,-1.00375
11.8483,316.884,-1.00387
11.85,316.9,-1.00398
11.8517,316.917,-1.00409
11.8533,316.934,-1.00421
11.855,316.95,-1.00436
11.8567,316.967,-1.00447
11.8583,316.983,-1.00458
11.86,317,-1.00469
11.8617,317.017,-1.0048
11.8633,317.033,-1.00492
11.865,317.05,-1.00504
11.8667,317.067,-1.00516
11.8683,317.084,-1.00528
11.87,317.1,-1.0054
11.8717,317.117,-1.00551
11.8733,317.134,-1.00562
11.875,317.15,-1.00573
11.8767,317.167,-1.00584
11.8783,317.183,-1.00595
11.88,317.2,-1.00606
11.8817,317.217,-1.00616
11.8833,317.233,-1.00627
11.885,317.25,-1.00638
11.8867,317.267,-1.00648
11.8883,317.283,-1.0066
11.89,317.3,-1.00671
11.8917,317.317,-1.00682
11.8933,317.334,-1.00693
11.895,317.35,-1.00704
11.8967,317.367,-1.00714
11.8983,317.384,-1.00725
11.9,317.4,-1.00735
11.9017,317.417,-1.00746
11.9033,317.433,-1.00756
11.905,317.45,-1.00767
11.9067,317.466,-1.00779
11.9083,317.483,-1.00791
11.91,317.5,-1.00804
11.9117,317.516,-1.00817
11.9133,317.533,-1.00833
11.915,317.549,-1.00849
11.9167,317.566,-1.00864
11.9183,317.583,-1.00877
11.92,317.6,-1.00889
11.9217,317.616,-1.00902
11.9233,317.633,-1.00914
11.925,317.649,-1.00925
11.9267,317.666,-1.00937
11.9283,317.683,-1.0095
11.93,317.699,-1.00963
11.9317,317.716,-1.00975
11.9333,317.733,-1.00986
11.935,317.749,-1.00998
11.9367,317.766,-1.01009
11.9383,317.782,-1.01019
11.94,317.799,-1.01029
11.9417,317.816,-1.01039
11.9433,317.832,-1.01049
11.945,317.849,-1.0106
11.9467,317.865,-1.01071
11.9483,317.882,-1.01083
11.95,317.899,-1.01099
11.9517,317.915,-1.01119
11.9533,317.932,-1.0114
11.955,317.949,-1.0116
11.9567,317.965,-1.01184
11.9583,317.982,-1.01209
11.96,317.999,-1.01228
11.9617,318.016,-1.01251
11.9633,318.032,-1.01266
11.965,318.048,-1.01279
11.9667,318.065,-1.01292
11.9683,318.082,-1.01306
11.97,318.098,-1.01319
11.9717,318.115,-1.01331
11.9733,318.131,-1.01343
11.975,318.148,-1.01355
11.9767,318.165,-1.01368
11.9783,318.181,-1.0138
11.98,318.198,-1.01392
11.9817,318.215,-1.01404
11.9833,318.231,-1.01416
11.985,318.248,-1.0143
11.9867,318.265,-1.01443
11.9883,318.281,-1.01457
11.99,318.298,-1.01472
11.9917,318.314,-1.01485
11.9933,318.331,-1.01499
11.995,318.348,-1.01514
11.9967,318.365,-1.01528
11.9983,318.381,-1.01542
12,318.397,-1.01555
12.0017,318.414,-1.01568
12.0033,318.431,-1.01581
12.005,318.448,-1.01594
12.0067,318.464,-1.01607
12.0083,318.481,-1.0162
12.01,318.498,-1.01633
12.0117,318.514,-1.01647
12.0133,318.531,-1.01661
12.015,318.548,-1.01674
12.0167,318.564,-1.01687
12.0183,318.581,-1.017
12.02,318.598,-1.01714
12.0217,318.614,-1.01727
12.0233,318.631,-1.0174
12.025,318.648,-1.01753
12.0267,318.664,-1.01766
12.0283,318.681,-1.01778
12.03,318.697,-1.01791
12.0317,318.714,-1.01804
12.0333,318.731,-1.01818
12.035,318.747,-1.01831
12.0367,318.764,-1.01845
12.0383,318.781,-1.01861
12.04,318.797,-1.01884
12.0417,318.814,-1.01905
12.0433,318.831,-1.01925
12.045,318.847,-1.01939
12.0467,318.864,-1.01953
12.0483,318.88,-1.01967
12.05,318.897,-1.01981
12.0517,318.914,-1.01994
12.0533,318.93,-1.02008
12.055,318.947,-1.02022
12.0567,318.964,-1.02036
12.0583,318.98,-1.0205
12.06,318.997,-1.02064
12.0617,319.013,-1.02078
12.0633,319.03,-1.02092
12.065,319.047,-1.02107
12.0667,319.063,-1.02122
12.0683,319.08,-1.02136
12.07,319.097,-1.02151
12.0717,319.113,-1.02166
12.0733,319.13,-1.02181
12.075,319.147,-1.02196
12.0767,319.163,-1.02211
12.0783,319.18,-1.02226
12.08,319.197,-1.02244
12.0817,319.214,-1.02275
12.0833,319.23,-1.02319
12.085,319.247,-1.0236
12.0867,319.263,-1.02403
12.0883,319.28,-1.02421
12.09,319.297,-1.02436
12.0917,319.313,-1.02451
12.0933,319.329,-1.02466
12.095,319.346,-1.02481
12.0967,319.363,-1.02495
12.0983,319.379,-1.02509
12.1,319.396,-1.02524
12.1017,319.413,-1.02539
12.1033,319.429,-1.02553
12.105,319.446,-1.02567
12.1067,319.463,-1.0258
12.1083,319.48,-1.02592
12.11,319.496,-1.02605
12.1117,319.512,-1.02618
12.1133,319.529,-1.0263
12.115,319.546,-1.02643
12.1167,319.563,-1.02655
12.1183,319.58,-1.02669
12.12,319.596,-1.02684
12.1217,319.613,-1.02699
12.1233,319.629,-1.02715
12.125,319.646,-1.02728
12.1267,319.662,-1.02742
12.1283,319.679,-1.02756
12.13,319.695,-1.02771
12.1317,319.712,-1.02785
12.1333,319.728,-1.028
12.135,319.745,-1.02815
12.1367,319.762,-1.02829
12.1383,319.778,-1.02847
12.14,319.795,-1.0287
12.1417,319.812,-1.02888
12.1433,319.828,-1.02904
12.145,319.845,-1.02922
12.1467,319.861,-1.02937
12.1483,319.878,-1.02956
12.15,319.895,-1.02986
12.1517,319.911,-1.03029
12.1533,319.928,-1.03071
12.155,319.945,-1.03104
12.1567,319.961,-1.03136
12.1583,319.978,-1.03162
12.16,319.995,-1.0318
12.1617,320.011,-1.03198
12.1633,320.028,-1.03217
12.165,320.044,-1.03233
12.1667,320.061,-1.03258
12.1683,320.078,-1.03304
12.17,320.094,-1.03365
12.1717,320.111,-1.03422
12.1733,320.127,-1.03485
12.175,320.144,-1.03549
12.1767,320.161,-1.03617
12.1783,320.178,-1.03667
12.18,320.194,-1.03696
12.1817,320.211,-1.03714
12.1833,320.228,-1.03745
12.185,320.245,-1.03761
12.1867,320.261,-1.03773
12.1883,320.278,-1.03787
12.19,320.294,-1.03799
12.1917,320.311,-1.03815
12.1933,320.327,-1.03828
12.195,320.344,-1.03841
12.1967,320.36,-1.03855
12.1983,320.377,-1.03868
12.2,320.394,-1.03882
12.2017,320.41,-1.03896
12.2033,320.427,-1.03911
12.205,320.444,-1.03925
12.2067,320.46,-1.03939
12.2083,320.477,-1.03955
12.21,320.494,-1.03979
12.2117,320.51,-1.03999
12.2133,320.527,-1.04024
12.215,320.544,-1.04048
12.2167,320.561,-1.04078
12.2183,320.578,-1.04127
12.22,320.594,-1.04186
12.2217,320.611,-1.04229
12.2233,320.628,-1.04262
12.225,320.645,-1.04298
12.2267,320.661,-1.04328
12.2283,320.677,-1.0435
12.23,320.694,-1.04371
12.2317,320.711,-1.04385
12.2333,320.727,-1.044
12.235,320.744,-1.04414
12.2367,320.76,-1.04429
12.2383,320.777,-1.04444
12.24,320.793,-1.04459
12.2417,320.81,-1.04489
12.2433,320.827,-1.04523
12.245,320.844,-1.04573
12.2467,320.86,-1.04624
12.2483,320.877,-1.04684
12.25,320.894,-1.04742
12.2517,320.91,-1.0479
12.2533,320.927,-1.04838
12.255,320.943,-1.04877
12.2567,320.96,-1.04899
12.2583,320.976,-1.04914
12.26,320.993,-1.0493
12.2617,321.009,-1.04966
12.2633,321.026,-1.05004
12.265,321.043,-1.05043
12.2667,321.059,-1.0509
12.2683,321.076,-1.05129
12.27,321.093,-1.05156
12.2717,321.109,-1.05187
12.2733,321.126,-1.05213
12.275,321.143,-1.05228
12.2767,321.159,-1.05242
12.2783,321.176,-1.05263
12.28,321.193,-1.05281
12.2817,321.209,-1.05294
12.2833,321.226,-1.05308
12.285,321.242,-1.05321
12.2867,321.259,-1.05337
12.2883,321.275,-1.0535
12.29,321.292,-1.05363
12.2917,321.309,-1.05376
12.2933,321.326,-1.05392
12.295,321.342,-1.0542
12.2967,321.359,-1.05458
12.2983,321.375,-1.05497
12.3,321.392,-1.05537
12.3017,321.409,-1.05576
12.3033,321.425,-1.05613
12.305,321.442,-1.05646
12.3067,321.458,-1.05668
12.3083,321.475,-1.05697
12.31,321.492,-1.05726
12.3117,321.508,-1.05756
12.3133,321.525,-1.05778
12.315,321.541,-1.05803
12.3167,321.558,-1.05834
12.3183,321.575,-1.05876
12.32,321.591,-1.05932
12.3217,321.608,-1.05995
12.3233,321.625,-1.06044
12.325,321.642,-1.06092
12.3267,321.658,-1.06135
12.3283,321.675,-1.06185
12.33,321.691,-1.06239
12.3317,321.708,-1.06274
12.3333,321.724,-1.06305
12.335,321.741,-1.06334
12.3367,321.757,-1.06366
12.3383,321.774,-1.06416
12.34,321.79,-1.06465
12.3417,321.807,-1.06533
12.3433,321.824,-1.06607
12.345,321.841,-1.06661
12.3467,321.857,-1.06704
12.3483,321.874,-1.06748
12.35,321.891,-1.06783
12.3517,321.907,-1.06805
12.3533,321.924,-1.06818
12.355,321.94,-1.06832
12.3567,321.957,-1.06852
12.3583,321.974,-1.06874
12.36,321.99,-1.06899
12.3617,322.007,-1.06934
12.3633,322.024,-1.06975
12.365,322.04,-1.07017
12.3667,322.057,-1.07053
12.3683,322.073,-1.07093
12.37,322.09,-1.07129
12.3717,322.107,-1.07165
12.3733,322.124,-1.07194
12.375,322.14,-1.07217
12.3767,322.157,-1.07242
12.3783,322.173,-1.07273
12.38,322.19,-1.07301
12.3817,322.207,-1.07332
12.3833,322.223,-1.07367
12.385,322.24,-1.07409
12.3867,322.256,-1.07465
12.3883,322.273,-1.07543
12.39,322.289,-1.07619
12.3917,322.306,-1.07696
12.3933,322.323,-1.07781
12.395,322.339,-1.07872
12.3967,322.356,-1.07975
12.3983,322.372,-1.08078
12.4,322.389,-1.08157
12.4017,322.406,-1.08225
12.4033,322.422,-1.08308
12.405,322.439,-1.08407
12.4067,322.456,-1.08488
12.4083,322.472,-1.08572
12.41,322.489,-1.08631
12.4117,322.506,-1.08668
12.4133,322.522,-1.08697
12.415,322.539,-1.08726
12.4167,322.556,-1.0875
12.4183,322.572,-1.08784
12.42,322.588,-1.08824
12.4217,322.605,-1.0889
12.4233,322.622,-1.08956
12.425,322.638,-1.09021
12.4267,322.655,-1.09129
12.4283,322.672,-1.09246
12.43,322.689,-1.09349
12.4317,322.705,-1.09442
12.4333,322.722,-1.09533
12.435,322.738,-1.09626
12.4367,322.755,-1.09729
12.4383,322.772,-1.0981
12.44,322.788,-1.09877
12.4417,322.805,-1.09942
12.4433,322.822,-1.09988
12.445,322.838,-1.10031
12.4467,322.854,-1.1006
12.4483,322.871,-1.10073
12.45,322.888,-1.10121
12.4517,322.904,-1.1013
12.4533,322.921,-1.10139
12.455,322.938,-1.10157
12.4567,322.954,-1.10178
12.4583,322.971,-1.10217
12.46,322.988,-1.10266
12.4617,323.004,-1.10325
12.4633,323.021,-1.10395
12.465,323.037,-1.10467
12.4667,323.054,-1.10522
12.4683,323.07,-1.10566
12.47,323.087,-1.1061
12.4717,323.103,-1.10671
12.4733,323.12,-1.10754
12.475,323.137,-1.10836
12.4767,323.153,-1.10917
12.4783,323.17,-1.11004
12.48,323.187,-1.11128
12.4817,323.203,-1.11249
12.4833,323.22,-1.1139
12.485,323.237,-1.11519
12.4867,323.253,-1.11647
12.4883,323.27,-1.11749
12.49,323.286,-1.11833
12.4917,323.303,-1.11895
12.4933,323.319,-1.11928
12.495,323.336,-1.11954
12.4967,323.353,-1.11978
12.4983,323.369,-1.12011
12.5,323.386,-1.12041
12.5017,323.402,-1.12082
12.5033,323.419,-1.12128
12.505,323.435,-1.12184
12.5067,323.452,-1.12259
12.5083,323.468,-1.12337
12.51,323.486,-1.12414
12.5117,323.502,-1.12481
12.5133,323.519,-1.12557
12.515,323.535,-1.12623
12.5167,323.552,-1.12698
12.5183,323.568,-1.12773
12.52,323.585,-1.12838
12.5217,323.602,-1.12903
12.5233,323.618,-1.12955
12.525,323.635,-1.12993
12.5267,323.652,-1.1303
12.5283,323.668,-1.13091
12.53,323.685,-1.13139
12.5317,323.702,-1.13193
12.5333,323.718,-1.13255
12.535,323.735,-1.13324
12.5367,323.751,-1.13379
12.5383,323.767,-1.13425
12.54,323.784,-1.13477
12.5417,323.801,-1.13532
12.5433,323.817,-1.13587
12.545,323.834,-1.13655
12.5467,323.851,-1.13752
12.5483,323.867,-1.13852
12.55,323.884,-1.13974
12.5517,323.901,-1.14102
12.5533,323.917,-1.1424
12.555,323.934,-1.14398
12.5567,323.951,-1.14575
12.5583,323.967,-1.14768
12.56,323.984,-1.14948
12.5617,324,-1.15116
12.5633,324.017,-1.15286
12.565,324.034,-1.15419
12.5667,324.05,-1.15526
12.5683,324.067,-1.15619
12.57,324.083,-1.15706
12.5717,324.1,-1.15789
12.5733,324.117,-1.15843
12.575,324.134,-1.15885
12.5767,324.15,-1.15922
12.5783,324.167,-1.1596
12.58,324.183,-1.16006
12.5817,324.2,-1.16062
12.5833,324.216,-1.16137
12.585,324.233,-1.16214
12.5867,324.25,-1.16281
12.5883,324.266,-1.16342
12.59,324.282,-1.16425
12.5917,324.299,-1.16515
12.5933,324.316,-1.1661
12.595,324.332,-1.16709
12.5967,324.349,-1.16823
12.5983,324.366,-1.1691
12.6,324.382,-1.17003
12.6017,324.399,-1.17118
12.6033,324.416,-1.17239
12.605,324.432,-1.1734
12.6067,324.449,-1.17431
12.6083,324.466,-1.17504
12.61,324.482,-1.1756
12.6117,324.499,-1.17623
12.6133,324.515,-1.17709
12.615,324.532,-1.17797
12.6167,324.549,-1.17898
12.6183,324.565,-1.18015
12.62,324.582,-1.18139
12.6217,324.598,-1.1828
12.6233,324.615,-1.18429
12.625,324.631,-1.18578
12.6267,324.648,-1.18731
12.6283,324.664,-1.18879
12.63,324.681,-1.19022
12.6317,324.697,-1.19153
12.6333,324.714,-1.19273
12.635,324.73,-1.19383
12.6367,324.747,-1.19471
12.6383,324.764,-1.19552
12.64,324.78,-1.19619
12.6417,324.797,-1.19705
12.6433,324.814,-1.19772
12.645,324.831,-1.19836
12.6467,324.847,-1.19916
12.6483,324.864,-1.19998
12.65,324.88,-1.201
12.6517,324.897,-1.20205
12.6533,324.913,-1.20296
12.655,324.93,-1.2039
12.6567,324.947,-1.20507
12.6583,324.963,-1.20624
12.66,324.98,-1.20732
12.6617,324.997,-1.20841
12.6633,325.013,-1.20951
12.665,325.029,-1.21052
12.6667,325.046,-1.21159
12.6683,325.063,-1.21255
12.67,325.079,-1.21356
12.6717,325.096,-1.21449
12.6733,325.112,-1.2155
12.675,325.129,-1.21675
12.6767,325.145,-1.21779
12.6783,325.162,-1.21899
12.68,325.179,-1.22021
12.6817,325.195,-1.22139
12.6833,325.212,-1.22247
12.685,325.228,-1.22374
12.6867,325.245,-1.2249
12.6883,325.262,-1.22595
12.69,325.278,-1.22687
12.6917,325.295,-1.22779
12.6933,325.311,-1.22886
12.695,325.328,-1.23014
12.6967,325.345,-1.23165
12.6983,325.361,-1.2336
12.7,325.378,-1.23562
12.7017,325.395,-1.23779
12.7033,325.411,-1.23993
12.705,325.428,-1.24178
12.7067,325.444,-1.24364
12.7083,325.461,-1.24571
12.71,325.477,-1.2474
12.7117,325.494,-1.24877
12.7133,325.511,-1.25039
12.715,325.527,-1.25206
12.7167,325.543,-1.25354
12.7183,325.56,-1.255
12.72,325.576,-1.25677
12.7217,325.593,-1.259
12.7233,325.61,-1.2607
12.725,325.626,-1.26252
12.7267,325.643,-1.26426
12.7283,325.659,-1.26553
12.73,325.676,-1.26625
12.7317,325.692,-1.26691
12.7333,325.708,-1.26756
12.735,325.725,-1.2682
12.7367,325.741,-1.26886
12.7383,325.758,-1.26935
12.74,325.775,-1.26992
12.7417,325.791,-1.2707
12.7433,325.808,-1.27208
12.745,325.824,-1.27422
12.7467,325.841,-1.27679
12.7483,325.858,-1.27868
12.75,325.874,-1.28036
12.7517,325.891,-1.28205
12.7533,325.907,-1.28391
12.755,325.924,-1.28557
12.7567,325.941,-1.2867
12.7583,325.957,-1.28779
12.76,325.973,-1.28911
12.7617,325.99,-1.29061
12.7633,326.007,-1.29208
12.765,326.023,-1.2934
12.7667,326.04,-1.29485
12.7683,326.057,-1.29651
12.77,326.073,-1.29824
12.7717,326.09,-1.29988
12.7733,326.106,-1.30138
12.775,326.123,-1.30342
12.7767,326.14,-1.30497
12.7783,326.156,-1.30687
12.78,326.173,-1.3089
12.7817,326.189,-1.31086
12.7833,326.206,-1.31317
12.785,326.222,-1.31492
12.7867,326.239,-1.31687
12.7883,326.256,-1.31855
12.79,326.272,-1.32022
12.7917,326.288,-1.32176
12.7933,326.305,-1.32296
12.795,326.321,-1.32404
12.7967,326.338,-1.32482
12.7983,326.355,-1.32565
12.8,326.371,-1.32614
12.8017,326.388,-1.32702
12.8033,326.404,-1.32809
12.805,326.421,-1.32978
12.8067,326.438,-1.33186
12.8083,326.454,-1.33354
12.81,326.47,-1.3357
12.8117,326.487,-1.33836
12.8133,326.504,-1.34156
12.815,326.52,-1.34409
12.8167,326.537,-1.34662
12.8183,326.553,-1.34946
12.82,326.57,-1.35178
12.8217,326.586,-1.35374
12.8233,326.603,-1.35609
12.825,326.62,-1.3584
12.8267,326.636,-1.36011
12.8283,326.652,-1.36174
12.83,326.669,-1.36424
12.8317,326.685,-1.36679
12.8333,326.702,-1.36895
12.835,326.718,-1.37131
12.8367,326.735,-1.374
12.8383,326.752,-1.37739
12.84,326.768,-1.37954
12.8417,326.785,-1.38089
12.8433,326.801,-1.3824
12.845,326.818,-1.38457
12.8467,326.834,-1.38633
12.8483,326.851,-1.38912
12.85,326.868,-1.39121
12.8517,326.884,-1.39383
12.8533,326.901,-1.39627
12.855,326.917,-1.39954
12.8567,326.934,-1.40282
12.8583,326.95,-1.40504
12.86,326.967,-1.40833
12.8617,326.983,-1.41101
12.8633,327,-1.41376
12.865,327.016,-1.41613
12.8667,327.033,-1.41811
12.8683,327.049,-1.42003
12.87,327.066,-1.4213
12.8717,327.082,-1.42295
12.8733,327.099,-1.42445
12.875,327.115,-1.42595
12.8767,327.132,-1.42857
12.8783,327.148,-1.43178
12.88,327.165,-1.43465
12.8817,327.182,-1.43801
12.8833,327.198,-1.44216
12.885,327.214,-1.44664
12.8867,327.231,-1.45142
12.8883,327.247,-1.45406
12.89,327.264,-1.45677
12.8917,327.28,-1.45973
12.8933,327.297,-1.46182
12.895,327.313,-1.46437
12.8967,327.33,-1.46742
12.8983,327.346,-1.46928
12.9,327.363,-1.47168
12.9017,327.379,-1.47658
12.9033,327.396,-1.48007
12.905,327.412,-1.48384
12.9067,327.429,-1.48784
12.9083,327.445,-1.49135
12.91,327.461,-1.49503
12.9117,327.478,-1.49833
12.9133,327.494,-1.50272
12.915,327.511,-1.50646
12.9167,327.528,-1.5106
12.9183,327.544,-1.51358
12.92,327.561,-1.51775
12.9217,327.577,-1.52075
12.9233,327.594,-1.52398
12.925,327.61,-1.52902
12.9267,327.626,-1.53244
12.9283,327.643,-1.53695
12.93,327.659,-1.5409
12.9317,327.675,-1.54479
12.9333,327.692,-1.55069
12.935,327.708,-1.55496
12.9367,327.725,-1.55999
12.9383,327.741,-1.56401
12.94,327.758,-1.56773
12.9417,327.774,-1.57188
12.9433,327.791,-1.57732
12.945,327.807,-1.58124
12.9467,327.823,-1.58636
12.9483,327.839,-1.59043
12.95,327.856,-1.5946
12.9517,327.872,-1.5995
12.9533,327.889,-1.605
12.955,327.905,-1.6101
12.9567,327.922,-1.6158
12.9583,327.938,-1.62095
12.96,327.954,-1.62702
12.9617,327.971,-1.63145
12.9633,327.987,-1.63698
12.965,328.004,-1.64268
12.9667,328.02,-1.64828
12.9683,328.037,-1.65236
12.97,328.053,-1.65808
12.9717,328.069,-1.66413
12.9733,328.085,-1.67002
12.975,328.102,-1.67544
12.9767,328.118,-1.68171
12.9783,328.134,-1.68866
12.98,328.151,-1.69552
12.9817,328.167,-1.70134
12.9833,328.183,-1.70825
12.985,328.199,-1.71543
12.9867,328.216,-1.72088
12.9883,328.232,-1.7269
12.99,328.248,-1.73401
12.9917,328.265,-1.74152
12.9933,328.281,-1.74784
12.995,328.297,-1.75323
12.9967,328.314,-1.76013
12.9983,328.33,-1.76874
13,328.346,-1.77565
13.0017,328.363,-1.78256
13.0033,328.379,-1.7905
13.005,328.395,-1.79815
13.0067,328.412,-1.80613
13.0083,328.427,-1.81327
13.01,328.444,-1.82177
13.0117,328.46,-1.83146
13.0133,328.476,-1.83847
13.015,328.493,-1.8466
13.0167,328.509,-1.85552
13.0183,328.525,-1.8645
13.02,328.542,-1.87308
13.0217,328.557,-1.8812
13.0233,328.574,-1.88989
13.025,328.59,-1.89761
13.0267,328.606,-1.90577
13.0283,328.622,-1.91378
13.03,328.639,-1.92209
13.0317,328.655,-1.93153
13.0333,328.671,-1.94054
13.035,328.687,-1.95047
13.0367,328.704,-1.96041
13.0383,328.72,-1.97035
13.04,328.736,-1.98028
13.0417,328.752,-1.99004
13.0433,328.768,-1.99984
13.045,328.784,-2.00929
13.0467,328.8,-2.01774
13.0483,328.816,-2.02718
13.05,328.832,-2.03711
13.0517,328.848,-2.04829
13.0533,328.864,-2.059
13.055,328.881,-2.07152
13.0567,328.897,-2.08474
13.0583,328.913,-2.09739
13.06,328.929,-2.1099
13.0617,328.945,-2.12233
13.0633,328.961,-2.13328
13.065,328.977,-2.14407
13.0667,328.993,-2.15456
13.0683,329.009,-2.16487
13.07,329.025,-2.17596
13.0717,329.041,-2.18487
13.0733,329.057,-2.19612
13.075,329.073,-2.2067
13.0767,329.089,-2.21796
13.0783,329.105,-2.2283
13.08,329.121,-2.23987
13.0817,329.137,-2.25068
13.0833,329.153,-2.26278
13.085,329.169,-2.27516
13.0867,329.185,-2.28714
13.0883,329.201,-2.3
13.09,329.217,-2.31316
13.0917,329.233,-2.32679
13.0933,329.248,-2.33853
13.095,329.265,-2.35108
13.0967,329.28,-2.3631
13.0983,329.296,-2.37455
13.1,329.312,-2.38504
13.1017,329.328,-2.3952
13.1033,329.344,-2.40603
13.105,329.36,-2.41584
13.1067,329.376,-2.42496
13.1083,329.392,-2.4345
13.11,329.408,-2.44356
13.1117,329.424,-2.45072
13.1133,329.44,-2.45885
13.115,329.456,-2.4683
13.1167,329.472,-2.47424
13.1183,329.488,-2.48018
13.12,329.504,-2.48727
13.1217,329.52,-2.49346
13.1233,329.536,-2.49911
13.125,329.552,-2.50398
13.1267,329.568,-2.50819
13.1283,329.584,-2.5101
13.13,329.6,-2.51202
13.1317,329.616,-2.51433
13.1333,329.632,-2.51591
13.135,329.648,-2.51694
13.1367,329.664,-2.51638
13.1383,329.68,-2.51488
13.14,329.696,-2.51309
13.1417,329.712,-2.51131
13.1433,329.728,-2.50768
13.145,329.744,-2.50077
13.1467,329.761,-2.49476
13.1483,329.777,-2.48798
13.15,329.793,-2.47975
13.1517,329.809,-2.47195
13.1533,329.825,-2.46264
13.155,329.842,-2.45355
13.1567,329.859,-2.44413
13.1583,329.875,-2.43553
13.16,329.891,-2.42375
13.1617,329.908,-2.41324
13.1633,329.924,-2.40116
13.165,329.941,-2.38767
13.1667,329.957,-2.37454
13.1683,329.974,-2.36216
13.17,329.991,-2.34856
13.1717,330.007,-2.33447
13.1733,330.024,-2.32012
13.175,330.041,-2.30479
13.1767,330.057,-2.28874
13.1783,330.074,-2.27147
13.18,330.091,-2.25546
13.1817,330.108,-2.23885
13.1833,330.125,-2.22246
13.185,330.142,-2.20498
13.1867,330.158,-2.18866
13.1883,330.175,-2.17182
13.19,330.192,-2.15642
13.1917,330.21,-2.13946
13.1933,330.227,-2.12348
13.195,330.243,-2.1069
13.1967,330.261,-2.0898
13.1983,330.278,-2.07385
13.2,330.295,-2.05812
13.2017,330.312,-2.04149
13.2033,330.329,-2.0252
13.205,330.346,-2.00905
13.2067,330.363,-1.9935
13.2083,330.381,-1.9769
13.21,330.398,-1.96118
13.2117,330.415,-1.94523
13.2133,330.432,-1.93
13.215,330.449,-1.91487
13.2167,330.467,-1.89998
13.2183,330.484,-1.88682
13.22,330.502,-1.87188
13.2217,330.519,-1.85739
13.2233,330.536,-1.84315
13.225,330.554,-1.8293
13.2267,330.571,-1.81455
13.2283,330.589,-1.80111
13.23,330.606,-1.78669
13.2317,330.624,-1.77414
13.2333,330.641,-1.76091
13.235,330.658,-1.74769
13.2367,330.676,-1.73441
13.2383,330.693,-1.72121
13.24,330.711,-1.70952
13.2417,330.728,-1.69739
13.2433,330.745,-1.68484
13.245,330.763,-1.67354
13.2467,330.78,-1.66085
13.2483,330.797,-1.64888
13.25,330.815,-1.63679
13.2517,330.832,-1.62588
13.2533,330.85,-1.61615
13.255,330.867,-1.60576
13.2567,330.884,-1.59436
13.2583,330.902,-1.58303
13.26,330.919,-1.57316
13.2617,330.937,-1.56251
13.2633,330.954,-1.55324
13.265,330.972,-1.54382
13.2667,330.989,-1.53423
13.2683,331.007,-1.52481
13.27,331.024,-1.51644
13.2717,331.042,-1.5083
13.2733,331.059,-1.50108
13.275,331.077,-1.49246
13.2767,331.094,-1.48309
13.2783,331.111,-1.47559
13.28,331.128,-1.46751
13.2817,331.146,-1.46014
13.2833,331.163,-1.45079
13.285,331.18,-1.44216
13.2867,331.198,-1.43298
13.2883,331.215,-1.42381
13.29,331.232,-1.41589
13.2917,331.25,-1.40657
13.2933,331.267,-1.39946
13.295,331.285,-1.39201
13.2967,331.302,-1.38452
13.2983,331.319,-1.37801
13.3,331.337,-1.37147
13.3017,331.354,-1.36558
13.3033,331.371,-1.35876
13.305,331.389,-1.35307
13.3067,331.406,-1.34589
13.3083,331.423,-1.34016
13.31,331.441,-1.33364
13.3117,331.458,-1.3276
13.3133,331.475,-1.32097
13.315,331.493,-1.31602
13.3167,331.51,-1.30972
13.3183,331.527,-1.30314
13.32,331.544,-1.298
13.3217,331.562,-1.29107
13.3233,331.579,-1.28523
13.325,331.596,-1.27935
13.3267,331.613,-1.27481
13.3283,331.63,-1.27018
13.33,331.648,-1.26566
13.3317,331.665,-1.26073
13.3333,331.682,-1.25573
13.335,331.699,-1.25129
13.3367,331.717,-1.2472
13.3383,331.734,-1.24361
13.34,331.751,-1.2384
13.3417,331.768,-1.23402
13.3433,331.785,-1.22904
13.345,331.803,-1.22422
13.3467,331.82,-1.2198
13.3483,331.837,-1.21564
13.35,331.854,-1.21011
13.3517,331.871,-1.20622
13.3533,331.888,-1.20133
13.355,331.905,-1.19885
13.3567,331.922,-1.19507
13.3583,331.94,-1.19117
13.36,331.957,-1.18769
13.3617,331.974,-1.18407
13.3633,331.991,-1.18095
13.365,332.008,-1.17874
13.3667,332.025,-1.17476
13.3683,332.042,-1.17017
13.37,332.06,-1.16601
13.3717,332.077,-1.16225
13.3733,332.094,-1.1588
13.375,332.111,-1.15651
13.3767,332.128,-1.15315
13.3783,332.145,-1.15079
13.38,332.162,-1.14823
13.3817,332.179,-1.14523
13.3833,332.196,-1.14335
13.385,332.213,-1.14019
13.3867,332.23,-1.13768
13.3883,332.247,-1.1345
13.39,332.264,-1.13169
13.3917,332.281,-1.12869
13.3933,332.298,-1.12582
13.395,332.316,-1.12138
13.3967,332.332,-1.11872
13.3983,332.349,-1.11508
13.4,332.366,-1.11133
13.4017,332.383,-1.11093
13.4033,332.4,-1.10864
13.405,332.417,-1.10774
13.4067,332.434,-1.10516
13.4083,332.451,-1.10457
13.41,332.468,-1.10248
13.4117,332.486,-1.10104
13.4133,332.502,-1.09905
13.415,332.52,-1.09671
13.4167,332.537,-1.09389
13.4183,332.553,-1.09103
13.42,332.57,-1.08907
13.4217,332.587,-1.08715
13.4233,332.604,-1.08518
13.425,332.621,-1.08306
13.4267,332.638,-1.08055
13.4283,332.655,-1.0784
13.43,332.672,-1.07754
13.4317,332.689,-1.07569
13.4333,332.705,-1.07374
13.435,332.722,-1.07134
13.4367,332.739,-1.06863
13.4383,332.756,-1.06708
13.44,332.773,-1.0657
13.4417,332.79,-1.06437
13.4433,332.807,-1.06421
13.445,332.823,-1.06369
13.4467,332.84,-1.06135
13.4483,332.857,-1.06025
13.45,332.874,-1.0591
13.4517,332.891,-1.05762
13.4533,332.908,-1.05579
13.455,332.925,-1.05476
13.4567,332.942,-1.05436
13.4583,332.959,-1.05225
13.46,332.976,-1.0503
13.4617,332.992,-1.04898
13.4633,333.009,-1.04784
13.465,333.026,-1.04665
13.4667,333.043,-1.04598
13.4683,333.06,-1.04544
13.47,333.076,-1.04485
13.4717,333.094,-1.04407
13.4733,333.11,-1.04271
13.475,333.127,-1.04143
13.4767,333.144,-1.04016
13.4783,333.161,-1.03868
13.48,333.178,-1.03697
13.4817,333.195,-1.03611
13.4833,333.211,-1.03552
13.485,333.228,-1.03497
13.4867,333.245,-1.03434
13.4883,333.262,-1.03373
13.49,333.278,-1.0326
13.4917,333.295,-1.03111
13.4933,333.312,-1.02971
13.495,333.329,-1.02838
13.4967,333.346,-1.0272
13.4983,333.363,-1.02593
13.5,333.379,-1.02507
13.5017,333.396,-1.02491
13.5033,333.413,-1.02481
13.505,333.43,-1.02435
13.5067,333.447,-1.02383
13.5083,333.463,-1.02311
13.51,333.48,-1.02219
13.5117,333.497,-1.02143
13.5133,333.514,-1.02086
13.515,333.53,-1.02045
13.5167,333.547,-1.01981
13.5183,333.564,-1.01903
13.52,333.581,-1.01838
13.5217,333.597,-1.0176
13.5233,333.614,-1.0165
13.525,333.631,-1.01542
13.5267,333.648,-1.01431
13.5283,333.664,-1.01308
13.53,333.681,-1.0122
13.5317,333.698,-1.01151
13.5333,333.715,-1.01115
13.535,333.731,-1.01063
13.5367,333.748,-1.01012
13.5383,333.765,-1.00951
13.54,333.782,-1.00892
13.5417,333.798,-1.00819
13.5433,333.815,-1.00762
13.545,333.832,-1.00697
13.5467,333.849,-1.00637
13.5483,333.865,-1.00566
13.55,333.882,-1.0051
13.5517,333.899,-1.00464
13.5533,333.916,-1.00413
13.555,333.933,-1.00357
13.5567,333.949,-1.00315
13.5583,333.966,-1.00268
13.56,333.982,-1.00228
13.5617,333.999,-1.00212
13.5633,334.016,-1.00193
13.565,334.032,-1.00174
13.5667,334.049,-1.00152
13.5683,334.066,-1.00135
13.57,334.083,-1.00102
13.5717,334.1,-1.0005
13.5733,334.116,-0.99993
13.575,334.133,-0.999281
13.5767,334.149,-0.998558
13.5783,334.166,-0.997928
13.58,334.183,-0.997399
13.5817,334.199,-0.996966
13.5833,334.216,-0.996648
13.585,334.233,-0.996387
13.5867,334.25,-0.99619
13.5883,334.266,-0.996024
13.59,334.283,-0.995896
13.5917,334.3,-0.995821
13.5933,334.316,-0.995777
13.595,334.333,-0.995718
13.5967,334.349,-0.995637
13.5983,334.366,-0.995548
13.6,334.383,-0.995412
13.6017,334.4,-0.995239
13.6033,334.417,-0.995049
13.605,334.433,-0.994742
13.6067,334.45,-0.994395
13.6083,334.467,-0.993988
13.61,334.484,-0.993536
13.6117,334.501,-0.993192
13.6133,334.517,-0.992798
13.615,334.534,-0.992406
13.6167,334.55,-0.992171
13.6183,334.567,-0.991981
13.62,334.584,-0.991818
13.6217,334.601,-0.991658
13.6233,334.617,-0.991567
13.625,334.634,-0.991508
13.6267,334.651,-0.991469
13.6283,334.667,-0.991419
13.63,334.684,-0.991358
13.6317,334.7,-0.991295
13.6333,334.717,-0.991219
13.635,334.734,-0.991091
13.6367,334.751,-0.990919
13.6383,334.768,-0.990757
13.64,334.784,-0.990609
13.6417,334.801,-0.990465
13.6433,334.817,-0.990364
13.645,334.834,-0.990302
13.6467,334.851,-0.990254
13.6483,334.867,-0.989961
13.65,334.884,-0.989664
13.6517,334.901,-0.989619
13.6533,334.917,-0.989566
13.655,334.934,-0.989496
13.6567,334.951,-0.989344
13.6583,334.967,-0.989147
13.66,334.984,-0.988929
13.6617,335,-0.988632
13.6633,335.017,-0.988298
13.665,335.034,-0.987914
13.6667,335.051,-0.987735
13.6683,335.067,-0.987617
13.67,335.084,-0.987477
13.6717,335.101,-0.98732
13.6733,335.118,-0.987224
13.675,335.135,-0.987106
13.6767,335.151,-0.986987
13.6783,335.167,-0.986917
13.68,335.184,-0.986852
13.6817,335.201,-0.986787
13.6833,335.218,-0.986717
13.685,335.234,-0.986651
13.6867,335.251,-0.986584
13.6883,335.267,-0.986518
13.69,335.284,-0.98645
13.6917,335.301,-0.986387
13.6933,335.318,-0.986186
13.695,335.334,-0.98612
13.6967,335.351,-0.986052
13.6983,335.368,-0.985982
13.7,335.384,-0.985899
13.7017,335.401,-0.985776
13.7033,335.418,-0.985626
13.705,335.434,-0.9855
13.7067,335.451,-0.985319
13.7083,335.467,-0.985173
13.71,335.484,-0.98509
13.7117,335.501,-0.985008
13.7133,335.518,-0.984934
13.715,335.534,-0.984799
13.7167,335.551,-0.98473
13.7183,335.568,-0.984614
13.72,335.585,-0.984511
13.7217,335.601,-0.984442
13.7233,335.618,-0.984327
13.725,335.634,-0.984256
13.7267,335.651,-0.984179
13.7283,335.667,-0.984112
13.73,335.684,-0.984044
13.7317,335.701,-0.983961
13.7333,335.717,-0.983893
13.735,335.734,-0.983815
13.7367,335.751,-0.983735
13.7383,335.767,-0.983659
13.74,335.785,-0.98357
13.7417,335.801,-0.983482
13.7433,335.818,-0.983394
13.745,335.834,-0.983309
13.7467,335.851,-0.983231
13.7483,335.867,-0.983157
13.75,335.884,-0.983099
13.7517,335.901,-0.983035
13.7533,335.918,-0.982975
13.755,335.934,-0.982922
13.7567,335.951,-0.982865
13.7583,335.968,-0.982803
13.76,335.985,-0.98273
13.7617,336.001,-0.982643
13.7633,336.018,-0.982559
13.765,336.034,-0.982467
13.7667,336.051,-0.982382
13.7683,336.068,-0.982306
13.77,336.085,-0.982234
13.7717,336.101,-0.982157
13.7733,336.117,-0.982075
13.775,336.134,-0.982005
13.7767,336.151,-0.981947
13.7783,336.168,-0.981888
13.78,336.184,-0.981827
13.7817,336.201,-0.981765
13.7833,336.218,-0.981703
13.785,336.235,-0.981644
13.7867,336.251,-0.981587
13.7883,336.268,-0.981528
13.79,336.285,-0.981461
13.7917,336.301,-0.981386
13.7933,336.318,-0.981312
13.795,336.334,-0.981239
13.7967,336.351,-0.981167
13.7983,336.367,-0.981092
13.8,336.384,-0.981018
13.8017,336.401,-0.98094
13.8033,336.418,-0.980863
13.805,336.434,-0.98078
13.8067,336.451,-0.980698
13.8083,336.468,-0.980611
13.81,336.484,-0.98052
13.8117,336.501,-0.98043
13.8133,336.517,-0.98034
13.815,336.534,-0.980251
13.8167,336.551,-0.980165
13.8183,336.567,-0.980078
13.82,336.584,-0.979992
13.8217,336.6,-0.979908
13.8233,336.617,-0.979826
13.825,336.634,-0.979745
13.8267,336.65,-0.979671
13.8283,336.667,-0.979596
13.83,336.684,-0.979532
13.8317,336.7,-0.979476
13.8333,336.717,-0.979433
13.835,336.734,-0.979393
13.8367,336.751,-0.979365
13.8383,336.767,-0.979339
13.84,336.784,-0.979312
13.8417,336.801,-0.979279
13.8433,336.818,-0.979251
13.845,336.834,-0.979214
13.8467,336.851,-0.979164
13.8483,336.867,-0.979098
13.85,336.884,-0.979025
13.8517,336.901,-0.978945
13.8533,336.917,-0.978853
13.855,336.934,-0.978771
13.8567,336.951,-0.978697
13.8583,336.967,-0.978622
13.86,336.984,-0.978556
13.8617,337.001,-0.978495
13.8633,337.018,-0.978428
13.865,337.034,-0.978367
13.8667,337.051,-0.978304
13.8683,337.068,-0.978244
13.87,337.084,-0.978184
13.8717,337.101,-0.97812
13.8733,337.117,-0.978064
13.875,337.134,-0.978
13.8767,337.151,-0.977938
13.8783,337.167,-0.977895
13.88,337.184,-0.977855
13.8817,337.201,-0.977821
13.8833,337.217,-0.977792
13.885,337.235,-0.977766
13.8867,337.251,-0.977733
13.8883,337.268,-0.977699
13.89,337.284,-0.977661
13.8917,337.301,-0.977614
13.8933,337.318,-0.977562
13.895,337.334,-0.977509
13.8967,337.351,-0.977453
13.8983,337.367,-0.977402
13.9,337.384,-0.977354
13.9017,337.401,-0.977309
13.9033,337.417,-0.977275
13.905,337.434,-0.97724
13.9067,337.451,-0.97721
13.9083,337.467,-0.977186
13.91,337.484,-0.977158
13.9117,337.501,-0.977125
13.9133,337.518,-0.977085
13.915,337.534,-0.977039
13.9167,337.551,-0.976986
13.9183,337.567,-0.976923
13.92,337.584,-0.976854
13.9217,337.601,-0.976793
13.9233,337.617,-0.976731
13.925,337.634,-0.976674
13.9267,337.651,-0.976624
13.9283,337.668,-0.976571
13.93,337.684,-0.976522
13.9317,337.701,-0.976483
13.9333,337.717,-0.976441
13.935,337.734,-0.9764
13.9367,337.75,-0.976354
13.9383,337.767,-0.976306
13.94,337.784,-0.976263
13.9417,337.8,-0.976217
13.9433,337.817,-0.976177
13.945,337.834,-0.976138
13.9467,337.85,-0.976097
13.9483,337.867,-0.976052
13.95,337.884,-0.97601
13.9517,337.9,-0.975969
13.9533,337.917,-0.975927
13.955,337.934,-0.97589
13.9567,337.951,-0.975859
13.9583,337.967,-0.975831
13.96,337.984,-0.975806
13.9617,338.001,-0.975786
13.9633,338.018,-0.975768
13.965,338.034,-0.975751
13.9667,338.051,-0.975724
13.9683,338.067,-0.975692
13.97,338.084,-0.97566
13.9717,338.101,-0.975616
13.9733,338.118,-0.975567
13.975,338.134,-0.975515
13.9767,338.151,-0.975459
13.9783,338.168,-0.975401
13.98,338.184,-0.97535
13.9817,338.201,-0.975302
13.9833,338.218,-0.975267
13.985,338.234,-0.975226
13.9867,338.251,-0.975188
13.9883,338.268,-0.975161
13.99,338.284,-0.975139
13.9917,338.301,-0.975124
13.9933,338.318,-0.975124
13.995,338.334,-0.975142
13.9967,338.351,-0.975165
13.9983,338.368,-0.975209
14,338.384,-0.975251
14.0017,338.401,-0.975282
14.0033,338.418,-0.975293
14.005,338.434,-0.975288
14.0067,338.451,-0.975269
14.0083,338.468,-0.975238
14.01,338.484,-0.975205
14.0117,338.501,-0.975169
14.0133,338.518,-0.975131
14.015,338.534,-0.975095
14.0167,338.551,-0.975061
14.0183,338.568,-0.975038
14.02,338.584,-0.975022
14.0217,338.601,-0.975013
14.0233,338.618,-0.975002
14.025,338.635,-0.974993
14.0267,338.651,-0.974983
14.0283,338.668,-0.974973
14.03,338.684,-0.974964
14.0317,338.701,-0.974951
14.0333,338.717,-0.974942
14.035,338.734,-0.974937
14.0367,338.751,-0.97493
14.0383,338.767,-0.974925
14.04,338.784,-0.974917
14.0417,338.801,-0.974904
14.0433,338.817,-0.974894
14.045,338.834,-0.974882
14.0467,338.851,-0.974871
14.0483,338.868,-0.974854
14.05,338.884,-0.974835
14.0517,338.901,-0.974813
14.0533,338.917,-0.974789
14.055,338.934,-0.974761
14.0567,338.951,-0.974728
14.0583,338.968,-0.974692
14.06,338.984,-0.974657
14.0617,339.001,-0.974618
14.0633,339.018,-0.974574
14.065,339.034,-0.974529
14.0667,339.051,-0.974494
14.0683,339.068,-0.974457
14.07,339.084,-0.974425
14.0717,339.101,-0.974394
14.0733,339.118,-0.974371
14.075,339.134,-0.97435
14.0767,339.151,-0.974338
14.0783,339.168,-0.974332
14.08,339.184,-0.974337
14.0817,339.201,-0.974338
14.0833,339.217,-0.974336
14.085,339.234,-0.974332
14.0867,339.251,-0.974325
14.0883,339.268,-0.974316
14.09,339.284,-0.97431
14.0917,339.301,-0.974297
14.0933,339.318,-0.974274
14.095,339.334,-0.974244
14.0967,339.351,-0.974211
14.0983,339.368,-0.974185
14.1,339.384,-0.974157
14.1017,339.401,-0.974139
14.1033,339.417,-0.974117
14.105,339.434,-0.974105
14.1067,339.451,-0.974102
14.1083,339.467,-0.974108
14.11,339.484,-0.974116
14.1117,339.5,-0.97413
14.1133,339.517,-0.974139
14.115,339.534,-0.974145
14.1167,339.551,-0.974155
14.1183,339.568,-0.974166
14.12,339.584,-0.974171
14.1217,339.601,-0.974178
14.1233,339.618,-0.974186
14.125,339.634,-0.974191
14.1267,339.651,-0.974196
14.1283,339.668,-0.974198
14.13,339.684,-0.974195
14.1317,339.701,-0.974187
14.1333,339.718,-0.974179
14.135,339.734,-0.974174
14.1367,339.751,-0.974176
14.1383,339.767,-0.974172
14.14,339.784,-0.974178
14.1417,339.801,-0.974182
14.1433,339.817,-0.974187
14.145,339.834,-0.974201
14.1467,339.851,-0.974216
14.1483,339.867,-0.974237
14.15,339.884,-0.974257
14.1517,339.901,-0.974277
14.1533,339.918,-0.974298
14.155,339.934,-0.974307
14.1567,339.951,-0.974304
14.1583,339.968,-0.974299
14.16,339.984,-0.974299
14.1617,340.001,-0.9743
14.1633,340.018,-0.974295
14.165,340.035,-0.974294
14.1667,340.051,-0.974292
14.1683,340.068,-0.974288
14.17,340.085,-0.97428
14.1717,340.101,-0.974271
14.1733,340.118,-0.974255
14.175,340.134,-0.974236
14.1767,340.151,-0.974225
14.1783,340.167,-0.974219
14.18,340.184,-0.974221
14.1817,340.201,-0.974228
14.1833,340.218,-0.974231
14.185,340.234,-0.974238
14.1867,340.251,-0.974252
14.1883,340.268,-0.974273
14.19,340.284,-0.974298
14.1917,340.301,-0.974321
14.1933,340.317,-0.974347
14.195,340.334,-0.974373
14.1967,340.351,-0.974407
14.1983,340.367,-0.974444
14.2,340.384,-0.974475
14.2017,340.401,-0.974496
14.2033,340.418,-0.974516
14.205,340.434,-0.97453
14.2067,340.451,-0.974528
14.2083,340.468,-0.974518
14.21,340.485,-0.974507
14.2117,340.501,-0.974497
14.2133,340.518,-0.974487
14.215,340.534,-0.974483
14.2167,340.551,-0.974494
14.2183,340.568,-0.974514
14.22,340.584,-0.97454
14.2217,340.601,-0.97457
14.2233,340.618,-0.974605
14.225,340.635,-0.974634
14.2267,340.651,-0.974661
14.2283,340.668,-0.974682
14.23,340.684,-0.974703
14.2317,340.701,-0.974714
14.2333,340.718,-0.974723
14.235,340.734,-0.974732
14.2367,340.751,-0.974736
14.2383,340.768,-0.974736
14.24,340.784,-0.974731
14.2417,340.801,-0.974729
14.2433,340.818,-0.974732
14.245,340.834,-0.974742
14.2467,340.851,-0.974753
14.2483,340.868,-0.974758
14.25,340.884,-0.974778
14.2517,340.901,-0.974797
14.2533,340.919,-0.974817
14.255,340.935,-0.974828
14.2567,340.952,-0.974834
14.2583,340.968,-0.974837
14.26,340.985,-0.974831
14.2617,341.001,-0.974829
14.2633,341.018,-0.974832
14.265,341.035,-0.97484
14.2667,341.052,-0.974858
14.2683,341.068,-0.974888
14.27,341.085,-0.974923
14.2717,341.101,-0.97496
14.2733,341.118,-0.974999
14.275,341.135,-0.975036
14.2767,341.151,-0.975064
14.2783,341.168,-0.97508
14.28,341.185,-0.975096
14.2817,341.201,-0.975112
14.2833,341.218,-0.975124
14.285,341.235,-0.975137
14.2867,341.252,-0.975163
14.2883,341.268,-0.975185
14.29,341.284,-0.975214
14.2917,341.301,-0.975242
14.2933,341.318,-0.975272
14.295,341.334,-0.975297
14.2967,341.351,-0.97531
14.2983,341.368,-0.97532
14.3,341.385,-0.975334
14.3017,341.401,-0.975355
14.3033,341.418,-0.975373
14.305,341.435,-0.97539
14.3067,341.451,-0.975409
14.3083,341.468,-0.975434
14.31,341.485,-0.97546
14.3117,341.501,-0.975493
14.3133,341.518,-0.975525
14.315,341.534,-0.975559
14.3167,341.551,-0.975584
14.3183,341.568,-0.975619
14.32,341.584,-0.975651
14.3217,341.601,-0.975677
14.3233,341.618,-0.975696
14.325,341.634,-0.975714
14.3267,341.651,-0.975734
14.3283,341.668,-0.975756
14.33,341.684,-0.975773
14.3317,341.701,-0.975794
14.3333,341.718,-0.975807
14.335,341.735,-0.975819
14.3367,341.751,-0.975832
14.3383,341.768,-0.975842
14.34,341.785,-0.97585
14.3417,341.801,-0.975858
14.3433,341.818,-0.975862
14.345,341.834,-0.97586
14.3467,341.851,-0.975862
14.3483,341.868,-0.975864
14.35,341.884,-0.975876
14.3517,341.901,-0.975886
14.3533,341.918,-0.975898
14.355,341.935,-0.975918
14.3567,341.951,-0.975946
14.3583,341.968,-0.975975
14.36,341.984,-0.976006
14.3617,342.001,-0.976036
14.3633,342.018,-0.976061
14.365,342.034,-0.976089
14.3667,342.051,-0.976112
14.3683,342.068,-0.976132
14.37,342.084,-0.976149
14.3717,342.101,-0.976165
14.3733,342.118,-0.976184
14.375,342.134,-0.976193
14.3767,342.151,-0.976208
14.3783,342.168,-0.976221
14.38,342.184,-0.976245
14.3817,342.201,-0.976269
14.3833,342.217,-0.976292
14.385,342.234,-0.976317
14.3867,342.251,-0.976348
14.3883,342.267,-0.976382
14.39,342.284,-0.976411
14.3917,342.301,-0.976438
14.3933,342.317,-0.976462
14.395,342.334,-0.976488
14.3967,342.351,-0.976516
14.3983,342.367,-0.97654
14.4,342.384,-0.97656
14.4017,342.4,-0.97657
14.4033,342.417,-0.976585
14.405,342.434,-0.976601
14.4067,342.45,-0.976621
14.4083,342.467,-0.976634
14.41,342.484,-0.97665
14.4117,342.5,-0.976671
14.4133,342.517,-0.976687
14.415,342.534,-0.9767
14.4167,342.551,-0.976716
14.4183,342.567,-0.976734
14.42,342.584,-0.976747
14.4217,342.6,-0.976764
14.4233,342.617,-0.976792
14.425,342.634,-0.976826
14.4267,342.65,-0.976864
14.4283,342.667,-0.976922
14.43,342.684,-0.976987
14.4317,342.701,-0.977069
14.4333,342.717,-0.977167
14.435,342.734,-0.977273
14.4367,342.751,-0.977376
14.4383,342.767,-0.977432
14.44,342.784,-0.977477
14.4417,342.8,-0.977513
14.4433,342.817,-0.977545
14.445,342.834,-0.977571
14.4467,342.85,-0.977595
14.4483,342.867,-0.977616
14.45,342.884,-0.977633
14.4517,342.9,-0.977652
14.4533,342.917,-0.977671
14.455,342.934,-0.97769
14.4567,342.95,-0.977702
14.4583,342.967,-0.977716
14.46,342.984,-0.977735
14.4617,343.001,-0.97776
14.4633,343.017,-0.977782
14.465,343.034,-0.977805
14.4667,343.051,-0.977831
14.4683,343.068,-0.977858
14.47,343.084,-0.977888
14.4717,343.1,-0.977919
14.4733,343.117,-0.977954
14.475,343.134,-0.977993
14.4767,343.15,-0.978035
14.4783,343.167,-0.978078
14.48,343.184,-0.97812
14.4817,343.201,-0.978176
14.4833,343.217,-0.978229
14.485,343.234,-0.978283
14.4867,343.25,-0.978324
14.4883,343.267,-0.978354
14.49,343.284,-0.978376
14.4917,343.3,-0.97839
14.4933,343.318,-0.978405
14.495,343.334,-0.978411
14.4967,343.351,-0.978417
14.4983,343.367,-0.978423
14.5,343.384,-0.978434
14.5017,343.4,-0.97845
14.5033,343.417,-0.978476
14.505,343.434,-0.9785
14.5067,343.451,-0.978526
14.5083,343.467,-0.978557
14.51,343.483,-0.978598
14.5117,343.501,-0.978646
14.5133,343.517,-0.978701
14.515,343.534,-0.97876
14.5167,343.551,-0.978818
14.5183,343.567,-0.978877
14.52,343.584,-0.97894
14.5217,343.6,-0.979015
14.5233,343.617,-0.979069
14.525,343.633,-0.97911
14.5267,343.65,-0.979156
14.5283,343.667,-0.979193
14.53,343.683,-0.979233
14.5317,343.7,-0.979269
14.5333,343.717,-0.979302
14.535,343.734,-0.979328
14.5367,343.75,-0.979354
14.5383,343.767,-0.979375
14.54,343.784,-0.979404
14.5417,343.8,-0.97944
14.5433,343.817,-0.979472
14.545,343.834,-0.979508
14.5467,343.85,-0.979538
14.5483,343.867,-0.979577
14.55,343.883,-0.979614
14.5517,343.9,-0.979657
14.5533,343.917,-0.979696
14.555,343.934,-0.97974
14.5567,343.95,-0.979787
14.5583,343.967,-0.979838
14.56,343.983,-0.97989
14.5617,344,-0.97994
14.5633,344.016,-0.97999
14.565,344.033,-0.980025
14.5667,344.05,-0.980052
14.5683,344.066,-0.980077
14.57,344.083,-0.980101
14.5717,344.1,-0.980137
14.5733,344.116,-0.980169
14.575,344.133,-0.980203
14.5767,344.15,-0.980242
14.5783,344.166,-0.980269
14.58,344.183,-0.9803
14.5817,344.2,-0.980336
14.5833,344.216,-0.980375
14.585,344.233,-0.980412
14.5867,344.25,-0.98045
14.5883,344.266,-0.980485
14.59,344.283,-0.980515
14.5917,344.299,-0.980541
14.5933,344.316,-0.980562
14.595,344.333,-0.980584
14.5967,344.349,-0.980599
14.5983,344.366,-0.980609
14.6,344.383,-0.98062
14.6017,344.399,-0.980633
14.6033,344.417,-0.980642
14.605,344.433,-0.980651
14.6067,344.45,-0.98067
14.6083,344.467,-0.980688
14.61,344.483,-0.9807
14.6117,344.5,-0.980721
14.6133,344.516,-0.980749
14.615,344.533,-0.98078
14.6167,344.55,-0.98082
14.6183,344.566,-0.980863
14.62,344.583,-0.980912
14.6217,344.599,-0.980957
14.6233,344.616,-0.980998
14.625,344.633,-0.981035
14.6267,344.649,-0.981062
14.6283,344.666,-0.981091
14.63,344.683,-0.981117
14.6317,344.699,-0.981141
14.6333,344.716,-0.981168
14.635,344.733,-0.9812
14.6367,344.749,-0.981236
14.6383,344.766,-0.981273
14.64,344.782,-0.981304
14.6417,344.799,-0.981329
14.6433,344.816,-0.98135
14.645,344.833,-0.981373
14.6467,344.849,-0.981393
14.6483,344.866,-0.981417
14.65,344.883,-0.981446
14.6517,344.899,-0.981477
14.6533,344.916,-0.98151
14.655,344.932,-0.98155
14.6567,344.949,-0.981597
14.6583,344.965,-0.981644
14.66,344.982,-0.981683
14.6617,344.999,-0.981724
14.6633,345.015,-0.981768
14.665,345.032,-0.981817
14.6667,345.049,-0.981861
14.6683,345.066,-0.981904
14.67,345.082,-0.981943
14.6717,345.099,-0.981984
14.6733,345.115,-0.982026
14.675,345.132,-0.982066
14.6767,345.149,-0.982113
14.6783,345.165,-0.982158
14.68,345.182,-0.9822
14.6817,345.198,-0.982243
14.6833,345.215,-0.982286
14.685,345.232,-0.982325
14.6867,345.248,-0.98236
14.6883,345.266,-0.982394
14.69,345.282,-0.982425
14.6917,345.299,-0.982459
14.6933,345.316,-0.98249
14.695,345.333,-0.982524
14.6967,345.349,-0.982559
14.6983,345.365,-0.982592
14.7,345.382,-0.982626
14.7017,345.399,-0.982659
14.7033,345.415,-0.982691
14.705,345.432,-0.98272
14.7067,345.449,-0.982743
14.7083,345.465,-0.982765
14.71,345.482,-0.982794
14.7117,345.499,-0.982824
14.7133,345.515,-0.982857
14.715,345.532,-0.982897
14.7167,345.549,-0.982935
14.7183,345.565,-0.982979
14.72,345.582,-0.98303
14.7217,345.599,-0.983079
14.7233,345.615,-0.983126
14.725,345.632,-0.983172
14.7267,345.648,-0.983211
14.7283,345.665,-0.983245
14.73,345.682,-0.98328
14.7317,345.699,-0.983322
14.7333,345.715,-0.98336
14.735,345.732,-0.983383
14.7367,345.749,-0.983407
14.7383,345.765,-0.98344
14.74,345.782,-0.98347
14.7417,345.798,-0.983504
14.7433,345.815,-0.983529
14.745,345.832,-0.983561
14.7467,345.848,-0.983603
14.7483,345.865,-0.983643
14.75,345.882,-0.983687
14.7517,345.898,-0.983733
14.7533,345.915,-0.983781
14.755,345.932,-0.983832
14.7567,345.948,-0.983877
14.7583,345.965,-0.983925
14.76,345.981,-0.983968
14.7617,345.998,-0.98401
14.7633,346.015,-0.984046
14.765,346.031,-0.984084
14.7667,346.048,-0.984133
14.7683,346.064,-0.984185
14.77,346.081,-0.984232
14.7717,346.098,-0.984275
14.7733,346.115,-0.984312
14.775,346.131,-0.984352
14.7767,346.148,-0.984391
14.7783,346.165,-0.984427
14.78,346.181,-0.984466
14.7817,346.198,-0.984505
14.7833,346.214,-0.984545
14.785,346.231,-0.984592
14.7867,346.248,-0.98463
14.7883,346.264,-0.98466
14.79,346.281,-0.98469
14.7917,346.298,-0.984715
14.7933,346.314,-0.98474
14.795,346.331,-0.984762
14.7967,346.348,-0.984781
14.7983,346.364,-0.984802
14.8,346.381,-0.98482
14.8017,346.397,-0.984844
14.8033,346.414,-0.984877
14.805,346.431,-0.984912
14.8067,346.447,-0.984952
14.8083,346.464,-0.984997
14.81,346.481,-0.985052
14.8117,346.497,-0.985106
14.8133,346.514,-0.985162
14.815,346.53,-0.985216
14.8167,346.547,-0.985277
14.8183,346.564,-0.98534
14.82,346.581,-0.985406
14.8217,346.597,-0.985469
14.8233,346.614,-0.985532
14.825,346.63,-0.985588
14.8267,346.647,-0.985639
14.8283,346.664,-0.985687
14.83,346.681,-0.985734
14.8317,346.697,-0.985777
14.8333,346.714,-0.985802
14.835,346.73,-0.985825
14.8367,346.747,-0.985844
14.8383,346.764,-0.985861
14.84,346.78,-0.985883
14.8417,346.797,-0.985903
14.8433,346.813,-0.985923
14.845,346.83,-0.985947
14.8467,346.847,-0.985982
14.8483,346.863,-0.986028
14.85,346.88,-0.986082
14.8517,346.897,-0.986134
14.8533,346.913,-0.986185
14.855,346.93,-0.986237
14.8567,346.947,-0.986278
14.8583,346.963,-0.98632
14.86,346.98,-0.986353
14.8617,346.997,-0.986386
14.8633,347.014,-0.986415
14.865,347.03,-0.986454
14.8667,347.047,-0.986496
14.8683,347.063,-0.986545
14.87,347.08,-0.986598
14.8717,347.097,-0.986657
14.8733,347.113,-0.986715
14.875,347.13,-0.986772
14.8767,347.147,-0.986834
14.8783,347.163,-0.986889
14.88,347.18,-0.98694
14.8817,347.197,-0.986991
14.8833,347.214,-0.98704
14.885,347.23,-0.987094
14.8867,347.247,-0.987152
14.8883,347.264,-0.987196
14.89,347.28,-0.987237
14.8917,347.297,-0.987275
14.8933,347.313,-0.987315
14.895,347.33,-0.987349
14.8967,347.347,-0.987371
14.8983,347.363,-0.987389
14.9,347.38,-0.987414
14.9017,347.396,-0.987446
14.9033,347.413,-0.987482
14.905,347.43,-0.987527
14.9067,347.447,-0.987572
14.9083,347.463,-0.987616
14.91,347.48,-0.987667
14.9117,347.496,-0.98772
14.9133,347.513,-0.987773
14.915,347.53,-0.98781
14.9167,347.547,-0.987846
14.9183,347.563,-0.987884
14.92,347.58,-0.987926
14.9217,347.597,-0.987965
14.9233,347.613,-0.988005
14.925,347.63,-0.98804
14.9267,347.647,-0.98809
14.9283,347.663,-0.988145
14.93,347.68,-0.988193
14.9317,347.697,-0.988239
14.9333,347.713,-0.98828
14.935,347.73,-0.988322
14.9367,347.747,-0.988372
14.9383,347.763,-0.988422
14.94,347.78,-0.988468
14.9417,347.796,-0.988514
14.9433,347.813,-0.988558
14.945,347.829,-0.988596
14.9467,347.846,-0.98865
14.9483,347.863,-0.9887
14.95,347.879,-0.988748
14.9517,347.896,-0.988796
14.9533,347.913,-0.988846
14.955,347.929,-0.988889
14.9567,347.946,-0.988933
14.9583,347.963,-0.988971
14.96,347.98,-0.989002
14.9617,347.996,-0.989037
14.9633,348.013,-0.98907
14.965,348.029,-0.989105
14.9667,348.046,-0.989147
14.9683,348.063,-0.989193
14.97,348.079,-0.989242
14.9717,348.096,-0.989307
14.9733,348.113,-0.989377
14.975,348.13,-0.989483
14.9767,348.146,-0.98955
14.9783,348.163,-0.989611
14.98,348.179,-0.989666
14.9817,348.196,-0.98971
14.9833,348.212,-0.98974
14.985,348.229,-0.989767
14.9867,348.246,-0.989789
14.9883,348.262,-0.989807
14.99,348.279,-0.989832
14.9917,348.295,-0.989857
14.9933,348.312,-0.989891
14.995,348.329,-0.989929
14.9967,348.346,-0.989979
14.9983,348.362,-0.990044
15,348.379,-0.9901
15.0017,348.395,-0.990158
15.0033,348.412,-0.990213
15.005,348.428,-0.990266
15.0067,348.445,-0.990321
15.0083,348.462,-0.990369
15.01,348.479,-0.990409
15.0117,348.495,-0.990448
15.0133,348.512,-0.990479
15.015,348.528,-0.990514
15.0167,348.545,-0.990551
15.0183,348.562,-0.990576
15.02,348.578,-0.990607
15.0217,348.595,-0.990643
15.0233,348.612,-0.990681
15.025,348.628,-0.990722
15.0267,348.645,-0.990771
15.0283,348.661,-0.990819
15.03,348.678,-0.990871
15.0317,348.695,-0.990927
15.0333,348.711,-0.990981
15.035,348.728,-0.991035
15.0367,348.745,-0.991088
15.0383,348.761,-0.991142
15.04,348.778,-0.991191
15.0417,348.795,-0.991244
15.0433,348.811,-0.991298
15.045,348.828,-0.99135
15.0467,348.844,-0.991411
15.0483,348.861,-0.991471
15.05,348.878,-0.991539
15.0517,348.894,-0.991601
15.0533,348.911,-0.991653
15.055,348.928,-0.991693
15.0567,348.945,-0.991727
15.0583,348.961,-0.991756
15.06,348.978,-0.991772
15.0617,348.994,-0.991785
15.0633,349.011,-0.991805
15.065,349.028,-0.991832
15.0667,349.045,-0.991853
15.0683,349.061,-0.991885
15.07,349.078,-0.991918
15.0717,349.095,-0.991945
15.0733,349.111,-0.991982
15.075,349.128,-0.992025
15.0767,349.145,-0.992063
15.0783,349.161,-0.992097
15.08,349.178,-0.992136
15.0817,349.195,-0.992176
15.0833,349.211,-0.992213
15.085,349.228,-0.992253
15.0867,349.245,-0.992301
15.0883,349.261,-0.992353
15.09,349.278,-0.992404
15.0917,349.295,-0.992462
15.0933,349.311,-0.992529
15.095,349.328,-0.992591
15.0967,349.345,-0.992648
15.0983,349.361,-0.992698
15.1,349.378,-0.992741
15.1017,349.395,-0.992778
15.1033,349.411,-0.992819
15.105,349.428,-0.992867
15.1067,349.445,-0.992916
15.1083,349.461,-0.992969
15.11,349.478,-0.993027
15.1117,349.495,-0.993091
15.1133,349.512,-0.993161
15.115,349.528,-0.993231
15.1167,349.545,-0.9933
15.1183,349.561,-0.993366
15.12,349.578,-0.993428
15.1217,349.594,-0.993485
15.1233,349.611,-0.99353
15.125,349.628,-0.993572
15.1267,349.644,-0.993608
15.1283,349.661,-0.993636
15.13,349.678,-0.993665
15.1317,349.695,-0.9937
15.1333,349.711,-0.993745
15.135,349.728,-0.9938
15.1367,349.745,-0.993866
15.1383,349.761,-0.993935
15.14,349.778,-0.994002
15.1417,349.795,-0.994073
15.1433,349.811,-0.994145
15.145,349.828,-0.994221
15.1467,349.845,-0.994291
15.1483,349.861,-0.994343
15.15,349.878,-0.994395
15.1517,349.894,-0.994446
15.1533,349.911,-0.994496
15.155,349.928,-0.994539
15.1567,349.945,-0.994572
15.1583,349.961,-0.994604
15.16,349.978,-0.994634
15.1617,349.995,-0.994671
15.1633,350.012,-0.994708
15.165,350.028,-0.994737
15.1667,350.045,-0.994762
15.1683,350.061,-0.994798
15.17,350.078,-0.994833
15.1717,350.095,-0.994869
15.1733,350.111,-0.994908
15.175,350.127,-0.99495
15.1767,350.144,-0.994994
15.1783,350.161,-0.995032
15.18,350.177,-0.995061
15.1817,350.194,-0.995087
15.1833,350.211,-0.99511
15.185,350.227,-0.995133
15.1867,350.244,-0.995153
15.1883,350.261,-0.995185
15.19,350.277,-0.995222
15.1917,350.294,-0.995265
15.1933,350.311,-0.995319
15.195,350.327,-0.995379
15.1967,350.344,-0.99544
15.1983,350.36,-0.995503
15.2,350.377,-0.995566
15.2017,350.394,-0.995628
15.2033,350.41,-0.995684
15.205,350.427,-0.995733
15.2067,350.444,-0.995781
15.2083,350.461,-0.995825
15.21,350.477,-0.995862
15.2117,350.494,-0.995896
15.2133,350.511,-0.995925
15.215,350.527,-0.99595
15.2167,350.544,-0.995976
15.2183,350.56,-0.996012
15.22,350.577,-0.996056
15.2217,350.594,-0.99609
15.2233,350.611,-0.996135
15.225,350.627,-0.996183
15.2267,350.644,-0.996226
15.2283,350.66,-0.996277
15.23,350.677,-0.99633
15.2317,350.694,-0.996398
15.2333,350.71,-0.996467
15.235,350.727,-0.996537
15.2367,350.744,-0.996594
15.2383,350.76,-0.996648
15.24,350.777,-0.996687
15.2417,350.794,-0.996725
15.2433,350.81,-0.996762
15.245,350.827,-0.996796
15.2467,350.844,-0.996823
15.2483,350.86,-0.996843
15.25,350.877,-0.996863
15.2517,350.893,-0.996889
15.2533,350.91,-0.996919
15.255,350.927,-0.996939
15.2567,350.943,-0.996964
15.2583,350.959,-0.996993
15.26,350.976,-0.997023
15.2617,350.993,-0.997059
15.2633,351.009,-0.997104
15.265,351.026,-0.997162
15.2667,351.043,-0.997216
15.2683,351.059,-0.997266
15.27,351.076,-0.997321
15.2717,351.093,-0.997373
15.2733,351.11,-0.99742
15.275,351.126,-0.997464
15.2767,351.143,-0.997496
15.2783,351.159,-0.997526
15.28,351.176,-0.997557
15.2817,351.193,-0.997581
15.2833,351.209,-0.997612
15.285,351.226,-0.997647
15.2867,351.243,-0.997683
15.2883,351.259,-0.997726
15.29,351.276,-0.997769
15.2917,351.292,-0.997812
15.2933,351.309,-0.997864
15.295,351.326,-0.997915
15.2967,351.343,-0.997963
15.2983,351.359,-0.998012
15.3,351.376,-0.998063
15.3017,351.393,-0.998112
15.3033,351.409,-0.998164
15.305,351.426,-0.998208
15.3067,351.443,-0.998255
15.3083,351.459,-0.998295
15.31,351.476,-0.998333
15.3117,351.493,-0.998378
15.3133,351.509,-0.998423
15.315,351.526,-0.998463
15.3167,351.543,-0.998497
15.3183,351.559,-0.998531
15.32,351.576,-0.998552
15.3217,351.592,-0.998579
15.3233,351.608,-0.998616
15.325,351.625,-0.998657
15.3267,351.642,-0.998692
15.3283,351.659,-0.998741
15.33,351.676,-0.998802
15.3317,351.692,-0.998866
15.3333,351.709,-0.998936
15.335,351.725,-0.999023
15.3367,351.742,-0.999096
15.3383,351.759,-0.999153
15.34,351.775,-0.999203
15.3417,351.792,-0.999243
15.3433,351.809,-0.999281
15.345,351.826,-0.999306
15.3467,351.842,-0.999324
15.3483,351.859,-0.999344
15.35,351.876,-0.99936
15.3517,351.892,-0.999379
15.3533,351.908,-0.9994
15.355,351.925,-0.999423
15.3567,351.942,-0.999451
15.3583,351.958,-0.999484
15.36,351.975,-0.999522
15.3617,351.992,-0.999558
15.3633,352.009,-0.999592
15.365,352.025,-0.999634
15.3667,352.042,-0.999679
15.3683,352.059,-0.999716
15.37,352.075,-0.999755
15.3717,352.092,-0.999798
15.3733,352.108,-0.999838
15.375,352.125,-0.999869
15.3767,352.142,-0.999895
15.3783,352.158,-0.999917
15.38,352.175,-0.999942
15.3817,352.191,-0.999973
15.3833,352.208,-1.00001
15.385,352.225,-1.00005
15.3867,352.241,-1.0001
15.3883,352.258,-1.00016
15.39,352.275,-1.00033
15.3917,352.292,-1.00056
15.3933,352.308,-1.00075
15.395,352.325,-1.00086
15.3967,352.342,-1.00095
15.3983,352.358,-1.00101
15.4,352.375,-1.00105
15.4017,352.391,-1.00108
15.4033,352.408,-1.00111
15.405,352.424,-1.00114
15.4067,352.441,-1.00115
15.4083,352.458,-1.00116
15.41,352.475,-1.00118
15.4117,352.492,-1.00121
15.4133,352.508,-1.00123
15.415,352.525,-1.00126
15.4167,352.541,-1.00129
15.4183,352.558,-1.00132
15.42,352.575,-1.00136
15.4217,352.591,-1.00139
15.4233,352.608,-1.00143
15.425,352.625,-1.00147
15.4267,352.641,-1.00152
15.4283,352.658,-1.00157
15.43,352.674,-1.00161
15.4317,352.691,-1.00166
15.4333,352.708,-1.0017
15.435,352.725,-1.00174
15.4367,352.741,-1.00178
15.4383,352.758,-1.00181
15.44,352.775,-1.00184
15.4417,352.791,-1.00187
15.4433,352.808,-1.00191
15.445,352.824,-1.00195
15.4467,352.841,-1.00199
15.4483,352.858,-1.00204
15.45,352.875,-1.0021
15.4517,352.891,-1.00216
15.4533,352.908,-1.00223
15.455,352.925,-1.00229
15.4567,352.941,-1.00236
15.4583,352.958,-1.00242
15.46,352.975,-1.00247
15.4617,352.991,-1.00253
15.4633,353.008,-1.00258
15.465,353.025,-1.00263
15.4667,353.041,-1.00266
15.4683,353.058,-1.0027
15.47,353.074,-1.00274
15.4717,353.092,-1.00277
15.4733,353.108,-1.00281
15.475,353.125,-1.00284
15.4767,353.141,-1.00288
15.4783,353.158,-1.00291
15.48,353.174,-1.00295
15.4817,353.191,-1.00299
15.4833,353.208,-1.00304
15.485,353.224,-1.00308
15.4867,353.241,-1.00311
15.4883,353.258,-1.00316
15.49,353.274,-1.0032
15.4917,353.291,-1.00324
15.4933,353.308,-1.00328
15.495,353.324,-1.00332
15.4967,353.341,-1.00336
15.4983,353.357,-1.00341
15.5,353.374,-1.00345
15.5017,353.391,-1.00349
15.5033,353.408,-1.00352
15.505,353.424,-1.00357
15.5067,353.441,-1.0036
15.5083,353.457,-1.00365
15.51,353.474,-1.0037
15.5117,353.491,-1.00375
15.5133,353.507,-1.00382
15.515,353.524,-1.00392
15.5167,353.541,-1.004
15.5183,353.557,-1.00406
15.52,353.574,-1.00413
15.5217,353.591,-1.00419
15.5233,353.607,-1.00424
15.525,353.624,-1.00427
15.5267,353.641,-1.0043
15.5283,353.657,-1.00432
15.53,353.674,-1.00435
15.5317,353.691,-1.00437
15.5333,353.707,-1.00439
15.535,353.724,-1.00442
15.5367,353.741,-1.00445
15.5383,353.757,-1.00449
15.54,353.774,-1.00452
15.5417,353.791,-1.00455
15.5433,353.807,-1.00458
15.545,353.824,-1.00461
15.5467,353.84,-1.00464
15.5483,353.857,-1.00466
15.55,353.874,-1.0047
15.5517,353.89,-1.00474
15.5533,353.907,-1.00479
15.555,353.924,-1.00485
15.5567,353.94,-1.00494
15.5583,353.957,-1.005
15.56,353.973,-1.00506
15.5617,353.99,-1.00512
15.5633,354.007,-1.00518
15.565,354.023,-1.00523
15.5667,354.04,-1.00527
15.5683,354.057,-1.0053
15.57,354.073,-1.00532
15.5717,354.09,-1.00532
15.5733,354.107,-1.00534
15.575,354.123,-1.00534
15.5767,354.14,-1.00535
15.5783,354.157,-1.00536
15.58,354.173,-1.00538
15.5817,354.19,-1.0054
15.5833,354.207,-1.00542
15.585,354.223,-1.00546
15.5867,354.24,-1.00551
15.5883,354.257,-1.00557
15.59,354.273,-1.00562
15.5917,354.29,-1.00568
15.5933,354.306,-1.00574
15.595,354.323,-1.0058
15.5967,354.34,-1.00585
15.5983,354.356,-1.00589
15.6,354.373,-1.00592
15.6017,354.389,-1.00595
15.6033,354.406,-1.00598
15.605,354.423,-1.00601
15.6067,354.439,-1.00604
15.6083,354.456,-1.00608
15.61,354.473,-1.00612
15.6117,354.489,-1.00616
15.6133,354.506,-1.00619
15.615,354.523,-1.00623
15.6167,354.54,-1.00626
15.6183,354.556,-1.00628
15.62,354.573,-1.0063
15.6217,354.589,-1.00633
15.6233,354.606,-1.00636
15.625,354.623,-1.00639
15.6267,354.639,-1.00642
15.6283,354.656,-1.00644
15.63,354.672,-1.00647
15.6317,354.69,-1.00649
15.6333,354.706,-1.0065
15.635,354.723,-1.00651
15.6367,354.739,-1.00651
15.6383,354.756,-1.00653
15.64,354.772,-1.00656
15.6417,354.789,-1.00659
15.6433,354.806,-1.00662
15.645,354.822,-1.00666
15.6467,354.839,-1.0067
15.6483,354.856,-1.00676
15.65,354.872,-1.00681
15.6517,354.889,-1.00687
15.6533,354.906,-1.00692
15.655,354.922,-1.00697
15.6567,354.939,-1.00703
15.6583,354.956,-1.00709
15.66,354.972,-1.00715
15.6617,354.989,-1.0072
15.6633,355.005,-1.00726
15.665,355.022,-1.0073
15.6667,355.039,-1.00733
15.6683,355.055,-1.00737
15.67,355.072,-1.0074
15.6717,355.089,-1.00743
15.6733,355.105,-1.00748
15.675,355.122,-1.00752
15.6767,355.139,-1.00757
15.6783,355.155,-1.00762
15.68,355.172,-1.00766
15.6817,355.189,-1.00771
15.6833,355.205,-1.00774
15.685,355.222,-1.00777
15.6867,355.239,-1.00778
15.6883,355.255,-1.0078
15.69,355.272,-1.0078
15.6917,355.289,-1.00783
15.6933,355.305,-1.00785
15.695,355.322,-1.00788
15.6967,355.339,-1.00792
15.6983,355.355,-1.00796
15.7,355.372,-1.00801
15.7017,355.389,-1.00806
15.7033,355.405,-1.0081
15.705,355.422,-1.00815
15.7067,355.438,-1.00819
15.7083,355.455,-1.00823
15.71,355.471,-1.00826
15.7117,355.488,-1.00829
15.7133,355.505,-1.00832
15.715,355.521,-1.00834
15.7167,355.538,-1.00838
15.7183,355.555,-1.00843
15.72,355.571,-1.00848
15.7217,355.588,-1.00854
15.7233,355.605,-1.0086
15.725,355.622,-1.00865
15.7267,355.638,-1.00869
15.7283,355.655,-1.00873
15.73,355.672,-1.00875
15.7317,355.688,-1.00878
15.7333,355.705,-1.0088
15.735,355.722,-1.00882
15.7367,355.738,-1.00884
15.7383,355.755,-1.00885
15.74,355.771,-1.00888
15.7417,355.788,-1.0089
15.7433,355.804,-1.00893
15.745,355.821,-1.00897
15.7467,355.838,-1.00901
15.7483,355.855,-1.00906
15.75,355.871,-1.0091
15.7517,355.888,-1.00915
15.7533,355.904,-1.00921
15.755,355.921,-1.00927
15.7567,355.938,-1.00932
15.7583,355.955,-1.00937
15.76,355.971,-1.00943
15.7617,355.988,-1.00949
15.7633,356.004,-1.00953
15.765,356.021,-1.00958
15.7667,356.038,-1.00964
15.7683,356.054,-1.0097
15.77,356.071,-1.00977
15.7717,356.088,-1.00989
15.7733,356.105,-1.01
15.775,356.121,-1.01007
15.7767,356.138,-1.01013
15.7783,356.154,-1.01019
15.78,356.171,-1.01022
15.7817,356.188,-1.01024
15.7833,356.205,-1.01026
15.785,356.221,-1.01027
15.7867,356.238,-1.01028
15.7883,356.254,-1.0103
15.79,356.271,-1.01032
15.7917,356.287,-1.01034
15.7933,356.304,-1.01036
15.795,356.321,-1.01038
15.7967,356.337,-1.01041
15.7983,356.354,-1.01043
15.8,356.371,-1.01045
15.8017,356.388,-1.01047
15.8033,356.404,-1.0105
15.805,356.421,-1.01054
15.8067,356.438,-1.01058
15.8083,356.454,-1.01063
15.81,356.471,-1.01069
15.8117,356.487,-1.01075
15.8133,356.504,-1.0108
15.815,356.52,-1.01085
15.8167,356.537,-1.0109
15.8183,356.554,-1.01094
15.82,356.57,-1.01097
15.8217,356.587,-1.011
15.8233,356.604,-1.01103
15.825,356.62,-1.01105
15.8267,356.637,-1.01108
15.8283,356.654,-1.01111
15.83,356.67,-1.01114
15.8317,356.687,-1.01119
15.8333,356.704,-1.01125
15.835,356.72,-1.0113
15.8367,356.737,-1.01136
15.8383,356.753,-1.01141
15.84,356.77,-1.01146
15.8417,356.787,-1.0115
15.8433,356.803,-1.01154
15.845,356.82,-1.01157
15.8467,356.837,-1.0116
15.8483,356.854,-1.01163
15.85,356.87,-1.01166
15.8517,356.887,-1.01168
15.8533,356.904,-1.01171
15.855,356.921,-1.01172
15.8567,356.937,-1.01175
15.8583,356.953,-1.01177
15.86,356.97,-1.01179
15.8617,356.987,-1.01181
15.8633,357.003,-1.01184
15.865,357.02,-1.01186
15.8667,357.037,-1.01189
15.8683,357.053,-1.01191
15.87,357.07,-1.01192
15.8717,357.086,-1.01195
15.8733,357.103,-1.01198
15.875,357.12,-1.01203
15.8767,357.137,-1.01207
15.8783,357.153,-1.01211
15.88,357.17,-1.01214
15.8817,357.187,-1.01217
15.8833,357.203,-1.01221
15.885,357.22,-1.01224
15.8867,357.237,-1.01228
15.8883,357.253,-1.01231
15.89,357.27,-1.01234
15.8917,357.286,-1.01239
15.8933,357.303,-1.01245
15.895,357.32,-1.01253
15.8967,357.336,-1.01259
15.8983,357.353,-1.01265
15.9,357.37,-1.01271
15.9017,357.386,-1.01277
15.9033,357.403,-1.01283
15.905,357.42,-1.01287
15.9067,357.436,-1.01291
15.9083,357.453,-1.01295
15.91,357.47,-1.01299
15.9117,357.486,-1.01304
15.9133,357.503,-1.01308
15.915,357.519,-1.01312
15.9167,357.536,-1.01316
15.9183,357.553,-1.0132
15.92,357.569,-1.01325
15.9217,357.586,-1.0133
15.9233,357.603,-1.01335
15.925,357.619,-1.0134
15.9267,357.636,-1.01345
15.9283,357.652,-1.01349
15.93,357.669,-1.01353
15.9317,357.686,-1.01358
15.9333,357.702,-1.01363
15.935,357.719,-1.01369
15.9367,357.736,-1.01374
15.9383,357.752,-1.01381
15.94,357.769,-1.01388
15.9417,357.786,-1.01393
15.9433,357.803,-1.01398
15.945,357.819,-1.01403
15.9467,357.836,-1.01407
15.9483,357.852,-1.01411
15.95,357.869,-1.01415
15.9517,357.886,-1.01418
15.9533,357.902,-1.01422
15.955,357.919,-1.01426
15.9567,357.936,-1.01429
15.9583,357.952,-1.01433
15.96,357.969,-1.01436
15.9617,357.986,-1.0144
15.9633,358.002,-1.01443
15.965,358.019,-1.01446
15.9667,358.035,-1.0145
15.9683,358.052,-1.01452
15.97,358.069,-1.01455
15.9717,358.086,-1.01459
15.9733,358.102,-1.01462
15.975,358.119,-1.01465
15.9767,358.135,-1.01469
15.9783,358.152,-1.01473
15.98,358.169,-1.01478
15.9817,358.185,-1.01483
15.9833,358.202,-1.01487
15.985,358.219,-1.01491
15.9867,358.235,-1.01495
15.9883,358.252,-1.01499
15.99,358.269,-1.01504
15.9917,358.285,-1.01508
15.9933,358.302,-1.01512
15.995,358.318,-1.01517
15.9967,358.335,-1.01521
15.9983,358.352,-1.01525
16,358.369,-1.01529
16.0017,358.385,-1.01533
16.0033,358.402,-1.01537
16.005,358.419,-1.0154
16.0067,358.435,-1.01543
16.0083,358.452,-1.01547
16.01,358.469,-1.01552
16.0117,358.485,-1.01557
16.0133,358.502,-1.01561
16.015,358.519,-1.01565
16.0167,358.535,-1.0157
16.0183,358.552,-1.01575
16.02,358.568,-1.01581
16.0217,358.585,-1.01586
16.0233,358.602,-1.0159
16.025,358.618,-1.01595
16.0267,358.635,-1.016
16.0283,358.652,-1.01604
16.03,358.668,-1.01609
16.0317,358.685,-1.01613
16.0333,358.701,-1.01617
16.035,358.718,-1.01621
16.0367,358.735,-1.01625
16.0383,358.752,-1.01629
16.04,358.768,-1.01632
16.0417,358.784,-1.01635
16.0433,358.801,-1.01638
16.045,358.818,-1.01641
16.0467,358.835,-1.01643
16.0483,358.851,-1.01646
16.05,358.868,-1.0165
16.0517,358.884,-1.01655
16.0533,358.901,-1.01659
16.055,358.918,-1.01664
16.0567,358.935,-1.0167
16.0583,358.951,-1.01676
16.06,358.968,-1.01682
16.0617,358.985,-1.01688
16.0633,359.001,-1.01693
16.065,359.018,-1.01698
16.0667,359.035,-1.01702
16.0683,359.051,-1.01706
16.07,359.068,-1.01709
16.0717,359.084,-1.01711
16.0733,359.101,-1.01714
16.075,359.117,-1.01716
16.0767,359.134,-1.01719
16.0783,359.15,-1.01721
16.08,359.167,-1.01722
16.0817,359.184,-1.01723
16.0833,359.2,-1.01724
16.085,359.217,-1.01725
16.0867,359.234,-1.01724
16.0883,359.251,-1.01724
16.09,359.267,-1.01723
16.0917,359.284,-1.01723
16.0933,359.3,-1.01724
16.095,359.317,-1.01726
16.0967,359.334,-1.01729
16.0983,359.351,-1.01733
16.1,359.367,-1.01736
16.1017,359.384,-1.0174
16.1033,359.4,-1.01745
16.105,359.417,-1.01751
16.1067,359.433,-1.01756
16.1083,359.45,-1.01761
16.11,359.467,-1.01766
16.1117,359.483,-1.0177
16.1133,359.5,-1.01775
16.115,359.517,-1.01779
16.1167,359.534,-1.01783
16.1183,359.55,-1.01787
16.12,359.567,-1.01791
16.1217,359.584,-1.01794
16.1233,359.601,-1.01797
16.125,359.617,-1.01801
16.1267,359.634,-1.01806
16.1283,359.651,-1.0181
16.13,359.667,-1.01815
16.1317,359.684,-1.01819
16.1333,359.7,-1.01824
16.135,359.717,-1.01828
16.1367,359.734,-1.01832
16.1383,359.75,-1.01836
16.14,359.767,-1.01839
16.1417,359.783,-1.01843
16.1433,359.8,-1.01847
16.145,359.816,-1.01852
16.1467,359.833,-1.01857
16.1483,359.85,-1.01861
16.15,359.867,-1.01866
16.1517,359.883,-1.01869
16.1533,359.9,-1.01871
16.155,359.917,-1.01873
16.1567,359.933,-1.01874
16.1583,359.95,-1.01876
16.16,359.967,-1.01878
16.1617,359.983,-1.0188
16.1633,360,-1.01883
16.165,360.016,-1.01885
16.1667,360.033,-1.01889
16.1683,360.049,-1.01893
16.17,360.066,-1.01898
16.1717,360.082,-1.01902
16.1733,360.099,-1.01907
16.175,360.116,-1.01911
16.1767,360.133,-1.01916
16.1783,360.149,-1.01921
16.18,360.166,-1.01926
16.1817,360.182,-1.0193
16.1833,360.199,-1.01933
16.185,360.216,-1.01937
16.1867,360.232,-1.01941
16.1883,360.249,-1.01945
16.19,360.266,-1.01948
16.1917,360.283,-1.0195
16.1933,360.299,-1.01953
16.195,360.316,-1.01955
16.1967,360.333,-1.01957
16.1983,360.349,-1.01958
16.2,360.366,-1.01958
16.2017,360.382,-1.01959
16.2033,360.399,-1.01959
16.205,360.416,-1.0196
16.2067,360.433,-1.01961
16.2083,360.449,-1.01963
16.21,360.465,-1.01964
16.2117,360.482,-1.01967
16.2133,360.499,-1.0197
16.215,360.516,-1.01973
16.2167,360.532,-1.01977
16.2183,360.549,-1.01982
16.22,360.566,-1.01987
16.2217,360.582,-1.01991
16.2233,360.599,-1.01996
16.225,360.616,-1.02
16.2267,360.633,-1.02004
16.2283,360.649,-1.02008
16.23,360.666,-1.02012
16.2317,360.682,-1.02014
16.2333,360.699,-1.02017
16.235,360.715,-1.0202
16.2367,360.732,-1.02022
16.2383,360.748,-1.02026
16.24,360.765,-1.0203
16.2417,360.782,-1.02034
16.2433,360.798,-1.02039
16.245,360.815,-1.02045
16.2467,360.831,-1.02051
16.2483,360.848,-1.02057
16.25,360.865,-1.02063
16.2517,360.882,-1.02069
16.2533,360.898,-1.02075
16.255,360.915,-1.0208
16.2567,360.932,-1.02085
16.2583,360.949,-1.02089
16.26,360.965,-1.02093
16.2617,360.982,-1.02095
16.2633,360.999,-1.02097
16.265,361.015,-1.021
16.2667,361.032,-1.02102
16.2683,361.048,-1.02105
16.27,361.065,-1.02108
16.2717,361.081,-1.02111
16.2733,361.098,-1.02113
16.275,361.115,-1.02118
16.2767,361.131,-1.02122
16.2783,361.148,-1.02126
16.28,361.164,-1.0213
16.2817,361.181,-1.02135
16.2833,361.198,-1.02139
16.285,361.215,-1.02143
16.2867,361.231,-1.02147
16.2883,361.248,-1.02149
16.29,361.264,-1.02152
16.2917,361.281,-1.02154
16.2933,361.298,-1.02157
16.295,361.314,-1.02161
16.2967,361.331,-1.02165
16.2983,361.347,-1.0217
16.3,361.365,-1.02175
16.3017,361.381,-1.0218
16.3033,361.397,-1.02184
16.305,361.414,-1.02188
16.3067,361.431,-1.02193
16.3083,361.447,-1.02196
16.31,361.464,-1.022
16.3117,361.481,-1.02203
16.3133,361.497,-1.02207
16.315,361.514,-1.0221
16.3167,361.53,-1.02214
16.3183,361.547,-1.02217
16.32,361.564,-1.02219
16.3217,361.581,-1.02223
16.3233,361.597,-1.02227
16.325,361.614,-1.02232
16.3267,361.63,-1.02237
16.3283,361.647,-1.02242
16.33,361.664,-1.02245
16.3317,361.681,-1.02249
16.3333,361.697,-1.02252
16.335,361.714,-1.02254
16.3367,361.731,-1.02257
16.3383,361.747,-1.02259
16.34,361.764,-1.02261
16.3417,361.78,-1.02263
16.3433,361.797,-1.02265
16.345,361.814,-1.02268
16.3467,361.83,-1.02272
16.3483,361.847,-1.02276
16.35,361.863,-1.02279
16.3517,361.88,-1.02282
16.3533,361.896,-1.02285
16.355,361.913,-1.0229
16.3567,361.929,-1.02293
16.3583,361.946,-1.02298
16.36,361.963,-1.02302
16.3617,361.98,-1.02307
16.3633,361.996,-1.02311
16.365,362.013,-1.02316
16.3667,362.03,-1.0232
16.3683,362.046,-1.02325
16.37,362.063,-1.0233
16.3717,362.079,-1.02336
16.3733,362.096,-1.02343
16.375,362.113,-1.02347
16.3767,362.13,-1.02352
16.3783,362.146,-1.02356
16.38,362.163,-1.02361
16.3817,362.18,-1.02365
16.3833,362.196,-1.02368
16.385,362.213,-1.02369
16.3867,362.229,-1.02371
16.3883,362.246,-1.02373
16.39,362.262,-1.02376
16.3917,362.279,-1.02379
16.3933,362.295,-1.02383
16.395,362.312,-1.02387
16.3967,362.329,-1.02392
16.3983,362.345,-1.02396
16.4,362.362,-1.02399
16.4017,362.379,-1.02402
16.4033,362.396,-1.02404
16.405,362.412,-1.02406
16.4067,362.429,-1.02407
16.4083,362.446,-1.02409
16.41,362.462,-1.02411
16.4117,362.479,-1.02414
16.4133,362.495,-1.02416
16.415,362.512,-1.02419
16.4167,362.529,-1.02422
16.4183,362.546,-1.02427
16.42,362.562,-1.02432
16.4217,362.579,-1.02436
16.4233,362.595,-1.0244
16.425,362.612,-1.02444
16.4267,362.629,-1.02448
16.4283,362.645,-1.02452
16.43,362.662,-1.02455
16.4317,362.678,-1.02458
16.4333,362.695,-1.02461
16.435,362.712,-1.02463
16.4367,362.728,-1.02466
16.4383,362.745,-1.0247
16.44,362.762,-1.02473
16.4417,362.778,-1.02476
16.4433,362.795,-1.0248
16.445,362.812,-1.02484
16.4467,362.828,-1.02488
16.4483,362.845,-1.02493
16.45,362.862,-1.02498
16.4517,362.879,-1.02502
16.4533,362.895,-1.02506
16.455,362.911,-1.02509
16.4567,362.928,-1.02511
16.4583,362.945,-1.02511
16.46,362.961,-1.02511
16.4617,362.978,-1.02511
16.4633,362.995,-1.02513
16.465,363.011,-1.02515
16.4667,363.028,-1.02518
16.4683,363.044,-1.02522
16.47,363.061,-1.02525
16.4717,363.078,-1.02529
16.4733,363.094,-1.02533
16.475,363.111,-1.02537
16.4767,363.128,-1.02541
16.4783,363.144,-1.02544
16.48,363.161,-1.02548
16.4817,363.178,-1.02552
16.4833,363.194,-1.02557
16.485,363.211,-1.02561
16.4867,363.228,-1.02567
16.4883,363.244,-1.02572
16.49,363.261,-1.02578
16.4917,363.278,-1.02582
16.4933,363.294,-1.02586
16.495,363.311,-1.02589
16.4967,363.327,-1.02592
16.4983,363.344,-1.02594
16.5,363.361,-1.02596
16.5017,363.377,-1.02596
16.5033,363.395,-1.02596
16.505,363.411,-1.02596
16.5067,363.427,-1.02596
16.5083,363.444,-1.02597
16.51,363.461,-1.02599
16.5117,363.477,-1.02601
16.5133,363.494,-1.02603
16.515,363.511,-1.02606
16.5167,363.527,-1.0261
16.5183,363.544,-1.02614
16.52,363.561,-1.02618
16.5217,363.578,-1.02622
16.5233,363.594,-1.02626
16.525,363.611,-1.0263
16.5267,363.627,-1.02635
16.5283,363.644,-1.0264
16.53,363.661,-1.02644
16.5317,363.677,-1.02649
16.5333,363.694,-1.02653
16.535,363.711,-1.02657
16.5367,363.727,-1.02661
16.5383,363.744,-1.02664
16.54,363.761,-1.02667
16.5417,363.777,-1.0267
16.5433,363.794,-1.02672
16.545,363.81,-1.02674
16.5467,363.827,-1.02677
16.5483,363.844,-1.0268
16.55,363.861,-1.02682
16.5517,363.877,-1.02685
16.5533,363.894,-1.02688
16.555,363.911,-1.02692
16.5567,363.927,-1.02696
16.5583,363.944,-1.027
16.56,363.96,-1.02705
16.5617,363.977,-1.0271
16.5633,363.994,-1.02715
16.565,364.011,-1.0272
16.5667,364.027,-1.02724
16.5683,364.044,-1.02729
16.57,364.06,-1.02734
16.5717,364.077,-1.02738
16.5733,364.094,-1.02741
16.575,364.11,-1.02744
16.5767,364.127,-1.02747
16.5783,364.143,-1.02751
16.58,364.16,-1.02754
16.5817,364.177,-1.02757
16.5833,364.194,-1.0276
16.585,364.21,-1.02763
16.5867,364.227,-1.02766
16.5883,364.243,-1.02769
16.59,364.26,-1.02771
16.5917,364.276,-1.02773
16.5933,364.293,-1.02776
16.595,364.31,-1.0278
16.5967,364.327,-1.02784
16.5983,364.343,-1.02789
16.6,364.36,-1.02794
16.6017,364.377,-1.028
16.6033,364.393,-1.02806
16.605,364.41,-1.02811
16.6067,364.427,-1.02815
16.6083,364.443,-1.02819
16.61,364.46,-1.02823
16.6117,364.477,-1.02828
16.6133,364.493,-1.02832
16.615,364.51,-1.02836
16.6167,364.527,-1.02839
16.6183,364.543,-1.02842
16.62,364.56,-1.02845
16.6217,364.577,-1.02848
16.6233,364.593,-1.0285
16.625,364.61,-1.02851
16.6267,364.626,-1.02853
16.6283,364.643,-1.02854
16.63,364.66,-1.02856
16.6317,364.677,-1.02861
16.6333,364.693,-1.02865
16.635,364.71,-1.02869
16.6367,364.726,-1.02873
16.6383,364.743,-1.02877
16.64,364.759,-1.02881
16.6417,364.776,-1.02884
16.6433,364.792,-1.02888
16.645,364.809,-1.02892
16.6467,364.826,-1.02896
16.6483,364.843,-1.029
16.65,364.86,-1.02906
16.6517,364.876,-1.02911
16.6533,364.893,-1.02916
16.655,364.91,-1.0292
16.6567,364.927,-1.02924
16.6583,364.943,-1.02929
16.66,364.96,-1.02933
16.6617,364.977,-1.02936
16.6633,364.993,-1.0294
16.665,365.01,-1.02943
16.6667,365.027,-1.02946
16.6683,365.043,-1.02948
16.67,365.06,-1.02951
16.6717,365.076,-1.02953
16.6733,365.093,-1.02957
16.675,365.11,-1.02961
16.6767,365.126,-1.02964
16.6783,365.143,-1.02968
16.68,365.16,-1.02973
16.6817,365.177,-1.02978
16.6833,365.193,-1.02983
16.685,365.21,-1.02987
16.6867,365.226,-1.02991
16.6883,365.243,-1.02994
16.69,365.26,-1.02997
16.6917,365.276,-1.03
16.6933,365.293,-1.03002
16.695,365.309,-1.03004
16.6967,365.326,-1.03005
16.6983,365.343,-1.03006
16.7,365.359,-1.03007
16.7017,365.376,-1.0301
16.7033,365.393,-1.03014
16.705,365.409,-1.03017
16.7067,365.426,-1.03021
16.7083,365.442,-1.03026
16.71,365.459,-1.0303
16.7117,365.476,-1.03034
16.7133,365.493,-1.03039
16.715,365.509,-1.03042
16.7167,365.526,-1.03043
16.7183,365.543,-1.03045
16.72,365.559,-1.03048
16.7217,365.576,-1.03051
16.7233,365.592,-1.03054
16.725,365.609,-1.03058
16.7267,365.626,-1.03062
16.7283,365.642,-1.03067
16.73,365.659,-1.03072
16.7317,365.675,-1.03078
16.7333,365.692,-1.03083
16.735,365.709,-1.03088
16.7367,365.725,-1.03093
16.7383,365.742,-1.03097
16.74,365.759,-1.031
16.7417,365.776,-1.03103
16.7433,365.792,-1.03105
16.745,365.809,-1.03107
16.7467,365.825,-1.03107
16.7483,365.842,-1.03107
16.75,365.859,-1.03108
16.7517,365.875,-1.03108
16.7533,365.892,-1.03109
16.755,365.909,-1.03112
16.7567,365.926,-1.03115
16.7583,365.942,-1.03118
16.76,365.958,-1.03123
16.7617,365.975,-1.03128
16.7633,365.992,-1.03133
16.765,366.009,-1.03137
16.7667,366.025,-1.03142
16.7683,366.042,-1.03147
16.77,366.058,-1.03152
16.7717,366.075,-1.03157
16.7733,366.091,-1.03161
16.775,366.108,-1.03165
16.7767,366.124,-1.0317
16.7783,366.14,-1.03174
16.78,366.157,-1.03179
16.7817,366.174,-1.03183
16.7833,366.191,-1.03187
16.785,366.207,-1.03191
16.7867,366.224,-1.03196
16.7883,366.241,-1.03201
16.79,366.257,-1.03204
16.7917,366.274,-1.03208
16.7933,366.291,-1.0321
16.795,366.308,-1.03212
16.7967,366.325,-1.03213
16.7983,366.341,-1.03213
16.8,366.358,-1.03211
16.8017,366.374,-1.03209
16.8033,366.391,-1.03208
16.805,366.408,-1.03208
16.8067,366.424,-1.03208
16.8083,366.44,-1.0321
16.81,366.457,-1.03211
16.8117,366.474,-1.03213
16.8133,366.491,-1.03216
16.815,366.507,-1.03219
16.8167,366.524,-1.03221
16.8183,366.541,-1.03224
16.82,366.557,-1.03227
16.8217,366.574,-1.03231
16.8233,366.591,-1.03235
16.825,366.607,-1.03239
16.8267,366.624,-1.03245
16.8283,366.641,-1.0325
16.83,366.657,-1.03256
16.8317,366.674,-1.0326
16.8333,366.69,-1.03263
16.835,366.708,-1.03265
16.8367,366.724,-1.03266
16.8383,366.741,-1.03268
16.84,366.758,-1.0327
16.8417,366.774,-1.03272
16.8433,366.791,-1.03275
16.845,366.808,-1.03278
16.8467,366.825,-1.03281
16.8483,366.841,-1.03284
16.85,366.858,-1.03288
16.8517,366.874,-1.03291
16.8533,366.891,-1.03295
16.855,366.907,-1.03299
16.8567,366.924,-1.03304
16.8583,366.941,-1.0331
16.86,366.958,-1.03315
16.8617,366.974,-1.03319
16.8633,366.991,-1.03323
16.865,367.008,-1.03326
16.8667,367.024,-1.03328
16.8683,367.041,-1.03329
16.87,367.057,-1.03329
16.8717,367.074,-1.03329
16.8733,367.091,-1.03329
16.875,367.108,-1.0333
16.8767,367.124,-1.03332
16.8783,367.141,-1.03335
16.88,367.158,-1.03338
16.8817,367.174,-1.03342
16.8833,367.191,-1.03346
16.885,367.207,-1.0335
16.8867,367.224,-1.03354
16.8883,367.24,-1.03359
16.89,367.257,-1.03363
16.8917,367.274,-1.03367
16.8933,367.291,-1.03371
16.895,367.307,-1.03375
16.8967,367.324,-1.03381
16.8983,367.341,-1.03388
16.9,367.357,-1.03399
16.9017,367.374,-1.03408
16.9033,367.391,-1.03414
16.905,367.407,-1.0342
16.9067,367.424,-1.03425
16.9083,367.44,-1.03429
16.91,367.457,-1.03433
16.9117,367.474,-1.03437
16.9133,367.491,-1.0344
16.915,367.508,-1.03444
16.9167,367.524,-1.03448
16.9183,367.541,-1.03453
16.92,367.557,-1.03458
16.9217,367.574,-1.03463
16.9233,367.591,-1.03467
16.925,367.607,-1.03472
16.9267,367.624,-1.03475
16.9283,367.641,-1.03479
16.93,367.658,-1.03481
16.9317,367.674,-1.03482
16.9333,367.69,-1.03484
16.935,367.707,-1.03486
16.9367,367.724,-1.03488
16.9383,367.74,-1.0349
16.94,367.757,-1.03494
16.9417,367.773,-1.03497
16.9433,367.79,-1.03501
16.945,367.807,-1.03505
16.9467,367.824,-1.03509
16.9483,367.84,-1.03512
16.95,367.857,-1.03515
16.9517,367.874,-1.03519
16.9533,367.891,-1.03522
16.955,367.907,-1.03525
16.9567,367.924,-1.03528
16.9583,367.94,-1.0353
16.96,367.957,-1.03533
16.9617,367.973,-1.03536
16.9633,367.99,-1.03539
16.965,368.007,-1.03542
16.9667,368.024,-1.03544
16.9683,368.04,-1.03547
16.97,368.057,-1.0355
16.9717,368.074,-1.03553
16.9733,368.09,-1.03557
16.975,368.107,-1.03562
16.9767,368.124,-1.03566
16.9783,368.14,-1.0357
16.98,368.157,-1.03574
16.9817,368.173,-1.03576
16.9833,368.19,-1.03577
16.985,368.206,-1.03578
16.9867,368.223,-1.03579
16.9883,368.24,-1.03579
16.99,368.257,-1.0358
16.9917,368.273,-1.03581
16.9933,368.29,-1.03583
16.995,368.306,-1.03587
16.9967,368.323,-1.0359
16.9983,368.34,-1.03595
17,368.356,-1.03599
17.0017,368.373,-1.03603
17.0033,368.39,-1.03607
17.005,368.406,-1.0361
17.0067,368.423,-1.03613
17.0083,368.44,-1.03615
17.01,368.456,-1.03616
17.0117,368.473,-1.03617
17.0133,368.49,-1.03619
17.015,368.507,-1.0362
17.0167,368.523,-1.03621
17.0183,368.54,-1.03622
17.02,368.557,-1.03624
17.0217,368.573,-1.03627
17.0233,368.59,-1.0363
17.025,368.606,-1.03633
17.0267,368.623,-1.03637
17.0283,368.64,-1.03642
17.03,368.656,-1.03647
17.0317,368.673,-1.03652
17.0333,368.69,-1.03657
17.035,368.706,-1.03662
17.0367,368.723,-1.03666
17.0383,368.74,-1.0367
17.04,368.756,-1.03672
17.0417,368.773,-1.03674
17.0433,368.789,-1.03676
17.045,368.806,-1.03678
17.0467,368.823,-1.03681
17.0483,368.84,-1.03684
17.05,368.856,-1.03687
17.0517,368.873,-1.03691
17.0533,368.89,-1.03695
17.055,368.906,-1.03698
17.0567,368.923,-1.03702
17.0583,368.94,-1.03705
17.06,368.956,-1.03709
17.0617,368.973,-1.03711
17.0633,368.99,-1.03713
17.065,369.006,-1.03715
17.0667,369.023,-1.03718
17.0683,369.039,-1.03721
17.07,369.056,-1.03725
17.0717,369.073,-1.03728
17.0733,369.089,-1.03731
17.075,369.106,-1.03734
17.0767,369.122,-1.03736
17.0783,369.139,-1.03737
17.08,369.156,-1.03738
17.0817,369.172,-1.03739
17.0833,369.189,-1.0374
17.085,369.206,-1.03742
17.0867,369.222,-1.03743
17.0883,369.239,-1.03744
17.09,369.256,-1.03745
17.0917,369.272,-1.03748
17.0933,369.289,-1.0375
17.095,369.305,-1.03752
17.0967,369.322,-1.03753
17.0983,369.339,-1.03755
17.1,369.356,-1.03756
17.1017,369.372,-1.03757
17.1033,369.389,-1.03759
17.105,369.405,-1.03762
17.1067,369.422,-1.03766
17.1083,369.439,-1.0377
17.11,369.455,-1.03774
17.1117,369.472,-1.03779
17.1133,369.488,-1.03783
17.115,369.505,-1.03787
17.1167,369.522,-1.03791
17.1183,369.538,-1.03794
17.12,369.555,-1.03795
17.1217,369.572,-1.03796
17.1233,369.588,-1.03797
17.125,369.605,-1.03798
17.1267,369.622,-1.038
17.1283,369.638,-1.03803
17.13,369.655,-1.03806
17.1317,369.672,-1.03808
17.1333,369.688,-1.03811
17.135,369.705,-1.03814
17.1367,369.722,-1.03818
17.1383,369.738,-1.03822
17.14,369.755,-1.03826
17.1417,369.772,-1.0383
17.1433,369.789,-1.03833
17.145,369.805,-1.03835
17.1467,369.822,-1.03837
17.1483,369.838,-1.03839
17.15,369.855,-1.03842
17.1517,369.872,-1.03845
17.1533,369.888,-1.03848
17.155,369.905,-1.03851
17.1567,369.921,-1.03855
17.1583,369.938,-1.03858
17.16,369.955,-1.0386
17.1617,369.972,-1.03862
17.1633,369.988,-1.03863
17.165,370.005,-1.03863
17.1667,370.022,-1.03863
17.1683,370.038,-1.03863
17.17,370.055,-1.03864
17.1717,370.072,-1.03865
17.1733,370.088,-1.03866
17.175,370.105,-1.03868
17.1767,370.121,-1.03872
17.1783,370.138,-1.03876
17.18,370.155,-1.0388
17.1817,370.171,-1.03885
17.1833,370.188,-1.03889
17.185,370.205,-1.03892
17.1867,370.222,-1.03896
17.1883,370.238,-1.03898
17.19,370.255,-1.03901
17.1917,370.271,-1.03903
17.1933,370.288,-1.03905
17.195,370.304,-1.03907
17.1967,370.321,-1.0391
17.1983,370.338,-1.03913
17.2,370.355,-1.03916
17.2017,370.371,-1.03919
17.2033,370.388,-1.03921
17.205,370.404,-1.03923
17.2067,370.421,-1.03925
17.2083,370.438,-1.03926
17.21,370.454,-1.03927
17.2117,370.471,-1.03927
17.2133,370.488,-1.03928
17.215,370.505,-1.03929
17.2167,370.522,-1.03931
17.2183,370.538,-1.03933
17.22,370.555,-1.03934
17.2217,370.571,-1.03936
17.2233,370.588,-1.03938
17.225,370.604,-1.03941
17.2267,370.621,-1.03943
17.2283,370.638,-1.03945
17.23,370.654,-1.03947
17.2317,370.671,-1.03949
17.2333,370.687,-1.0395
17.235,370.704,-1.03951
17.2367,370.721,-1.03951
17.2383,370.738,-1.03951
17.24,370.754,-1.03952
17.2417,370.771,-1.03955
17.2433,370.787,-1.03959
17.245,370.804,-1.03963
17.2467,370.82,-1.03969
17.2483,370.837,-1.03974
17.25,370.854,-1.03978
17.2517,370.87,-1.03982
17.2533,370.887,-1.03986
17.255,370.904,-1.03988
17.2567,370.921,-1.03991
17.2583,370.937,-1.03994
17.26,370.954,-1.03997
17.2617,370.97,-1.04
17.2633,370.987,-1.04004
17.265,371.004,-1.04009
17.2667,371.02,-1.04014
17.2683,371.037,-1.04018
17.27,371.053,-1.04022
17.2717,371.07,-1.04026
17.2733,371.087,-1.0403
17.275,371.103,-1.04032
17.2767,371.12,-1.04033
17.2783,371.137,-1.04034
17.28,371.154,-1.04034
17.2817,371.171,-1.04034
17.2833,371.187,-1.04035
17.285,371.204,-1.04037
17.2867,371.22,-1.04039
17.2883,371.237,-1.04041
17.29,371.254,-1.04045
17.2917,371.27,-1.04051
17.2933,371.287,-1.04058
17.295,371.303,-1.04068
17.2967,371.32,-1.04078
17.2983,371.337,-1.04084
17.3,371.354,-1.04089
17.3017,371.371,-1.04095
17.3033,371.387,-1.041
17.305,371.404,-1.04105
17.3067,371.42,-1.04109
17.3083,371.437,-1.04113
17.31,371.454,-1.04116
17.3117,371.47,-1.04118
17.3133,371.486,-1.0412
17.315,371.503,-1.04121
17.3167,371.52,-1.04121
17.3183,371.536,-1.04121
17.32,371.553,-1.04122
17.3217,371.57,-1.04124
17.3233,371.587,-1.04125
17.325,371.603,-1.04126
17.3267,371.62,-1.04129
17.3283,371.636,-1.04132
17.33,371.653,-1.04135
17.3317,371.67,-1.04138
17.3333,371.686,-1.04141
17.335,371.703,-1.04145
17.3367,371.719,-1.04149
17.3383,371.736,-1.04153
17.34,371.753,-1.04156
17.3417,371.77,-1.04159
17.3433,371.786,-1.04161
17.345,371.803,-1.04163
17.3467,371.82,-1.04165
17.3483,371.836,-1.04166
17.35,371.853,-1.04167
17.3517,371.87,-1.04169
17.3533,371.886,-1.04172
17.355,371.903,-1.04175
17.3567,371.919,-1.04177
17.3583,371.936,-1.04179
17.36,371.953,-1.0418
17.3617,371.969,-1.04181
17.3633,371.986,-1.04181
17.365,372.003,-1.04181
17.3667,372.019,-1.04183
17.3683,372.036,-1.04185
17.37,372.052,-1.04189
17.3717,372.069,-1.04193
17.3733,372.085,-1.04197
17.375,372.102,-1.04202
17.3767,372.119,-1.04206
17.3783,372.136,-1.04211
17.38,372.152,-1.04215
17.3817,372.169,-1.04219
17.3833,372.186,-1.04222
17.385,372.202,-1.04225
17.3867,372.219,-1.04228
17.3883,372.235,-1.0423
17.39,372.252,-1.04232
17.3917,372.269,-1.04233
17.3933,372.285,-1.04234
17.395,372.302,-1.04236
17.3967,372.319,-1.04237
17.3983,372.335,-1.04238
17.4,372.352,-1.0424
17.4017,372.368,-1.04242
17.4033,372.385,-1.04244
17.405,372.402,-1.04246
17.4067,372.418,-1.04248
17.4083,372.435,-1.04251
17.41,372.452,-1.04254
17.4117,372.469,-1.04257
17.4133,372.486,-1.0426
17.415,372.502,-1.04263
17.4167,372.519,-1.04266
17.4183,372.535,-1.0427
17.42,372.552,-1.04274
17.4217,372.569,-1.04279
17.4233,372.585,-1.04283
17.425,372.602,-1.04288
17.4267,372.618,-1.04292
17.4283,372.635,-1.04296
17.43,372.652,-1.04301
17.4317,372.669,-1.04306
17.4333,372.685,-1.0431
17.435,372.702,-1.04314
17.4367,372.719,-1.04318
17.4383,372.736,-1.04321
17.44,372.752,-1.04324
17.4417,372.768,-1.04327
17.4433,372.785,-1.0433
17.445,372.802,-1.04332
17.4467,372.818,-1.04334
17.4483,372.835,-1.04335
17.45,372.851,-1.04337
17.4517,372.868,-1.04337
17.4533,372.885,-1.04338
17.455,372.901,-1.04339
17.4567,372.918,-1.0434
17.4583,372.935,-1.04342
17.46,372.952,-1.04345
17.4617,372.968,-1.0435
17.4633,372.985,-1.04355
17.465,373.002,-1.04364
17.4667,373.018,-1.04372
17.4683,373.035,-1.04381
17.47,373.052,-1.04387
17.4717,373.068,-1.04392
17.4733,373.085,-1.04397
17.475,373.101,-1.044
17.4767,373.118,-1.044
17.4783,373.135,-1.044
17.48,373.151,-1.04397
17.4817,373.168,-1.04389
17.4833,373.184,-1.04381
17.485,373.201,-1.04378
17.4867,373.218,-1.04376
17.4883,373.234,-1.04375
17.49,373.251,-1.04376
17.4917,373.268,-1.04378
17.4933,373.284,-1.04381
17.495,373.301,-1.04384
17.4967,373.317,-1.04389
17.4983,373.334,-1.04396
17.5,373.351,-1.04401
17.5017,373.368,-1.04406
17.5033,373.384,-1.04411
17.505,373.401,-1.04416
