Ramp 10.00 °C/min to 375.00 °C,,
Time,Temperature,Heat Flow (Normalized)
min,°C,W/g
5.00333,249.873,-0.202271
5.005,249.873,-0.202282
5.00667,249.873,-0.202294
5.00833,249.873,-0.202295
5.01,249.873,-0.202302
5.01167,249.873,-0.202315
5.01333,249.873,-0.202326
5.015,249.873,-0.202339
5.01667,249.873,-0.20235
5.01833,249.873,-0.202363
5.02,249.873,-0.202376
5.02167,249.874,-0.202389
5.02333,249.874,-0.202408
5.025,249.875,-0.202428
5.02667,249.875,-0.202445
5.02833,249.876,-0.20246
5.03,249.876,-0.20248
5.03167,249.877,-0.202507
5.03333,249.878,-0.202544
5.035,249.878,-0.202579
5.03667,249.879,-0.202618
5.03833,249.88,-0.202666
5.04,249.881,-0.202712
5.04167,249.882,-0.202761
5.04333,249.883,-0.202803
5.045,249.885,-0.20284
5.04667,249.886,-0.202871
5.04833,249.888,-0.202892
5.05,249.889,-0.202895
5.05167,249.891,-0.202899
5.05333,249.893,-0.202887
5.055,249.895,-0.202856
5.05667,249.897,-0.202833
5.05833,249.9,-0.202784
5.06,249.902,-0.20269
5.06167,249.905,-0.202579
5.06333,249.908,-0.202472
5.065,249.91,-0.202199
5.06667,249.913,-0.201668
5.06833,249.917,-0.200993
5.07,249.92,-0.200278
5.07167,249.924,-0.199703
5.07333,249.927,-0.198892
5.075,249.931,-0.198005
5.07667,249.936,-0.197257
5.07833,249.94,-0.19678
5.08,249.944,-0.196412
5.08167,249.949,-0.196188
5.08333,249.954,-0.196009
5.085,249.959,-0.195868
5.08667,249.965,-0.195765
5.08833,249.97,-0.195686
5.09,249.975,-0.195676
5.09167,249.981,-0.195678
5.09333,249.987,-0.195693
5.095,249.994,-0.195725
5.09667,250.001,-0.195979
5.09833,250.007,-0.196607
5.1,250.014,-0.198067
5.10167,250.022,-0.20067
5.10333,250.029,-0.204705
5.105,250.037,-0.209572
5.10667,250.044,-0.216076
5.10833,250.052,-0.2241
5.11,250.06,-0.232589
5.11167,250.069,-0.240987
5.11333,250.077,-0.249917
5.115,250.085,-0.258361
5.11667,250.094,-0.265143
5.11833,250.103,-0.27257
5.12,250.112,-0.279641
5.12167,250.121,-0.287437
5.12333,250.13,-0.294432
5.125,250.139,-0.301058
5.12667,250.15,-0.31022
5.12833,250.159,-0.317166
5.13,250.17,-0.325292
5.13167,250.18,-0.332929
5.13333,250.19,-0.340273
5.135,250.201,-0.348148
5.13667,250.211,-0.355376
5.13833,250.222,-0.362824
5.14,250.232,-0.370881
5.14167,250.243,-0.379368
5.14333,250.254,-0.387528
5.145,250.266,-0.395793
5.14667,250.277,-0.403444
5.14833,250.288,-0.41064
5.15,250.3,-0.417999
5.15167,250.312,-0.425539
5.15333,250.323,-0.432447
5.155,250.335,-0.439587
5.15667,250.347,-0.445611
5.15833,250.359,-0.452207
5.16,250.372,-0.459293
5.16167,250.384,-0.467806
5.16333,250.396,-0.475077
5.165,250.408,-0.482337
5.16667,250.421,-0.487921
5.16833,250.434,-0.49354
5.17,250.447,-0.500543
5.17167,250.46,-0.507259
5.17333,250.472,-0.513008
5.175,250.485,-0.519385
5.17667,250.498,-0.525499
5.17833,250.511,-0.532191
5.18,250.524,-0.538796
5.18167,250.537,-0.54356
5.18333,250.551,-0.549119
5.185,250.565,-0.553455
5.18667,250.578,-0.557991
5.18833,250.591,-0.56275
5.19,250.605,-0.566984
5.19167,250.619,-0.572286
5.19333,250.633,-0.577867
5.195,250.646,-0.583508
5.19667,250.66,-0.588
5.19833,250.674,-0.592476
5.2,250.687,-0.597432
5.20167,250.701,-0.602024
5.20333,250.715,-0.605874
5.205,250.73,-0.608855
5.20667,250.744,-0.612416
5.20833,250.758,-0.615163
5.21,250.773,-0.618511
5.21167,250.786,-0.621988
5.21333,250.801,-0.625857
5.215,250.815,-0.62984
5.21667,250.83,-0.632979
5.21833,250.844,-0.635662
5.22,250.859,-0.638016
5.22167,250.874,-0.641655
5.22333,250.888,-0.646138
5.225,250.903,-0.648813
5.22667,250.917,-0.652346
5.22833,250.932,-0.655316
5.23,250.946,-0.657382
5.23167,250.961,-0.660107
5.23333,250.976,-0.662651
5.235,250.991,-0.665833
5.23667,251.006,-0.668323
5.23833,251.021,-0.670945
5.24,251.036,-0.674579
5.24167,251.051,-0.6779
5.24333,251.066,-0.680763
5.245,251.081,-0.683638
5.24667,251.096,-0.685108
5.24833,251.112,-0.687726
5.25,251.127,-0.691596
5.25167,251.142,-0.693803
5.25333,251.157,-0.697008
5.255,251.172,-0.699412
5.25667,251.187,-0.702071
5.25833,251.203,-0.704773
5.26,251.218,-0.707738
5.26167,251.233,-0.710313
5.26333,251.249,-0.71273
5.265,251.264,-0.711972
5.26667,251.279,-0.71317
5.26833,251.295,-0.713508
5.27,251.31,-0.715105
5.27167,251.326,-0.715945
5.27333,251.341,-0.717623
5.275,251.357,-0.719124
5.27667,251.372,-0.720829
5.27833,251.388,-0.722823
5.28,251.404,-0.725429
5.28167,251.419,-0.72824
5.28333,251.435,-0.729624
5.285,251.451,-0.73128
5.28667,251.466,-0.732771
5.28833,251.482,-0.734359
5.29,251.498,-0.735542
5.29167,251.514,-0.737152
5.29333,251.529,-0.738818
5.295,251.545,-0.740162
5.29667,251.56,-0.740565
5.29833,251.577,-0.741115
5.3,251.592,-0.742483
5.30167,251.608,-0.743617
5.30333,251.624,-0.745048
5.305,251.639,-0.746974
5.30667,251.656,-0.747924
5.30833,251.671,-0.749395
5.31,251.687,-0.751295
5.31167,251.703,-0.753785
5.31333,251.719,-0.755468
5.315,251.735,-0.756257
5.31667,251.75,-0.756508
5.31833,251.766,-0.756886
5.32,251.782,-0.757655
5.32167,251.798,-0.758222
5.32333,251.814,-0.758898
5.325,251.83,-0.75908
5.32667,251.846,-0.75946
5.32833,251.862,-0.760145
5.33,251.878,-0.761578
5.33167,251.894,-0.763036
5.33333,251.91,-0.764602
5.335,251.927,-0.766203
5.33667,251.943,-0.76795
5.33833,251.959,-0.769811
5.34,251.975,-0.771236
5.34167,251.991,-0.772333
5.34333,252.007,-0.773106
5.345,252.023,-0.773471
5.34667,252.039,-0.773918
5.34833,252.055,-0.774337
5.35,252.071,-0.774477
5.35167,252.087,-0.774664
5.35333,252.103,-0.774853
5.355,252.119,-0.775174
5.35667,252.135,-0.775542
5.35833,252.151,-0.775935
5.36,252.167,-0.77622
5.36167,252.184,-0.776678
5.36333,252.2,-0.777232
5.365,252.216,-0.77794
5.36667,252.232,-0.778498
5.36833,252.248,-0.779044
5.37,252.264,-0.779604
5.37167,252.28,-0.780138
5.37333,252.296,-0.780656
5.375,252.313,-0.781143
5.37667,252.329,-0.781485
5.37833,252.345,-0.781791
5.38,252.361,-0.782161
5.38167,252.377,-0.782527
5.38333,252.393,-0.782881
5.385,252.41,-0.783217
5.38667,252.426,-0.783497
5.38833,252.442,-0.783903
5.39,252.459,-0.784313
5.39167,252.475,-0.784853
5.39333,252.491,-0.785487
5.395,252.507,-0.786071
5.39667,252.524,-0.786789
5.39833,252.54,-0.787577
5.4,252.556,-0.788217
5.40167,252.573,-0.788724
5.40333,252.589,-0.789225
5.405,252.605,-0.789768
5.40667,252.621,-0.790299
5.40833,252.638,-0.790695
5.41,252.654,-0.79094
5.41167,252.67,-0.791052
5.41333,252.686,-0.791186
5.415,252.702,-0.791298
5.41667,252.719,-0.79142
5.41833,252.735,-0.791599
5.42,252.751,-0.791829
5.42167,252.768,-0.792221
5.42333,252.784,-0.792826
5.425,252.8,-0.793499
5.42667,252.817,-0.794081
5.42833,252.833,-0.794554
5.43,252.85,-0.794929
5.43167,252.866,-0.795297
5.43333,252.882,-0.795529
5.435,252.898,-0.795677
5.43667,252.915,-0.795818
5.43833,252.931,-0.795979
5.44,252.947,-0.796179
5.44167,252.964,-0.796414
5.44333,252.98,-0.79669
5.445,252.996,-0.796931
5.44667,253.012,-0.797189
5.44833,253.029,-0.797542
5.45,253.045,-0.797954
5.45167,253.061,-0.798365
5.45333,253.077,-0.798782
5.455,253.094,-0.799217
5.45667,253.11,-0.799867
5.45833,253.127,-0.80033
5.46,253.143,-0.800787
5.46167,253.159,-0.801185
5.46333,253.176,-0.801659
5.465,253.192,-0.802002
5.46667,253.209,-0.802201
5.46833,253.225,-0.802301
5.47,253.242,-0.802375
5.47167,253.258,-0.802443
5.47333,253.274,-0.802896
5.475,253.29,-0.803237
5.47667,253.307,-0.803572
5.47833,253.323,-0.803615
5.48,253.339,-0.803657
5.48167,253.355,-0.803735
5.48333,253.372,-0.803818
5.485,253.388,-0.803881
5.48667,253.404,-0.803941
5.48833,253.421,-0.804046
5.49,253.438,-0.804135
5.49167,253.454,-0.804261
5.49333,253.47,-0.804458
5.495,253.487,-0.804664
5.49667,253.503,-0.804904
5.49833,253.52,-0.80516
5.5,253.536,-0.80552
5.50167,253.553,-0.805937
5.50333,253.569,-0.806194
5.505,253.585,-0.806373
5.50667,253.602,-0.806473
5.50833,253.618,-0.806607
5.51,253.634,-0.806686
5.51167,253.651,-0.806745
5.51333,253.667,-0.806807
5.515,253.684,-0.806881
5.51667,253.7,-0.807013
5.51833,253.716,-0.8072
5.52,253.733,-0.807415
5.52167,253.749,-0.807643
5.52333,253.765,-0.807916
5.525,253.782,-0.808186
5.52667,253.798,-0.808385
5.52833,253.814,-0.808518
5.53,253.831,-0.80866
5.53167,253.848,-0.808804
5.53333,253.864,-0.808902
5.535,253.88,-0.809018
5.53667,253.897,-0.809153
5.53833,253.913,-0.809269
5.54,253.93,-0.809399
5.54167,253.946,-0.809511
5.54333,253.962,-0.809601
5.545,253.979,-0.809693
5.54667,253.996,-0.809768
5.54833,254.012,-0.809989
5.55,254.028,-0.810065
5.55167,254.045,-0.810138
5.55333,254.061,-0.810215
5.555,254.077,-0.810297
5.55667,254.094,-0.810483
5.55833,254.11,-0.810732
5.56,254.127,-0.81103
5.56167,254.143,-0.811404
5.56333,254.16,-0.81185
5.565,254.176,-0.812496
5.56667,254.192,-0.813089
5.56833,254.209,-0.813434
5.57,254.225,-0.813599
5.57167,254.242,-0.813681
5.57333,254.258,-0.813938
5.575,254.274,-0.814018
5.57667,254.291,-0.814247
5.57833,254.308,-0.814384
5.58,254.324,-0.814544
5.58167,254.34,-0.814725
5.58333,254.357,-0.814809
5.585,254.373,-0.814949
5.58667,254.39,-0.815114
5.58833,254.406,-0.815335
5.59,254.423,-0.815494
5.59167,254.44,-0.815636
5.59333,254.456,-0.815771
5.595,254.472,-0.815887
5.59667,254.488,-0.815978
5.59833,254.505,-0.816062
5.6,254.521,-0.816228
5.60167,254.538,-0.816386
5.60333,254.554,-0.816466
5.605,254.57,-0.816553
5.60667,254.587,-0.816638
5.60833,254.604,-0.816721
5.61,254.62,-0.81681
5.61167,254.637,-0.816897
5.61333,254.653,-0.816987
5.615,254.669,-0.817082
5.61667,254.686,-0.817201
5.61833,254.702,-0.817302
5.62,254.719,-0.817402
5.62167,254.735,-0.817501
5.62333,254.752,-0.817601
5.625,254.768,-0.817703
5.62667,254.785,-0.817807
5.62833,254.801,-0.817908
5.63,254.817,-0.818006
5.63167,254.834,-0.818095
5.63333,254.85,-0.818196
5.635,254.867,-0.818308
5.63667,254.883,-0.818386
5.63833,254.899,-0.818473
5.64,254.916,-0.818566
5.64167,254.932,-0.818653
5.64333,254.949,-0.818744
5.645,254.965,-0.818841
5.64667,254.982,-0.818942
5.64833,254.998,-0.81905
5.65,255.015,-0.819153
5.65167,255.031,-0.819257
5.65333,255.048,-0.819361
5.655,255.065,-0.819462
5.65667,255.081,-0.819572
5.65833,255.097,-0.819684
5.66,255.114,-0.819789
5.66167,255.13,-0.819897
5.66333,255.147,-0.82
5.665,255.163,-0.820111
5.66667,255.18,-0.820216
5.66833,255.196,-0.820315
5.67,255.212,-0.820409
5.67167,255.229,-0.820509
5.67333,255.245,-0.82061
5.675,255.262,-0.820714
5.67667,255.279,-0.820814
5.67833,255.295,-0.820918
5.68,255.312,-0.821031
5.68167,255.328,-0.821139
5.68333,255.344,-0.82124
5.685,255.361,-0.821347
5.68667,255.377,-0.821456
5.68833,255.394,-0.82156
5.69,255.41,-0.821664
5.69167,255.427,-0.821772
5.69333,255.443,-0.821879
5.695,255.46,-0.821986
5.69667,255.476,-0.822093
5.69833,255.493,-0.822205
5.7,255.51,-0.822318
5.70167,255.526,-0.822434
5.70333,255.543,-0.822548
5.705,255.559,-0.82265
5.70667,255.575,-0.822754
5.70833,255.592,-0.822872
5.71,255.608,-0.82299
5.71167,255.625,-0.823113
5.71333,255.642,-0.823317
5.715,255.658,-0.823524
5.71667,255.675,-0.823684
5.71833,255.691,-0.823836
5.72,255.708,-0.823962
5.72167,255.724,-0.82409
5.72333,255.741,-0.824211
5.725,255.757,-0.824323
5.72667,255.774,-0.82444
5.72833,255.79,-0.824555
5.73,255.806,-0.82467
5.73167,255.823,-0.824778
5.73333,255.839,-0.824884
5.735,255.856,-0.824984
5.73667,255.872,-0.825083
5.73833,255.889,-0.82518
5.74,255.905,-0.825278
5.74167,255.922,-0.825374
5.74333,255.938,-0.825467
5.745,255.955,-0.825564
5.74667,255.972,-0.825664
5.74833,255.988,-0.825763
5.75,256.005,-0.825858
5.75167,256.021,-0.82595
5.75333,256.037,-0.82604
5.755,256.054,-0.826135
5.75667,256.07,-0.826235
5.75833,256.087,-0.826335
5.76,256.103,-0.826444
5.76167,256.12,-0.826562
5.76333,256.137,-0.826692
5.765,256.153,-0.826808
5.76667,256.17,-0.82692
5.76833,256.186,-0.827036
5.77,256.203,-0.827147
5.77167,256.219,-0.827263
5.77333,256.235,-0.827384
5.775,256.252,-0.827502
5.77667,256.269,-0.827616
5.77833,256.285,-0.827727
5.78,256.302,-0.827839
5.78167,256.319,-0.827958
5.78333,256.335,-0.828077
5.785,256.352,-0.82819
5.78667,256.368,-0.828302
5.78833,256.385,-0.828418
5.79,256.402,-0.828533
5.79167,256.418,-0.828648
5.79333,256.434,-0.828768
5.795,256.451,-0.828888
5.79667,256.467,-0.829005
5.79833,256.484,-0.829123
5.8,256.5,-0.82924
5.80167,256.517,-0.829361
5.80333,256.533,-0.829478
5.805,256.55,-0.829591
5.80667,256.567,-0.829706
5.80833,256.583,-0.82981
5.81,256.599,-0.829912
5.81167,256.616,-0.830014
5.81333,256.633,-0.830111
5.815,256.649,-0.830212
5.81667,256.665,-0.830309
5.81833,256.682,-0.830415
5.82,256.699,-0.830521
5.82167,256.715,-0.830634
5.82333,256.732,-0.830748
5.825,256.749,-0.830864
5.82667,256.765,-0.830985
5.82833,256.782,-0.831102
5.83,256.798,-0.831216
5.83167,256.815,-0.831327
5.83333,256.832,-0.831432
5.835,256.848,-0.831531
5.83667,256.864,-0.83162
5.83833,256.88,-0.831713
5.84,256.897,-0.831799
5.84167,256.914,-0.83189
5.84333,256.93,-0.831983
5.845,256.947,-0.832091
5.84667,256.963,-0.832204
5.84833,256.98,-0.832319
5.85,256.996,-0.832435
5.85167,257.013,-0.832549
5.85333,257.03,-0.832655
5.855,257.046,-0.832761
5.85667,257.063,-0.832871
5.85833,257.079,-0.832978
5.86,257.095,-0.833074
5.86167,257.112,-0.833171
5.86333,257.129,-0.833278
5.865,257.145,-0.833386
5.86667,257.162,-0.833494
5.86833,257.178,-0.83361
5.87,257.195,-0.83372
5.87167,257.211,-0.833831
5.87333,257.228,-0.833944
5.875,257.244,-0.834061
5.87667,257.261,-0.83418
5.87833,257.278,-0.834306
5.88,257.294,-0.834431
5.88167,257.311,-0.834554
5.88333,257.327,-0.834676
5.885,257.344,-0.83479
5.88667,257.36,-0.834897
5.88833,257.376,-0.835005
5.89,257.393,-0.835111
5.89167,257.41,-0.835209
5.89333,257.427,-0.835305
5.895,257.443,-0.835388
5.89667,257.46,-0.835469
5.89833,257.476,-0.835553
5.9,257.493,-0.835639
5.90167,257.509,-0.835729
5.90333,257.526,-0.83582
5.905,257.543,-0.835915
5.90667,257.559,-0.836005
5.90833,257.576,-0.836109
5.91,257.592,-0.836212
5.91167,257.609,-0.836333
5.91333,257.626,-0.83651
5.915,257.642,-0.83668
5.91667,257.659,-0.836803
5.91833,257.675,-0.836922
5.92,257.692,-0.837038
5.92167,257.708,-0.837146
5.92333,257.725,-0.83725
5.925,257.741,-0.83735
5.92667,257.757,-0.837461
5.92833,257.774,-0.837565
5.93,257.791,-0.837668
5.93167,257.807,-0.837768
5.93333,257.824,-0.837873
5.935,257.84,-0.837972
5.93667,257.857,-0.838065
5.93833,257.873,-0.838154
5.94,257.89,-0.838239
5.94167,257.906,-0.838318
5.94333,257.923,-0.838396
5.945,257.94,-0.838471
5.94667,257.956,-0.838552
5.94833,257.973,-0.838633
5.95,257.99,-0.83871
5.95167,258.006,-0.838781
5.95333,258.023,-0.838856
5.955,258.039,-0.838933
5.95667,258.056,-0.839008
5.95833,258.072,-0.8391
5.96,258.089,-0.839195
5.96167,258.106,-0.839292
5.96333,258.122,-0.839395
5.965,258.139,-0.839498
5.96667,258.156,-0.8396
5.96833,258.172,-0.839705
5.97,258.189,-0.839812
5.97167,258.205,-0.839924
5.97333,258.221,-0.840028
5.975,258.238,-0.840132
5.97667,258.254,-0.840232
5.97833,258.271,-0.840331
5.98,258.288,-0.840426
5.98167,258.304,-0.840506
5.98333,258.321,-0.840582
5.985,258.338,-0.840658
5.98667,258.354,-0.840738
5.98833,258.371,-0.840814
5.99,258.387,-0.840897
5.99167,258.404,-0.840984
5.99333,258.42,-0.841078
5.995,258.437,-0.841183
5.99667,258.453,-0.841287
5.99833,258.47,-0.841384
6,258.487,-0.841486
6.00167,258.504,-0.841581
6.00333,258.52,-0.84167
6.005,258.537,-0.841766
6.00667,258.553,-0.841862
6.00833,258.57,-0.841958
6.01,258.586,-0.842051
6.01167,258.603,-0.842147
6.01333,258.619,-0.842245
6.015,258.636,-0.842346
6.01667,258.652,-0.842441
6.01833,258.669,-0.842541
6.02,258.686,-0.842632
6.02167,258.702,-0.842708
6.02333,258.719,-0.842788
6.025,258.735,-0.842863
6.02667,258.752,-0.84294
6.02833,258.769,-0.843014
6.03,258.785,-0.843089
6.03167,258.802,-0.843166
6.03333,258.819,-0.843243
6.035,258.835,-0.843322
6.03667,258.852,-0.8434
6.03833,258.868,-0.84349
6.04,258.885,-0.843583
6.04167,258.901,-0.843679
6.04333,258.918,-0.84377
6.045,258.935,-0.843862
6.04667,258.951,-0.843954
6.04833,258.968,-0.844042
6.05,258.985,-0.844135
6.05167,259.001,-0.844225
6.05333,259.018,-0.844308
6.055,259.034,-0.844387
6.05667,259.051,-0.844467
6.05833,259.067,-0.844552
6.06,259.084,-0.844637
6.06167,259.101,-0.84473
6.06333,259.118,-0.844821
6.065,259.134,-0.844904
6.06667,259.15,-0.844984
6.06833,259.167,-0.845065
6.07,259.183,-0.845146
6.07167,259.2,-0.845223
6.07333,259.216,-0.845295
6.075,259.233,-0.845371
6.07667,259.249,-0.845444
6.07833,259.266,-0.845517
6.08,259.283,-0.845592
6.08167,259.299,-0.845672
6.08333,259.316,-0.845751
6.085,259.333,-0.845831
6.08667,259.349,-0.845909
6.08833,259.366,-0.845995
6.09,259.382,-0.846077
6.09167,259.399,-0.846163
6.09333,259.415,-0.846247
6.095,259.432,-0.846323
6.09667,259.448,-0.846394
6.09833,259.465,-0.846466
6.1,259.482,-0.846535
6.10167,259.499,-0.846612
6.10333,259.515,-0.846698
6.105,259.532,-0.846796
6.10667,259.548,-0.846885
6.10833,259.565,-0.846969
6.11,259.582,-0.847044
6.11167,259.598,-0.847121
6.11333,259.614,-0.847201
6.115,259.631,-0.847271
6.11667,259.648,-0.847336
6.11833,259.665,-0.84742
6.12,259.681,-0.847509
6.12167,259.697,-0.847592
6.12333,259.714,-0.847685
6.125,259.731,-0.847778
6.12667,259.747,-0.847867
6.12833,259.764,-0.847939
6.13,259.78,-0.848
6.13167,259.796,-0.84806
6.13333,259.813,-0.848117
6.135,259.83,-0.848169
6.13667,259.846,-0.848221
6.13833,259.863,-0.848269
6.14,259.88,-0.848318
6.14167,259.897,-0.848369
6.14333,259.913,-0.848415
6.145,259.93,-0.848479
6.14667,259.947,-0.848541
6.14833,259.963,-0.848601
6.15,259.979,-0.848668
6.15167,259.996,-0.848741
6.15333,260.012,-0.848822
6.155,260.029,-0.848907
6.15667,260.046,-0.848984
6.15833,260.062,-0.849064
6.16,260.079,-0.849143
6.16167,260.095,-0.849224
6.16333,260.112,-0.849306
6.165,260.129,-0.849393
6.16667,260.146,-0.849477
6.16833,260.162,-0.84956
6.17,260.179,-0.849643
6.17167,260.195,-0.849729
6.17333,260.211,-0.8498
6.175,260.228,-0.849861
6.17667,260.245,-0.849919
6.17833,260.261,-0.849979
6.18,260.278,-0.850043
6.18167,260.295,-0.850109
6.18333,260.311,-0.850175
6.185,260.328,-0.850245
6.18667,260.344,-0.850326
6.18833,260.361,-0.850411
6.19,260.378,-0.8505
6.19167,260.394,-0.850586
6.19333,260.411,-0.850673
6.195,260.428,-0.850756
6.19667,260.444,-0.850835
6.19833,260.461,-0.850912
6.2,260.477,-0.850985
6.20167,260.494,-0.851055
6.20333,260.511,-0.851123
6.205,260.527,-0.851182
6.20667,260.544,-0.85124
6.20833,260.56,-0.851294
6.21,260.577,-0.851341
6.21167,260.594,-0.85139
6.21333,260.611,-0.851442
6.215,260.627,-0.851504
6.21667,260.644,-0.851572
6.21833,260.66,-0.851635
6.22,260.677,-0.851695
6.22167,260.693,-0.851751
6.22333,260.71,-0.8518
6.225,260.726,-0.851855
6.22667,260.743,-0.851908
6.22833,260.76,-0.85196
6.23,260.776,-0.852014
6.23167,260.793,-0.852076
6.23333,260.81,-0.852143
6.235,260.826,-0.852218
6.23667,260.843,-0.852296
6.23833,260.86,-0.852377
6.24,260.876,-0.852454
6.24167,260.893,-0.852524
6.24333,260.91,-0.852593
6.245,260.926,-0.852662
6.24667,260.943,-0.852719
6.24833,260.959,-0.852772
6.25,260.976,-0.852824
6.25167,260.992,-0.852877
6.25333,261.009,-0.852927
6.255,261.025,-0.852976
6.25667,261.042,-0.853028
6.25833,261.059,-0.853094
6.26,261.075,-0.853165
6.26167,261.092,-0.853243
6.26333,261.109,-0.853318
6.265,261.125,-0.8534
6.26667,261.142,-0.853478
6.26833,261.158,-0.853551
6.27,261.175,-0.853618
6.27167,261.192,-0.85368
6.27333,261.208,-0.853739
6.275,261.225,-0.853796
6.27667,261.242,-0.853851
6.27833,261.258,-0.853912
6.28,261.275,-0.85398
6.28167,261.292,-0.854046
6.28333,261.308,-0.854118
6.285,261.325,-0.854191
6.28667,261.341,-0.854259
6.28833,261.358,-0.854317
6.29,261.375,-0.854373
6.29167,261.392,-0.854426
6.29333,261.408,-0.854479
6.295,261.424,-0.854533
6.29667,261.441,-0.854588
6.29833,261.458,-0.854648
6.3,261.474,-0.854711
6.30167,261.491,-0.854771
6.30333,261.507,-0.854836
6.305,261.524,-0.854905
6.30667,261.541,-0.854965
6.30833,261.557,-0.855031
6.31,261.574,-0.855099
6.31167,261.591,-0.855159
6.31333,261.607,-0.855223
6.315,261.624,-0.855288
6.31667,261.64,-0.855346
6.31833,261.657,-0.855404
6.32,261.674,-0.855462
6.32167,261.69,-0.855518
6.32333,261.707,-0.855567
6.325,261.724,-0.855611
6.32667,261.741,-0.855658
6.32833,261.757,-0.855712
6.33,261.774,-0.855764
6.33167,261.79,-0.855809
6.33333,261.806,-0.855844
6.335,261.823,-0.855878
6.33667,261.84,-0.855915
6.33833,261.856,-0.855953
6.34,261.873,-0.855986
6.34167,261.89,-0.856016
6.34333,261.906,-0.856044
6.345,261.923,-0.856081
6.34667,261.94,-0.856127
6.34833,261.957,-0.856177
6.35,261.973,-0.856223
6.35167,261.99,-0.85627
6.35333,262.006,-0.856321
6.355,262.023,-0.856381
6.35667,262.039,-0.856443
6.35833,262.056,-0.856513
6.36,262.073,-0.856586
6.36167,262.089,-0.856661
6.36333,262.106,-0.856733
6.365,262.123,-0.856799
6.36667,262.139,-0.856862
6.36833,262.156,-0.856917
6.37,262.172,-0.856962
6.37167,262.189,-0.857002
6.37333,262.206,-0.857034
6.375,262.222,-0.857065
6.37667,262.239,-0.857099
6.37833,262.256,-0.85713
6.38,262.272,-0.857166
6.38167,262.289,-0.857209
6.38333,262.305,-0.857255
6.385,262.322,-0.857307
6.38667,262.339,-0.857365
6.38833,262.355,-0.857425
6.39,262.372,-0.857496
6.39167,262.388,-0.857561
6.39333,262.405,-0.857624
6.395,262.421,-0.857686
6.39667,262.438,-0.857744
6.39833,262.455,-0.857795
6.4,262.472,-0.857842
6.40167,262.488,-0.857892
6.40333,262.505,-0.857931
6.405,262.522,-0.857969
6.40667,262.538,-0.858005
6.40833,262.555,-0.858038
6.41,262.572,-0.85807
6.41167,262.588,-0.858103
6.41333,262.605,-0.858134
6.415,262.622,-0.858168
6.41667,262.638,-0.858198
6.41833,262.655,-0.858234
6.42,262.671,-0.858271
6.42167,262.688,-0.858314
6.42333,262.704,-0.858351
6.425,262.721,-0.858388
6.42667,262.738,-0.858425
6.42833,262.755,-0.858471
6.43,262.771,-0.858527
6.43167,262.788,-0.858588
6.43333,262.805,-0.858645
6.435,262.821,-0.858697
6.43667,262.838,-0.858748
6.43833,262.854,-0.858796
6.44,262.871,-0.858845
6.44167,262.888,-0.858888
6.44333,262.904,-0.858927
6.445,262.921,-0.85897
6.44667,262.938,-0.859011
6.44833,262.954,-0.859049
6.45,262.971,-0.859081
6.45167,262.988,-0.859113
6.45333,263.004,-0.859143
6.455,263.021,-0.85917
6.45667,263.038,-0.859198
6.45833,263.054,-0.85923
6.46,263.071,-0.859256
6.46167,263.087,-0.859297
6.46333,263.104,-0.859346
6.465,263.121,-0.859406
6.46667,263.137,-0.859463
6.46833,263.154,-0.859514
6.47,263.17,-0.859565
6.47167,263.187,-0.859613
6.47333,263.204,-0.859654
6.475,263.22,-0.859696
6.47667,263.237,-0.859739
6.47833,263.254,-0.85978
6.48,263.27,-0.859826
6.48167,263.287,-0.859882
6.48333,263.303,-0.859945
6.485,263.32,-0.860011
6.48667,263.336,-0.860079
6.48833,263.353,-0.860146
6.49,263.37,-0.860207
6.49167,263.386,-0.860271
6.49333,263.403,-0.860333
6.495,263.42,-0.860385
6.49667,263.437,-0.860424
6.49833,263.453,-0.860462
6.5,263.47,-0.860491
6.50167,263.487,-0.860514
6.50333,263.503,-0.860539
6.505,263.52,-0.860563
6.50667,263.536,-0.860589
6.50833,263.553,-0.860619
6.51,263.57,-0.860654
6.51167,263.586,-0.860701
6.51333,263.603,-0.860757
6.515,263.619,-0.860816
6.51667,263.636,-0.860876
6.51833,263.653,-0.860939
6.52,263.669,-0.861004
6.52167,263.685,-0.861071
6.52333,263.702,-0.861129
6.525,263.719,-0.86118
6.52667,263.736,-0.861225
6.52833,263.752,-0.861261
6.53,263.769,-0.861302
6.53167,263.786,-0.861346
6.53333,263.803,-0.861386
6.535,263.819,-0.861422
6.53667,263.836,-0.861458
6.53833,263.853,-0.8615
6.54,263.869,-0.861547
6.54167,263.885,-0.861589
6.54333,263.903,-0.861624
6.545,263.919,-0.861651
6.54667,263.935,-0.861676
6.54833,263.952,-0.861705
6.55,263.969,-0.861742
6.55167,263.985,-0.86178
6.55333,264.002,-0.861819
6.555,264.018,-0.861866
6.55667,264.035,-0.861917
6.55833,264.051,-0.861976
6.56,264.068,-0.862034
6.56167,264.084,-0.862092
6.56333,264.101,-0.86214
6.565,264.118,-0.862187
6.56667,264.134,-0.862237
6.56833,264.151,-0.862285
6.57,264.168,-0.862335
6.57167,264.185,-0.862391
6.57333,264.202,-0.862448
6.575,264.218,-0.862494
6.57667,264.235,-0.86254
6.57833,264.251,-0.86258
6.58,264.268,-0.862619
6.58167,264.285,-0.862656
6.58333,264.301,-0.862684
6.585,264.318,-0.862706
6.58667,264.335,-0.862734
6.58833,264.351,-0.862763
6.59,264.367,-0.86279
6.59167,264.384,-0.862819
6.59333,264.401,-0.862855
6.595,264.418,-0.862905
6.59667,264.434,-0.862955
6.59833,264.451,-0.863007
6.6,264.467,-0.863055
6.60167,264.484,-0.863099
6.60333,264.501,-0.863138
6.605,264.517,-0.863166
6.60667,264.534,-0.863194
6.60833,264.551,-0.86321
6.61,264.568,-0.863222
6.61167,264.585,-0.863242
6.61333,264.601,-0.863266
6.615,264.618,-0.86329
6.61667,264.634,-0.863322
6.61833,264.651,-0.863357
6.62,264.667,-0.8634
6.62167,264.684,-0.863453
6.62333,264.7,-0.863503
6.625,264.717,-0.863548
6.62667,264.734,-0.863591
6.62833,264.751,-0.863634
6.63,264.768,-0.863672
6.63167,264.784,-0.863708
6.63333,264.801,-0.863738
6.635,264.818,-0.863772
6.63667,264.834,-0.863801
6.63833,264.851,-0.863827
6.64,264.868,-0.863863
6.64167,264.884,-0.8639
6.64333,264.901,-0.863948
6.645,264.918,-0.863995
6.64667,264.934,-0.864044
6.64833,264.951,-0.864095
6.65,264.967,-0.864151
6.65167,264.984,-0.864204
6.65333,265.001,-0.864257
6.655,265.017,-0.864305
6.65667,265.034,-0.864347
6.65833,265.05,-0.864394
6.66,265.067,-0.864436
6.66167,265.084,-0.864475
6.66333,265.1,-0.864507
6.665,265.117,-0.864535
6.66667,265.134,-0.864557
6.66833,265.151,-0.864578
6.67,265.167,-0.864596
6.67167,265.184,-0.86461
6.67333,265.201,-0.864624
6.675,265.218,-0.864634
6.67667,265.234,-0.864643
6.67833,265.25,-0.864647
6.68,265.267,-0.864657
6.68167,265.284,-0.86467
6.68333,265.3,-0.864682
6.685,265.317,-0.864698
6.68667,265.334,-0.864714
6.68833,265.35,-0.864741
6.69,265.367,-0.864766
6.69167,265.383,-0.864794
6.69333,265.4,-0.864828
6.695,265.417,-0.864869
6.69667,265.434,-0.864918
6.69833,265.45,-0.864966
6.7,265.467,-0.865023
6.70167,265.483,-0.865081
6.70333,265.5,-0.865131
6.705,265.516,-0.865181
6.70667,265.533,-0.865221
6.70833,265.55,-0.865253
6.71,265.566,-0.865271
6.71167,265.583,-0.865285
6.71333,265.6,-0.865294
6.715,265.617,-0.865308
6.71667,265.634,-0.865325
6.71833,265.65,-0.865344
6.72,265.667,-0.86537
6.72167,265.683,-0.865407
6.72333,265.7,-0.865444
6.725,265.717,-0.865485
6.72667,265.733,-0.865525
6.72833,265.75,-0.865549
6.73,265.766,-0.865574
6.73167,265.783,-0.865597
6.73333,265.8,-0.865611
6.735,265.816,-0.865633
6.73667,265.833,-0.865656
6.73833,265.85,-0.865685
6.74,265.867,-0.865726
6.74167,265.883,-0.865782
6.74333,265.9,-0.865842
6.745,265.916,-0.865906
6.74667,265.933,-0.865978
6.74833,265.95,-0.866035
6.75,265.966,-0.86608
6.75167,265.983,-0.866115
6.75333,266,-0.866148
6.755,266.016,-0.866176
6.75667,266.033,-0.866188
6.75833,266.05,-0.866195
6.76,266.066,-0.866206
6.76167,266.083,-0.866214
6.76333,266.1,-0.866223
6.765,266.116,-0.866241
6.76667,266.133,-0.86627
6.76833,266.149,-0.86629
6.77,266.166,-0.866314
6.77167,266.183,-0.866339
6.77333,266.2,-0.866362
6.775,266.216,-0.866388
6.77667,266.233,-0.866414
6.77833,266.25,-0.866436
6.78,266.266,-0.866454
6.78167,266.283,-0.866473
6.78333,266.3,-0.8665
6.785,266.316,-0.866537
6.78667,266.332,-0.866579
6.78833,266.349,-0.866624
6.79,266.366,-0.866667
6.79167,266.383,-0.86671
6.79333,266.399,-0.86676
6.795,266.416,-0.866803
6.79667,266.433,-0.866836
6.79833,266.449,-0.866856
6.8,266.466,-0.866874
6.80167,266.483,-0.86689
6.80333,266.499,-0.866911
6.805,266.516,-0.866935
6.80667,266.533,-0.866962
6.80833,266.549,-0.866988
6.81,266.566,-0.867014
6.81167,266.583,-0.867035
6.81333,266.599,-0.867052
6.815,266.616,-0.867069
6.81667,266.632,-0.867086
6.81833,266.649,-0.8671
6.82,266.666,-0.867106
6.82167,266.682,-0.86711
6.82333,266.698,-0.867117
6.825,266.715,-0.867126
6.82667,266.732,-0.867137
6.82833,266.749,-0.86715
6.83,266.765,-0.867169
6.83167,266.782,-0.867186
6.83333,266.799,-0.867209
6.835,266.815,-0.867237
6.83667,266.832,-0.867274
6.83833,266.849,-0.867315
6.84,266.865,-0.867352
6.84167,266.882,-0.867389
6.84333,266.899,-0.867418
6.845,266.916,-0.867443
6.84667,266.932,-0.867463
6.84833,266.949,-0.867488
6.85,266.965,-0.867513
6.85167,266.982,-0.867535
6.85333,266.999,-0.867554
6.855,267.015,-0.867581
6.85667,267.032,-0.867606
6.85833,267.049,-0.86763
6.86,267.065,-0.867648
6.86167,267.082,-0.867666
6.86333,267.099,-0.867676
6.865,267.115,-0.867682
6.86667,267.132,-0.867691
6.86833,267.149,-0.867707
6.87,267.165,-0.867721
6.87167,267.182,-0.867741
6.87333,267.198,-0.867771
6.875,267.215,-0.867803
6.87667,267.232,-0.867846
6.87833,267.249,-0.867895
6.88,267.265,-0.867953
6.88167,267.282,-0.867995
6.88333,267.298,-0.868031
6.885,267.315,-0.868062
6.88667,267.332,-0.868089
6.88833,267.348,-0.868113
6.89,267.365,-0.86813
6.89167,267.381,-0.868154
6.89333,267.398,-0.868184
6.895,267.415,-0.868219
6.89667,267.432,-0.868259
6.89833,267.448,-0.8683
6.9,267.465,-0.868333
6.90167,267.482,-0.868367
6.90333,267.498,-0.868397
6.905,267.515,-0.868423
6.90667,267.532,-0.868447
6.90833,267.549,-0.868469
6.91,267.565,-0.86849
6.91167,267.582,-0.868518
6.91333,267.599,-0.868551
6.915,267.615,-0.868585
6.91667,267.632,-0.868625
6.91833,267.648,-0.868658
6.92,267.665,-0.868685
6.92167,267.681,-0.868715
6.92333,267.698,-0.868741
6.925,267.715,-0.868765
6.92667,267.731,-0.868783
6.92833,267.748,-0.868812
6.93,267.765,-0.868849
6.93167,267.782,-0.868891
6.93333,267.799,-0.868935
6.935,267.815,-0.868972
6.93667,267.832,-0.869003
6.93833,267.848,-0.869026
6.94,267.865,-0.869054
6.94167,267.881,-0.869079
6.94333,267.898,-0.869093
6.945,267.914,-0.869105
6.94667,267.931,-0.869116
6.94833,267.948,-0.869138
6.95,267.965,-0.869159
6.95167,267.981,-0.869178
6.95333,267.998,-0.869204
6.955,268.015,-0.869218
6.95667,268.031,-0.869237
6.95833,268.048,-0.869264
6.96,268.065,-0.869291
6.96167,268.081,-0.869313
6.96333,268.098,-0.869332
6.965,268.115,-0.869353
6.96667,268.132,-0.869372
6.96833,268.148,-0.869388
6.97,268.165,-0.869404
6.97167,268.181,-0.869412
6.97333,268.197,-0.869426
6.975,268.214,-0.869436
6.97667,268.231,-0.869459
6.97833,268.248,-0.86948
6.98,268.264,-0.869505
6.98167,268.281,-0.86953
6.98333,268.298,-0.86956
6.985,268.315,-0.869591
6.98667,268.331,-0.86962
6.98833,268.348,-0.869651
6.99,268.364,-0.869678
6.99167,268.381,-0.869712
6.99333,268.397,-0.869737
6.995,268.414,-0.869767
6.99667,268.43,-0.869795
6.99833,268.447,-0.869823
7,268.464,-0.869849
7.00167,268.48,-0.869881
7.00333,268.497,-0.869925
7.005,268.514,-0.869972
7.00667,268.53,-0.870018
7.00833,268.547,-0.870063
7.01,268.564,-0.870101
7.01167,268.581,-0.870137
7.01333,268.597,-0.870163
7.015,268.614,-0.870176
7.01667,268.63,-0.870176
7.01833,268.647,-0.870176
7.02,268.664,-0.870174
7.02167,268.68,-0.870176
7.02333,268.697,-0.87018
7.025,268.714,-0.870186
7.02667,268.73,-0.870195
7.02833,268.747,-0.870205
7.03,268.764,-0.870214
7.03167,268.781,-0.870224
7.03333,268.797,-0.870235
7.035,268.813,-0.870249
7.03667,268.83,-0.870264
7.03833,268.847,-0.870279
7.04,268.864,-0.870299
7.04167,268.88,-0.870327
7.04333,268.897,-0.870359
7.045,268.914,-0.870403
7.04667,268.93,-0.870453
7.04833,268.947,-0.870491
7.05,268.964,-0.870529
7.05167,268.98,-0.870565
7.05333,268.997,-0.870596
7.055,269.014,-0.870625
7.05667,269.031,-0.870647
7.05833,269.047,-0.870659
7.06,269.064,-0.870665
7.06167,269.08,-0.870667
7.06333,269.097,-0.870677
7.065,269.113,-0.870697
7.06667,269.13,-0.870718
7.06833,269.147,-0.870739
7.07,269.163,-0.870764
7.07167,269.18,-0.870788
7.07333,269.197,-0.870811
7.075,269.214,-0.870827
7.07667,269.231,-0.870845
7.07833,269.247,-0.870863
7.08,269.264,-0.870884
7.08167,269.281,-0.870902
7.08333,269.298,-0.870929
7.085,269.315,-0.870958
7.08667,269.331,-0.870991
7.08833,269.348,-0.871019
7.09,269.364,-0.87105
7.09167,269.38,-0.871076
7.09333,269.398,-0.871093
7.095,269.414,-0.871118
7.09667,269.431,-0.871145
7.09833,269.447,-0.871176
7.1,269.464,-0.8712
7.10167,269.481,-0.871233
7.10333,269.497,-0.871273
7.105,269.514,-0.871317
7.10667,269.53,-0.871365
7.10833,269.547,-0.87141
7.11,269.564,-0.871446
7.11167,269.58,-0.871472
7.11333,269.597,-0.871483
7.115,269.614,-0.871486
7.11667,269.63,-0.871487
7.11833,269.647,-0.871485
7.12,269.664,-0.871493
7.12167,269.681,-0.871511
7.12333,269.697,-0.871535
7.125,269.714,-0.871563
7.12667,269.73,-0.871592
7.12833,269.747,-0.87163
7.13,269.764,-0.871662
7.13167,269.78,-0.871688
7.13333,269.797,-0.871703
7.135,269.814,-0.871701
7.13667,269.83,-0.871701
7.13833,269.847,-0.871702
7.14,269.863,-0.871701
7.14167,269.88,-0.871705
7.14333,269.897,-0.87171
7.145,269.913,-0.871712
7.14667,269.93,-0.871716
7.14833,269.947,-0.871729
7.15,269.963,-0.871744
7.15167,269.98,-0.871756
7.15333,269.996,-0.871763
7.155,270.013,-0.871777
7.15667,270.03,-0.871788
7.15833,270.047,-0.871802
7.16,270.064,-0.871824
7.16167,270.08,-0.871846
7.16333,270.097,-0.871874
7.165,270.113,-0.871899
7.16667,270.13,-0.87193
7.16833,270.146,-0.871969
7.17,270.163,-0.872017
7.17167,270.18,-0.872096
7.17333,270.196,-0.872157
7.175,270.213,-0.872203
7.17667,270.23,-0.872245
7.17833,270.246,-0.872283
7.18,270.263,-0.872313
7.18167,270.28,-0.872334
7.18333,270.296,-0.872343
7.185,270.313,-0.872338
7.18667,270.329,-0.872328
7.18833,270.346,-0.872323
7.19,270.363,-0.87232
7.19167,270.379,-0.872313
7.19333,270.396,-0.872312
7.195,270.412,-0.872319
7.19667,270.429,-0.872327
7.19833,270.446,-0.872341
7.2,270.462,-0.872355
7.20167,270.479,-0.872372
7.20333,270.496,-0.872386
7.205,270.512,-0.872391
7.20667,270.529,-0.872387
7.20833,270.546,-0.87238
7.21,270.562,-0.872375
7.21167,270.579,-0.872371
7.21333,270.596,-0.872363
7.215,270.613,-0.87237
7.21667,270.629,-0.872385
7.21833,270.645,-0.872412
7.22,270.662,-0.872439
7.22167,270.679,-0.872477
7.22333,270.695,-0.872508
7.225,270.712,-0.872541
7.22667,270.729,-0.872577
7.22833,270.745,-0.872615
7.23,270.762,-0.872658
7.23167,270.779,-0.872697
7.23333,270.795,-0.872739
7.235,270.812,-0.872785
7.23667,270.829,-0.87283
7.23833,270.845,-0.872862
7.24,270.862,-0.872897
7.24167,270.879,-0.872929
7.24333,270.895,-0.872953
7.245,270.912,-0.872976
7.24667,270.929,-0.872998
7.24833,270.946,-0.873026
7.25,270.962,-0.873049
7.25167,270.979,-0.873065
7.25333,270.995,-0.873073
7.255,271.012,-0.873084
7.25667,271.028,-0.873087
7.25833,271.045,-0.873091
7.26,271.062,-0.873104
7.26167,271.078,-0.873125
7.26333,271.095,-0.873151
7.265,271.111,-0.873179
7.26667,271.128,-0.87321
7.26833,271.145,-0.873249
7.27,271.161,-0.873288
7.27167,271.178,-0.873328
7.27333,271.195,-0.873356
7.275,271.211,-0.87338
7.27667,271.228,-0.873408
7.27833,271.245,-0.873428
7.28,271.262,-0.873458
7.28167,271.279,-0.873486
7.28333,271.295,-0.873518
7.285,271.312,-0.873552
7.28667,271.328,-0.873593
7.28833,271.345,-0.87364
7.29,271.362,-0.873684
7.29167,271.378,-0.873723
7.29333,271.395,-0.873752
7.295,271.411,-0.873771
7.29667,271.428,-0.873777
7.29833,271.445,-0.873774
7.3,271.461,-0.87377
7.30167,271.478,-0.873765
7.30333,271.495,-0.873758
7.305,271.511,-0.873763
7.30667,271.528,-0.873779
7.30833,271.545,-0.873804
7.31,271.562,-0.873836
7.31167,271.578,-0.873869
7.31333,271.595,-0.873899
7.315,271.611,-0.873933
7.31667,271.628,-0.873967
7.31833,271.644,-0.873993
7.32,271.661,-0.874022
7.32167,271.678,-0.87405
7.32333,271.695,-0.874074
7.325,271.711,-0.874096
7.32667,271.728,-0.874114
7.32833,271.745,-0.874124
7.33,271.762,-0.874138
7.33167,271.778,-0.874165
7.33333,271.795,-0.874189
7.335,271.811,-0.874212
7.33667,271.828,-0.874236
7.33833,271.844,-0.874267
7.34,271.861,-0.8743
7.34167,271.878,-0.874333
7.34333,271.895,-0.874363
7.345,271.911,-0.874398
7.34667,271.928,-0.874429
7.34833,271.945,-0.874459
7.35,271.962,-0.874492
7.35167,271.978,-0.874531
7.35333,271.995,-0.874573
7.355,272.012,-0.87462
7.35667,272.028,-0.87467
7.35833,272.045,-0.87472
7.36,272.061,-0.874762
7.36167,272.078,-0.874798
7.36333,272.094,-0.874828
7.365,272.111,-0.874848
7.36667,272.127,-0.874863
7.36833,272.145,-0.874875
7.37,272.161,-0.874888
7.37167,272.178,-0.874899
7.37333,272.195,-0.874917
7.375,272.211,-0.874933
7.37667,272.228,-0.874952
7.37833,272.245,-0.874969
7.38,272.261,-0.87499
7.38167,272.278,-0.875019
7.38333,272.295,-0.875052
7.385,272.311,-0.875085
7.38667,272.328,-0.875122
7.38833,272.344,-0.875172
7.39,272.361,-0.875222
7.39167,272.378,-0.875275
7.39333,272.394,-0.875322
7.395,272.411,-0.875366
7.39667,272.427,-0.875404
7.39833,272.444,-0.875431
7.4,272.461,-0.87545
7.40167,272.477,-0.875465
7.40333,272.494,-0.875475
7.405,272.511,-0.875472
7.40667,272.528,-0.875467
7.40833,272.544,-0.875473
7.41,272.561,-0.875484
7.41167,272.578,-0.875503
7.41333,272.594,-0.875534
7.415,272.611,-0.875572
7.41667,272.627,-0.875613
7.41833,272.644,-0.875658
7.42,272.661,-0.875707
7.42167,272.677,-0.875753
7.42333,272.694,-0.875795
7.425,272.711,-0.875823
7.42667,272.727,-0.875845
7.42833,272.744,-0.875863
7.43,272.76,-0.875884
7.43167,272.777,-0.875904
7.43333,272.794,-0.875929
7.435,272.81,-0.875952
7.43667,272.827,-0.875971
7.43833,272.844,-0.875986
7.44,272.86,-0.876001
7.44167,272.877,-0.876026
7.44333,272.893,-0.876051
7.445,272.91,-0.876071
7.44667,272.927,-0.876086
7.44833,272.944,-0.876097
7.45,272.961,-0.876113
7.45167,272.977,-0.87613
7.45333,272.994,-0.876144
7.455,273.01,-0.876153
7.45667,273.027,-0.876164
7.45833,273.044,-0.876176
7.46,273.06,-0.876197
7.46167,273.077,-0.876225
7.46333,273.093,-0.876258
7.465,273.11,-0.876301
7.46667,273.127,-0.876348
7.46833,273.143,-0.876396
7.47,273.16,-0.876436
7.47167,273.177,-0.876466
7.47333,273.194,-0.876493
7.475,273.21,-0.876514
7.47667,273.227,-0.876528
7.47833,273.243,-0.876539
7.48,273.26,-0.876546
7.48167,273.276,-0.876556
7.48333,273.293,-0.876566
7.485,273.31,-0.876585
7.48667,273.327,-0.8766
7.48833,273.343,-0.876615
7.49,273.36,-0.876636
7.49167,273.377,-0.876669
7.49333,273.393,-0.87671
7.495,273.41,-0.876755
7.49667,273.427,-0.876794
7.49833,273.443,-0.876831
7.5,273.46,-0.876874
7.50167,273.477,-0.876914
7.50333,273.494,-0.87695
7.505,273.51,-0.876993
7.50667,273.527,-0.877042
7.50833,273.544,-0.87709
7.51,273.56,-0.877138
7.51167,273.577,-0.877185
7.51333,273.594,-0.877218
7.515,273.61,-0.877246
7.51667,273.627,-0.877267
7.51833,273.643,-0.877286
7.52,273.66,-0.877305
7.52167,273.676,-0.877321
7.52333,273.693,-0.87733
7.525,273.71,-0.877346
7.52667,273.726,-0.877359
7.52833,273.743,-0.877375
7.53,273.759,-0.877395
7.53167,273.777,-0.877423
7.53333,273.793,-0.877462
7.535,273.809,-0.877502
7.53667,273.826,-0.877536
7.53833,273.843,-0.877566
7.54,273.86,-0.877595
7.54167,273.877,-0.877626
7.54333,273.893,-0.877655
7.545,273.91,-0.877676
7.54667,273.926,-0.877696
7.54833,273.943,-0.877716
7.55,273.96,-0.877731
7.55167,273.977,-0.877742
7.55333,273.993,-0.877755
7.555,274.009,-0.877765
7.55667,274.026,-0.87777
7.55833,274.043,-0.877774
7.56,274.059,-0.877781
7.56167,274.076,-0.877788
7.56333,274.093,-0.877784
7.565,274.109,-0.877791
7.56667,274.126,-0.877801
7.56833,274.142,-0.877812
7.57,274.159,-0.877832
7.57167,274.176,-0.877853
7.57333,274.192,-0.877883
7.575,274.209,-0.877928
7.57667,274.225,-0.877971
7.57833,274.242,-0.878014
7.58,274.259,-0.878064
7.58167,274.276,-0.878104
7.58333,274.292,-0.878138
7.585,274.309,-0.878167
7.58667,274.326,-0.878196
7.58833,274.342,-0.878227
7.59,274.359,-0.878258
7.59167,274.376,-0.878286
7.59333,274.392,-0.878317
7.595,274.409,-0.878353
7.59667,274.426,-0.878394
7.59833,274.442,-0.878432
7.6,274.458,-0.878469
7.60167,274.475,-0.878501
7.60333,274.492,-0.87852
7.605,274.508,-0.878531
7.60667,274.525,-0.878541
7.60833,274.542,-0.878552
7.61,274.558,-0.878556
7.61167,274.575,-0.878556
7.61333,274.592,-0.878565
7.615,274.608,-0.878593
7.61667,274.625,-0.878625
7.61833,274.641,-0.878667
7.62,274.658,-0.878713
7.62167,274.675,-0.878759
7.62333,274.691,-0.878812
7.625,274.708,-0.878856
7.62667,274.725,-0.878898
7.62833,274.742,-0.878932
7.63,274.758,-0.878963
7.63167,274.775,-0.879001
7.63333,274.792,-0.879043
7.635,274.808,-0.879086
7.63667,274.825,-0.879131
7.63833,274.842,-0.879186
7.64,274.859,-0.879243
7.64167,274.875,-0.8793
7.64333,274.892,-0.879352
7.645,274.908,-0.879396
7.64667,274.925,-0.879433
7.64833,274.941,-0.879458
7.65,274.958,-0.879478
7.65167,274.975,-0.87949
7.65333,274.991,-0.879499
7.655,275.008,-0.879507
7.65667,275.025,-0.879525
7.65833,275.042,-0.879549
7.66,275.059,-0.879581
7.66167,275.075,-0.879624
7.66333,275.092,-0.87967
7.665,275.108,-0.87972
7.66667,275.125,-0.879772
7.66833,275.142,-0.879817
7.67,275.158,-0.879849
7.67167,275.175,-0.879865
7.67333,275.192,-0.879879
7.675,275.209,-0.879893
7.67667,275.225,-0.8799
7.67833,275.241,-0.879908
7.68,275.258,-0.879926
7.68167,275.275,-0.879953
7.68333,275.292,-0.879985
7.685,275.308,-0.880024
7.68667,275.325,-0.880063
7.68833,275.341,-0.880092
7.69,275.358,-0.880114
7.69167,275.375,-0.880129
7.69333,275.391,-0.880139
7.695,275.408,-0.880144
7.69667,275.425,-0.880148
7.69833,275.441,-0.880152
7.7,275.458,-0.880165
7.70167,275.475,-0.880174
7.70333,275.491,-0.880189
7.705,275.508,-0.880214
7.70667,275.525,-0.880247
7.70833,275.541,-0.880285
7.71,275.558,-0.880336
7.71167,275.575,-0.880383
7.71333,275.592,-0.880428
7.715,275.608,-0.880468
7.71667,275.625,-0.880502
7.71833,275.641,-0.880535
7.72,275.658,-0.880566
7.72167,275.675,-0.880599
7.72333,275.691,-0.880634
7.725,275.708,-0.880669
7.72667,275.724,-0.880697
7.72833,275.741,-0.880724
7.73,275.758,-0.880738
7.73167,275.774,-0.880749
7.73333,275.791,-0.880761
7.735,275.808,-0.880768
7.73667,275.825,-0.880766
7.73833,275.841,-0.88077
7.74,275.858,-0.880781
7.74167,275.874,-0.880797
7.74333,275.891,-0.880815
7.745,275.908,-0.880833
7.74667,275.924,-0.880865
7.74833,275.941,-0.880898
7.75,275.958,-0.880938
7.75167,275.974,-0.88097
7.75333,275.991,-0.880997
7.755,276.008,-0.881022
7.75667,276.024,-0.881046
7.75833,276.041,-0.881065
7.76,276.057,-0.881086
7.76167,276.074,-0.881107
7.76333,276.091,-0.881125
7.765,276.107,-0.881145
7.76667,276.124,-0.881172
7.76833,276.141,-0.881208
7.77,276.157,-0.881238
7.77167,276.174,-0.881276
7.77333,276.191,-0.881322
7.775,276.207,-0.881378
7.77667,276.224,-0.881441
7.77833,276.241,-0.881524
7.78,276.257,-0.881582
7.78167,276.274,-0.881635
7.78333,276.291,-0.881682
7.785,276.308,-0.881723
7.78667,276.325,-0.881755
7.78833,276.341,-0.881773
7.79,276.358,-0.881787
7.79167,276.374,-0.881797
7.79333,276.391,-0.881805
7.795,276.408,-0.881813
7.79667,276.424,-0.881824
7.79833,276.441,-0.881847
7.8,276.458,-0.881873
7.80167,276.474,-0.881902
7.80333,276.491,-0.881936
7.805,276.507,-0.881974
7.80667,276.524,-0.88201
7.80833,276.54,-0.882044
7.81,276.557,-0.882081
7.81167,276.574,-0.882115
7.81333,276.59,-0.882156
7.815,276.607,-0.882183
7.81667,276.624,-0.882212
7.81833,276.641,-0.882243
7.82,276.657,-0.882278
7.82167,276.674,-0.882313
7.82333,276.69,-0.882336
7.825,276.707,-0.882365
7.82667,276.724,-0.882393
7.82833,276.741,-0.882426
7.83,276.757,-0.882452
7.83167,276.774,-0.882481
7.83333,276.79,-0.88251
7.835,276.807,-0.882541
7.83667,276.824,-0.882578
7.83833,276.84,-0.882621
7.84,276.857,-0.882662
7.84167,276.874,-0.882696
7.84333,276.89,-0.882726
7.845,276.907,-0.882752
7.84667,276.924,-0.88278
7.84833,276.941,-0.882805
7.85,276.957,-0.882821
7.85167,276.974,-0.882845
7.85333,276.991,-0.88287
7.855,277.007,-0.882904
7.85667,277.024,-0.882939
7.85833,277.041,-0.88298
7.86,277.057,-0.883021
7.86167,277.074,-0.883067
7.86333,277.09,-0.883113
7.865,277.107,-0.883155
7.86667,277.124,-0.883194
7.86833,277.141,-0.883229
7.87,277.157,-0.883261
7.87167,277.174,-0.883287
7.87333,277.191,-0.883314
7.875,277.207,-0.883335
7.87667,277.224,-0.883353
7.87833,277.24,-0.883375
7.88,277.257,-0.883395
7.88167,277.273,-0.883423
7.88333,277.29,-0.883442
7.885,277.307,-0.883461
7.88667,277.323,-0.883483
7.88833,277.34,-0.883503
7.89,277.357,-0.883522
7.89167,277.374,-0.883547
7.89333,277.39,-0.883579
7.895,277.407,-0.883605
7.89667,277.424,-0.883629
7.89833,277.44,-0.883648
7.9,277.457,-0.883668
7.90167,277.474,-0.883685
7.90333,277.49,-0.883699
7.905,277.507,-0.883716
7.90667,277.524,-0.883732
7.90833,277.541,-0.88375
7.91,277.557,-0.883765
7.91167,277.574,-0.883789
7.91333,277.591,-0.88382
7.915,277.607,-0.88386
7.91667,277.624,-0.8839
7.91833,277.64,-0.883948
7.92,277.657,-0.883992
7.92167,277.673,-0.884036
7.92333,277.69,-0.884075
7.925,277.706,-0.884109
7.92667,277.723,-0.88413
7.92833,277.74,-0.884148
7.93,277.756,-0.884162
7.93167,277.773,-0.884176
7.93333,277.79,-0.884185
7.935,277.806,-0.884193
7.93667,277.823,-0.884207
7.93833,277.84,-0.884226
7.94,277.857,-0.884251
7.94167,277.873,-0.884289
7.94333,277.89,-0.884327
7.945,277.907,-0.884365
7.94667,277.923,-0.884407
7.94833,277.94,-0.884445
7.95,277.957,-0.88448
7.95167,277.973,-0.884506
7.95333,277.99,-0.884536
7.955,278.007,-0.884565
7.95667,278.024,-0.8846
7.95833,278.04,-0.88463
7.96,278.056,-0.884671
7.96167,278.073,-0.884712
7.96333,278.09,-0.884759
7.965,278.106,-0.884798
7.96667,278.123,-0.884838
7.96833,278.139,-0.884869
7.97,278.156,-0.884903
7.97167,278.173,-0.884935
7.97333,278.19,-0.884968
7.975,278.206,-0.884992
7.97667,278.223,-0.885016
7.97833,278.24,-0.885044
7.98,278.256,-0.88507
7.98167,278.273,-0.885092
7.98333,278.29,-0.885118
7.985,278.306,-0.885139
7.98667,278.323,-0.885159
7.98833,278.34,-0.885178
7.99,278.356,-0.885193
7.99167,278.373,-0.885207
7.99333,278.39,-0.885212
7.995,278.406,-0.885215
7.99667,278.423,-0.88522
7.99833,278.439,-0.885241
8,278.456,-0.885277
8.00167,278.473,-0.885313
8.00333,278.489,-0.885353
8.005,278.506,-0.885388
8.00667,278.523,-0.885424
8.00833,278.539,-0.885457
8.01,278.556,-0.885497
8.01167,278.573,-0.885531
8.01333,278.59,-0.885568
8.015,278.606,-0.8856
8.01667,278.623,-0.885632
8.01833,278.64,-0.885667
8.02,278.656,-0.885711
8.02167,278.673,-0.885752
8.02333,278.69,-0.88579
8.025,278.706,-0.885824
8.02667,278.723,-0.885854
8.02833,278.74,-0.88589
8.03,278.756,-0.885922
8.03167,278.773,-0.885944
8.03333,278.79,-0.885964
8.035,278.806,-0.885981
8.03667,278.823,-0.886004
8.03833,278.84,-0.886034
8.04,278.856,-0.886067
8.04167,278.873,-0.886099
8.04333,278.89,-0.886127
8.045,278.906,-0.886158
8.04667,278.923,-0.886195
8.04833,278.94,-0.886242
8.05,278.956,-0.886287
8.05167,278.973,-0.886333
8.05333,278.989,-0.886369
8.055,279.006,-0.886401
8.05667,279.023,-0.886434
8.05833,279.04,-0.886459
8.06,279.056,-0.886486
8.06167,279.073,-0.886499
8.06333,279.089,-0.886508
8.065,279.106,-0.88651
8.06667,279.123,-0.886515
8.06833,279.139,-0.886521
8.07,279.156,-0.886531
8.07167,279.172,-0.886552
8.07333,279.189,-0.886578
8.075,279.206,-0.886611
8.07667,279.223,-0.886645
8.07833,279.24,-0.886686
8.08,279.256,-0.886723
8.08167,279.273,-0.886755
8.08333,279.29,-0.88678
8.085,279.306,-0.886806
8.08667,279.323,-0.886822
8.08833,279.34,-0.886834
8.09,279.356,-0.886847
8.09167,279.372,-0.886876
8.09333,279.389,-0.886906
8.095,279.406,-0.886938
8.09667,279.422,-0.886979
8.09833,279.439,-0.887031
8.1,279.456,-0.887084
8.10167,279.473,-0.887135
8.10333,279.489,-0.887184
8.105,279.506,-0.887224
8.10667,279.523,-0.887262
8.10833,279.54,-0.887289
8.11,279.556,-0.887307
8.11167,279.573,-0.887319
8.11333,279.589,-0.88732
8.115,279.606,-0.887323
8.11667,279.623,-0.887335
8.11833,279.639,-0.887349
8.12,279.656,-0.887355
8.12167,279.673,-0.887364
8.12333,279.689,-0.887384
8.125,279.706,-0.887403
8.12667,279.723,-0.887419
8.12833,279.739,-0.887434
8.13,279.756,-0.887442
8.13167,279.772,-0.887444
8.13333,279.789,-0.88745
8.135,279.806,-0.88747
8.13667,279.822,-0.887497
8.13833,279.839,-0.887529
8.14,279.856,-0.887567
8.14167,279.872,-0.887612
8.14333,279.889,-0.887655
8.145,279.906,-0.887686
8.14667,279.922,-0.887716
8.14833,279.939,-0.887742
8.15,279.956,-0.887759
8.15167,279.972,-0.887767
8.15333,279.989,-0.887773
8.155,280.006,-0.887778
8.15667,280.022,-0.887801
8.15833,280.039,-0.887838
8.16,280.056,-0.887887
8.16167,280.072,-0.887929
8.16333,280.089,-0.887966
8.165,280.105,-0.888012
8.16667,280.122,-0.888058
8.16833,280.138,-0.888104
8.17,280.155,-0.888141
8.17167,280.172,-0.88817
8.17333,280.189,-0.888195
8.175,280.205,-0.888212
8.17667,280.222,-0.888229
8.17833,280.239,-0.88825
8.18,280.256,-0.888271
8.18167,280.272,-0.88829
8.18333,280.289,-0.888302
8.185,280.306,-0.888315
8.18667,280.322,-0.888329
8.18833,280.339,-0.888347
8.19,280.355,-0.888372
8.19167,280.372,-0.888399
8.19333,280.389,-0.888429
8.195,280.405,-0.888463
8.19667,280.422,-0.888493
8.19833,280.439,-0.888525
8.2,280.455,-0.888554
8.20167,280.472,-0.888578
8.20333,280.489,-0.888594
8.205,280.506,-0.888603
8.20667,280.522,-0.888601
8.20833,280.539,-0.888604
8.21,280.555,-0.88861
8.21167,280.572,-0.888619
8.21333,280.588,-0.888626
8.215,280.605,-0.888638
8.21667,280.622,-0.888659
8.21833,280.638,-0.888686
8.22,280.655,-0.888715
8.22167,280.672,-0.888742
8.22333,280.688,-0.888767
8.225,280.705,-0.888791
8.22667,280.722,-0.888809
8.22833,280.739,-0.888833
8.23,280.755,-0.888861
8.23167,280.772,-0.888889
8.23333,280.788,-0.888914
8.235,280.805,-0.888941
8.23667,280.822,-0.888977
8.23833,280.838,-0.889019
8.24,280.855,-0.889068
8.24167,280.872,-0.889111
8.24333,280.888,-0.889156
8.245,280.905,-0.889193
8.24667,280.922,-0.889234
8.24833,280.938,-0.889283
8.25,280.955,-0.889335
8.25167,280.972,-0.889386
8.25333,280.988,-0.889441
8.255,281.005,-0.889482
8.25667,281.021,-0.889519
8.25833,281.038,-0.889553
8.26,281.055,-0.889584
8.26167,281.071,-0.889612
8.26333,281.088,-0.889625
8.265,281.105,-0.889631
8.26667,281.122,-0.889631
8.26833,281.138,-0.889634
8.27,281.155,-0.889636
8.27167,281.171,-0.889632
8.27333,281.188,-0.889632
8.275,281.205,-0.889636
8.27667,281.222,-0.889642
8.27833,281.238,-0.889655
8.28,281.255,-0.889671
8.28167,281.272,-0.889691
8.28333,281.288,-0.889721
8.285,281.305,-0.889752
8.28667,281.321,-0.88979
8.28833,281.338,-0.889828
8.29,281.354,-0.889874
8.29167,281.371,-0.889924
8.29333,281.388,-0.889976
8.295,281.404,-0.890023
8.29667,281.421,-0.890075
8.29833,281.437,-0.890127
8.3,281.454,-0.890175
8.30167,281.471,-0.890218
8.30333,281.488,-0.890261
8.305,281.504,-0.8903
8.30667,281.521,-0.890331
8.30833,281.538,-0.890356
8.31,281.554,-0.890381
8.31167,281.571,-0.890404
8.31333,281.588,-0.890418
8.315,281.604,-0.890432
8.31667,281.621,-0.890448
8.31833,281.638,-0.890472
8.32,281.654,-0.890501
8.32167,281.671,-0.890535
8.32333,281.687,-0.890566
8.325,281.704,-0.890597
8.32667,281.721,-0.890629
8.32833,281.738,-0.890663
8.33,281.754,-0.890692
8.33167,281.771,-0.890718
8.33333,281.788,-0.890741
8.335,281.805,-0.890763
8.33667,281.821,-0.890781
8.33833,281.838,-0.890799
8.34,281.854,-0.890812
8.34167,281.871,-0.890834
8.34333,281.888,-0.89086
8.345,281.904,-0.890894
8.34667,281.921,-0.89094
8.34833,281.937,-0.890984
8.35,281.954,-0.89104
8.35167,281.971,-0.89112
8.35333,281.988,-0.891181
8.355,282.004,-0.891249
8.35667,282.021,-0.891308
8.35833,282.038,-0.891358
8.36,282.054,-0.891408
8.36167,282.071,-0.891453
8.36333,282.087,-0.891491
8.365,282.104,-0.891522
8.36667,282.121,-0.891548
8.36833,282.137,-0.89157
8.37,282.154,-0.89159
8.37167,282.17,-0.891609
8.37333,282.187,-0.891637
8.375,282.204,-0.891669
8.37667,282.22,-0.891703
8.37833,282.237,-0.891734
8.38,282.254,-0.891765
8.38167,282.271,-0.891801
8.38333,282.288,-0.891831
8.385,282.304,-0.89186
8.38667,282.321,-0.891888
8.38833,282.338,-0.891912
8.39,282.354,-0.891931
8.39167,282.371,-0.891945
8.39333,282.388,-0.89197
8.395,282.404,-0.891997
8.39667,282.421,-0.892021
8.39833,282.437,-0.89204
8.4,282.454,-0.892057
8.40167,282.47,-0.89207
8.40333,282.487,-0.89209
8.405,282.504,-0.892097
8.40667,282.521,-0.892098
8.40833,282.537,-0.892104
8.41,282.554,-0.892116
8.41167,282.571,-0.892125
8.41333,282.587,-0.892139
8.415,282.604,-0.892154
8.41667,282.62,-0.892175
8.41833,282.637,-0.892209
8.42,282.654,-0.892246
8.42167,282.67,-0.892282
8.42333,282.687,-0.892316
8.425,282.704,-0.892352
8.42667,282.72,-0.892389
8.42833,282.737,-0.892432
8.43,282.753,-0.892469
8.43167,282.77,-0.892513
8.43333,282.787,-0.892553
8.435,282.804,-0.892598
8.43667,282.82,-0.892638
8.43833,282.837,-0.892679
8.44,282.853,-0.892727
8.44167,282.87,-0.892765
8.44333,282.887,-0.892804
8.445,282.903,-0.892848
8.44667,282.92,-0.892882
8.44833,282.937,-0.892913
8.45,282.953,-0.892935
8.45167,282.97,-0.89295
8.45333,282.987,-0.892964
8.455,283.003,-0.892978
8.45667,283.02,-0.892988
8.45833,283.037,-0.893004
8.46,283.053,-0.893026
8.46167,283.07,-0.893053
8.46333,283.087,-0.893084
8.465,283.103,-0.893111
8.46667,283.12,-0.893137
8.46833,283.136,-0.893157
8.47,283.153,-0.893174
8.47167,283.17,-0.893193
8.47333,283.187,-0.893207
8.475,283.203,-0.893217
8.47667,283.22,-0.893231
8.47833,283.236,-0.893244
8.48,283.253,-0.893266
8.48167,283.269,-0.89329
8.48333,283.286,-0.893316
8.485,283.303,-0.893345
8.48667,283.319,-0.893365
8.48833,283.336,-0.893388
8.49,283.353,-0.893408
8.49167,283.369,-0.893438
8.49333,283.386,-0.893473
8.495,283.402,-0.893504
8.49667,283.419,-0.893551
8.49833,283.436,-0.893605
8.5,283.453,-0.893655
8.50167,283.469,-0.8937
8.50333,283.486,-0.893746
8.505,283.503,-0.893784
8.50667,283.52,-0.893812
8.50833,283.536,-0.893851
8.51,283.553,-0.893894
8.51167,283.57,-0.893934
8.51333,283.586,-0.893971
8.515,283.603,-0.894017
8.51667,283.619,-0.89406
8.51833,283.636,-0.894095
8.52,283.653,-0.894133
8.52167,283.669,-0.894172
8.52333,283.686,-0.894199
8.525,283.703,-0.894227
8.52667,283.72,-0.894248
8.52833,283.736,-0.894267
8.53,283.753,-0.894282
8.53167,283.77,-0.894293
8.53333,283.786,-0.894308
8.535,283.803,-0.894319
8.53667,283.819,-0.894334
8.53833,283.836,-0.894353
8.54,283.853,-0.894379
8.54167,283.869,-0.89441
8.54333,283.886,-0.894443
8.545,283.902,-0.894472
8.54667,283.919,-0.894502
8.54833,283.936,-0.894528
8.55,283.953,-0.894554
8.55167,283.97,-0.894577
8.55333,283.986,-0.894602
8.555,284.003,-0.894635
8.55667,284.019,-0.894667
8.55833,284.036,-0.8947
8.56,284.053,-0.894741
8.56167,284.069,-0.894787
8.56333,284.086,-0.894833
8.565,284.102,-0.894882
8.56667,284.119,-0.894925
8.56833,284.136,-0.894967
8.57,284.152,-0.895009
8.57167,284.169,-0.895052
8.57333,284.186,-0.895093
8.575,284.202,-0.895124
8.57667,284.219,-0.89515
8.57833,284.236,-0.895179
8.58,284.253,-0.895201
8.58167,284.269,-0.895228
8.58333,284.286,-0.895252
8.585,284.303,-0.895271
8.58667,284.319,-0.895286
8.58833,284.336,-0.895306
8.59,284.353,-0.895337
8.59167,284.369,-0.895369
8.59333,284.386,-0.895417
8.595,284.403,-0.895465
8.59667,284.419,-0.895521
8.59833,284.436,-0.895576
8.6,284.453,-0.895632
8.60167,284.469,-0.895686
8.60333,284.486,-0.895737
8.605,284.502,-0.895787
8.60667,284.519,-0.895823
8.60833,284.536,-0.895853
8.61,284.552,-0.895884
8.61167,284.569,-0.895918
8.61333,284.586,-0.895952
8.615,284.602,-0.895989
8.61667,284.619,-0.896029
8.61833,284.635,-0.896079
8.62,284.652,-0.896131
8.62167,284.669,-0.896193
8.62333,284.686,-0.89625
8.625,284.702,-0.896307
8.62667,284.719,-0.896348
8.62833,284.736,-0.896385
8.63,284.752,-0.896415
8.63167,284.769,-0.89644
8.63333,284.786,-0.896459
8.635,284.803,-0.896478
8.63667,284.819,-0.896504
8.63833,284.836,-0.896534
8.64,284.853,-0.896568
8.64167,284.869,-0.896611
8.64333,284.886,-0.896672
8.645,284.903,-0.896732
8.64667,284.919,-0.89679
8.64833,284.936,-0.896838
8.65,284.952,-0.896879
8.65167,284.969,-0.896912
8.65333,284.986,-0.896951
8.655,285.002,-0.896992
8.65667,285.019,-0.897033
8.65833,285.036,-0.897081
8.66,285.052,-0.897125
8.66167,285.069,-0.89717
8.66333,285.086,-0.897218
8.665,285.102,-0.897259
8.66667,285.119,-0.897296
8.66833,285.136,-0.897323
8.67,285.152,-0.897341
8.67167,285.169,-0.897356
8.67333,285.186,-0.897365
8.675,285.203,-0.89738
8.67667,285.219,-0.897402
8.67833,285.236,-0.89743
8.68,285.253,-0.897455
8.68167,285.269,-0.897485
8.68333,285.286,-0.897515
8.685,285.302,-0.897544
8.68667,285.319,-0.897589
8.68833,285.336,-0.897641
8.69,285.353,-0.897692
8.69167,285.369,-0.89774
8.69333,285.386,-0.897786
8.695,285.403,-0.897832
8.69667,285.42,-0.897883
8.69833,285.436,-0.897941
8.7,285.453,-0.898
8.70167,285.469,-0.89806
8.70333,285.486,-0.898115
8.705,285.502,-0.89817
8.70667,285.519,-0.898226
8.70833,285.536,-0.898277
8.71,285.552,-0.898324
8.71167,285.569,-0.89836
8.71333,285.585,-0.898383
8.715,285.602,-0.898404
8.71667,285.619,-0.898433
8.71833,285.636,-0.898466
8.72,285.652,-0.898501
8.72167,285.669,-0.898533
8.72333,285.685,-0.898565
8.725,285.702,-0.898602
8.72667,285.719,-0.898639
8.72833,285.735,-0.898679
8.73,285.752,-0.898723
8.73167,285.769,-0.898765
8.73333,285.785,-0.898805
8.735,285.802,-0.898857
8.73667,285.819,-0.898913
8.73833,285.835,-0.898969
8.74,285.852,-0.899027
8.74167,285.868,-0.899077
8.74333,285.885,-0.899124
8.745,285.902,-0.89917
8.74667,285.918,-0.899212
8.74833,285.935,-0.899247
8.75,285.952,-0.89929
8.75167,285.969,-0.899333
8.75333,285.985,-0.89938
8.755,286.002,-0.899428
8.75667,286.018,-0.899485
8.75833,286.035,-0.89954
8.76,286.052,-0.899591
8.76167,286.068,-0.899632
8.76333,286.085,-0.899662
8.765,286.102,-0.899681
8.76667,286.118,-0.899689
8.76833,286.135,-0.899689
8.77,286.152,-0.899697
8.77167,286.169,-0.899714
8.77333,286.185,-0.899739
8.775,286.202,-0.899777
8.77667,286.219,-0.899822
8.77833,286.235,-0.899873
8.78,286.252,-0.899929
8.78167,286.269,-0.899979
8.78333,286.285,-0.900023
8.785,286.302,-0.900071
8.78667,286.319,-0.900122
8.78833,286.335,-0.900182
8.79,286.352,-0.900242
8.79167,286.369,-0.900296
8.79333,286.385,-0.900347
8.795,286.402,-0.900405
8.79667,286.419,-0.900452
8.79833,286.435,-0.900491
8.8,286.452,-0.900524
8.80167,286.469,-0.900555
8.80333,286.485,-0.900585
8.805,286.502,-0.900615
8.80667,286.518,-0.900652
8.80833,286.535,-0.900692
8.81,286.552,-0.90073
8.81167,286.568,-0.900768
8.81333,286.585,-0.900811
8.815,286.602,-0.900861
8.81667,286.618,-0.900919
8.81833,286.635,-0.900983
8.82,286.652,-0.901047
8.82167,286.669,-0.901116
8.82333,286.685,-0.901184
8.825,286.702,-0.901245
8.82667,286.718,-0.901293
8.82833,286.735,-0.901334
8.83,286.752,-0.901368
8.83167,286.768,-0.9014
8.83333,286.785,-0.901427
8.835,286.802,-0.901458
8.83667,286.818,-0.901495
8.83833,286.835,-0.901535
8.84,286.851,-0.901576
8.84167,286.868,-0.901624
8.84333,286.885,-0.901679
8.845,286.902,-0.901734
8.84667,286.918,-0.901788
8.84833,286.934,-0.901839
8.85,286.951,-0.901893
8.85167,286.968,-0.901943
8.85333,286.984,-0.901986
8.855,287.001,-0.902028
8.85667,287.018,-0.902063
8.85833,287.035,-0.90209
8.86,287.051,-0.902116
8.86167,287.068,-0.902148
8.86333,287.085,-0.902177
8.865,287.101,-0.902213
8.86667,287.118,-0.902256
8.86833,287.135,-0.902305
8.87,287.151,-0.902368
8.87167,287.168,-0.902434
8.87333,287.184,-0.902496
8.875,287.201,-0.902556
8.87667,287.217,-0.902622
8.87833,287.234,-0.902687
8.88,287.251,-0.902749
8.88167,287.268,-0.902817
8.88333,287.285,-0.902884
8.885,287.301,-0.902953
8.88667,287.318,-0.903015
8.88833,287.334,-0.903073
8.89,287.351,-0.903134
8.89167,287.368,-0.903188
8.89333,287.384,-0.903237
8.895,287.401,-0.903286
8.89667,287.418,-0.903325
8.89833,287.435,-0.903365
8.9,287.451,-0.903401
8.90167,287.468,-0.903436
8.90333,287.485,-0.903468
8.905,287.501,-0.9035
8.90667,287.518,-0.903537
8.90833,287.535,-0.903577
8.91,287.551,-0.903617
8.91167,287.568,-0.903657
8.91333,287.585,-0.903702
8.915,287.601,-0.903741
8.91667,287.618,-0.903771
8.91833,287.634,-0.903806
8.92,287.651,-0.903843
8.92167,287.667,-0.903879
8.92333,287.684,-0.903909
8.925,287.701,-0.90394
8.92667,287.717,-0.903986
8.92833,287.734,-0.904043
8.93,287.751,-0.904106
8.93167,287.768,-0.904172
8.93333,287.784,-0.904243
8.935,287.801,-0.904329
8.93667,287.817,-0.904419
8.93833,287.834,-0.904495
8.94,287.851,-0.904559
8.94167,287.867,-0.90461
8.94333,287.884,-0.904653
8.945,287.901,-0.904692
8.94667,287.917,-0.904731
8.94833,287.934,-0.904761
8.95,287.951,-0.904793
8.95167,287.967,-0.90482
8.95333,287.984,-0.904852
8.955,288.001,-0.904892
8.95667,288.017,-0.904938
8.95833,288.034,-0.904996
8.96,288.051,-0.905061
8.96167,288.067,-0.905135
8.96333,288.084,-0.90522
8.965,288.1,-0.905295
8.96667,288.117,-0.905371
8.96833,288.134,-0.905447
8.97,288.15,-0.905514
8.97167,288.167,-0.905581
8.97333,288.184,-0.905633
8.975,288.2,-0.90568
8.97667,288.217,-0.905724
8.97833,288.233,-0.905759
8.98,288.25,-0.905797
8.98167,288.267,-0.90584
8.98333,288.284,-0.905881
8.985,288.3,-0.905917
8.98667,288.317,-0.905952
8.98833,288.333,-0.90599
8.99,288.35,-0.906037
8.99167,288.367,-0.906094
8.99333,288.383,-0.906149
8.995,288.4,-0.906206
8.99667,288.417,-0.906261
8.99833,288.433,-0.906324
9,288.45,-0.906392
9.00167,288.466,-0.906456
9.00333,288.483,-0.906514
9.005,288.5,-0.906571
9.00667,288.516,-0.90662
9.00833,288.533,-0.906665
9.01,288.55,-0.90671
9.01167,288.567,-0.906763
9.01333,288.583,-0.906818
9.015,288.6,-0.906886
9.01667,288.617,-0.906961
9.01833,288.633,-0.907031
9.02,288.65,-0.907095
9.02167,288.666,-0.907163
9.02333,288.683,-0.907232
9.025,288.7,-0.907285
9.02667,288.716,-0.907331
9.02833,288.733,-0.907374
9.03,288.75,-0.907406
9.03167,288.766,-0.907433
9.03333,288.783,-0.907458
9.035,288.8,-0.907491
9.03667,288.816,-0.907524
9.03833,288.833,-0.907554
9.04,288.85,-0.907594
9.04167,288.866,-0.907646
9.04333,288.883,-0.9077
9.045,288.9,-0.907756
9.04667,288.917,-0.907813
9.04833,288.933,-0.907868
9.05,288.95,-0.907923
9.05167,288.967,-0.907984
9.05333,288.983,-0.90804
9.055,289,-0.908089
9.05667,289.016,-0.908129
9.05833,289.033,-0.908169
9.06,289.05,-0.908216
9.06167,289.066,-0.908265
9.06333,289.083,-0.908316
9.065,289.099,-0.908368
9.06667,289.116,-0.908425
9.06833,289.133,-0.90849
9.07,289.149,-0.908556
9.07167,289.166,-0.908622
9.07333,289.183,-0.908689
9.075,289.199,-0.908756
9.07667,289.216,-0.908827
9.07833,289.232,-0.908893
9.08,289.249,-0.908959
9.08167,289.266,-0.909014
9.08333,289.283,-0.909073
9.085,289.3,-0.90913
9.08667,289.316,-0.909182
9.08833,289.333,-0.909231
9.09,289.35,-0.909283
9.09167,289.366,-0.909343
9.09333,289.383,-0.909411
9.095,289.4,-0.909491
9.09667,289.416,-0.909608
9.09833,289.433,-0.909744
9.1,289.449,-0.909863
9.10167,289.466,-0.909978
9.10333,289.483,-0.910094
9.105,289.499,-0.91018
9.10667,289.516,-0.910255
9.10833,289.533,-0.910319
9.11,289.55,-0.910384
9.11167,289.566,-0.910452
9.11333,289.583,-0.910515
9.115,289.599,-0.910573
9.11667,289.616,-0.910624
9.11833,289.633,-0.910676
9.12,289.649,-0.910732
9.12167,289.666,-0.910789
9.12333,289.682,-0.910847
9.125,289.699,-0.910903
9.12667,289.716,-0.910958
9.12833,289.732,-0.911005
9.13,289.749,-0.911049
9.13167,289.766,-0.911087
9.13333,289.782,-0.911131
9.135,289.799,-0.911174
9.13667,289.816,-0.911227
9.13833,289.832,-0.911287
9.14,289.849,-0.911356
9.14167,289.866,-0.911429
9.14333,289.882,-0.911502
9.145,289.899,-0.911577
9.14667,289.916,-0.911645
9.14833,289.932,-0.911706
9.15,289.949,-0.911758
9.15167,289.966,-0.911801
9.15333,289.982,-0.911838
9.155,289.999,-0.911879
9.15667,290.015,-0.911927
9.15833,290.032,-0.911976
9.16,290.049,-0.912032
9.16167,290.066,-0.912093
9.16333,290.082,-0.912165
9.165,290.099,-0.912235
9.16667,290.115,-0.912312
9.16833,290.132,-0.91239
9.17,290.148,-0.912468
9.17167,290.165,-0.91255
9.17333,290.181,-0.91263
9.175,290.198,-0.912697
9.17667,290.215,-0.912753
9.17833,290.231,-0.912799
9.18,290.248,-0.912832
9.18167,290.265,-0.912872
9.18333,290.282,-0.912912
9.185,290.298,-0.912961
9.18667,290.315,-0.913009
9.18833,290.331,-0.913062
9.19,290.348,-0.913111
9.19167,290.365,-0.913161
9.19333,290.381,-0.913218
9.195,290.398,-0.913271
9.19667,290.415,-0.913322
9.19833,290.431,-0.913367
9.2,290.448,-0.913418
9.20167,290.464,-0.913471
9.20333,290.481,-0.913532
9.205,290.497,-0.913596
9.20667,290.514,-0.913663
9.20833,290.531,-0.913734
9.21,290.547,-0.913797
9.21167,290.564,-0.913857
9.21333,290.581,-0.913915
9.215,290.598,-0.913959
9.21667,290.615,-0.914001
9.21833,290.631,-0.914036
9.22,290.648,-0.914068
9.22167,290.664,-0.914094
9.22333,290.681,-0.914125
9.225,290.697,-0.914165
9.22667,290.714,-0.914217
9.22833,290.731,-0.914277
9.23,290.747,-0.91435
9.23167,290.764,-0.914443
9.23333,290.781,-0.914573
9.235,290.797,-0.91474
9.23667,290.814,-0.914869
9.23833,290.83,-0.914984
9.24,290.847,-0.915081
9.24167,290.864,-0.915164
9.24333,290.881,-0.915239
9.245,290.897,-0.915304
9.24667,290.914,-0.915368
9.24833,290.931,-0.91542
9.25,290.947,-0.915465
9.25167,290.964,-0.915508
9.25333,290.981,-0.915543
9.255,290.997,-0.915583
9.25667,291.014,-0.915629
9.25833,291.03,-0.915685
9.26,291.047,-0.915753
9.26167,291.064,-0.915815
9.26333,291.08,-0.915875
9.265,291.097,-0.915939
9.26667,291.114,-0.915998
9.26833,291.131,-0.916046
9.27,291.147,-0.916089
9.27167,291.163,-0.916132
9.27333,291.181,-0.916179
9.275,291.197,-0.91623
9.27667,291.214,-0.916284
9.27833,291.23,-0.91634
9.28,291.247,-0.916408
9.28167,291.264,-0.916482
9.28333,291.28,-0.91656
9.285,291.297,-0.916643
9.28667,291.314,-0.916719
9.28833,291.33,-0.916798
9.29,291.347,-0.916876
9.29167,291.364,-0.916956
9.29333,291.38,-0.917042
9.295,291.397,-0.917123
9.29667,291.414,-0.917196
9.29833,291.43,-0.917259
9.3,291.447,-0.917309
9.30167,291.464,-0.917356
9.30333,291.48,-0.917391
9.305,291.497,-0.917418
9.30667,291.514,-0.917448
9.30833,291.53,-0.917478
9.31,291.547,-0.917521
9.31167,291.563,-0.91757
9.31333,291.58,-0.917627
9.315,291.597,-0.917691
9.31667,291.613,-0.917758
9.31833,291.63,-0.917828
9.32,291.647,-0.917895
9.32167,291.663,-0.917959
9.32333,291.68,-0.918024
9.325,291.697,-0.918092
9.32667,291.713,-0.918162
9.32833,291.73,-0.918233
9.33,291.747,-0.918305
9.33167,291.763,-0.918379
9.33333,291.78,-0.918444
9.335,291.797,-0.918497
9.33667,291.813,-0.918548
9.33833,291.83,-0.918593
9.34,291.846,-0.918636
9.34167,291.863,-0.918679
9.34333,291.88,-0.918718
9.345,291.897,-0.918753
9.34667,291.913,-0.918783
9.34833,291.93,-0.918824
9.35,291.946,-0.918885
9.35167,291.963,-0.918953
9.35333,291.979,-0.919018
9.355,291.996,-0.919082
9.35667,292.013,-0.919159
9.35833,292.03,-0.919237
9.36,292.046,-0.919341
9.36167,292.063,-0.919425
9.36333,292.08,-0.9195
9.365,292.096,-0.919576
9.36667,292.113,-0.919652
9.36833,292.129,-0.919737
9.37,292.146,-0.919817
9.37167,292.163,-0.919893
9.37333,292.179,-0.919965
9.375,292.196,-0.920038
9.37667,292.212,-0.920109
9.37833,292.229,-0.920176
9.38,292.246,-0.920243
9.38167,292.262,-0.920309
9.38333,292.28,-0.920374
9.385,292.296,-0.920437
9.38667,292.313,-0.920498
9.38833,292.33,-0.92055
9.39,292.346,-0.920599
9.39167,292.363,-0.920649
9.39333,292.38,-0.920697
9.395,292.396,-0.920749
9.39667,292.413,-0.92081
9.39833,292.43,-0.920872
9.4,292.446,-0.92094
9.40167,292.463,-0.921015
9.40333,292.48,-0.921092
9.405,292.496,-0.921166
9.40667,292.513,-0.921243
9.40833,292.529,-0.921319
9.41,292.546,-0.9214
9.41167,292.563,-0.921466
9.41333,292.579,-0.921527
9.415,292.596,-0.92159
9.41667,292.612,-0.921645
9.41833,292.629,-0.921696
9.42,292.646,-0.921752
9.42167,292.663,-0.921812
9.42333,292.679,-0.921873
9.425,292.696,-0.921938
9.42667,292.713,-0.922008
9.42833,292.73,-0.922078
9.43,292.746,-0.922145
9.43167,292.763,-0.922214
9.43333,292.779,-0.922281
9.435,292.796,-0.92234
9.43667,292.813,-0.922401
9.43833,292.829,-0.92246
9.44,292.846,-0.922517
9.44167,292.862,-0.922577
9.44333,292.879,-0.922638
9.445,292.896,-0.922697
9.44667,292.912,-0.922753
9.44833,292.929,-0.922812
9.45,292.946,-0.922868
9.45167,292.963,-0.922922
9.45333,292.98,-0.922976
9.455,292.996,-0.92303
9.45667,293.013,-0.923077
9.45833,293.029,-0.923117
9.46,293.046,-0.923158
9.46167,293.062,-0.923202
9.46333,293.079,-0.923249
9.465,293.096,-0.923302
9.46667,293.112,-0.923369
9.46833,293.129,-0.923442
9.47,293.146,-0.923509
9.47167,293.163,-0.923581
9.47333,293.179,-0.923656
9.475,293.196,-0.923718
9.47667,293.212,-0.923773
9.47833,293.229,-0.92382
9.48,293.246,-0.923862
9.48167,293.263,-0.923907
9.48333,293.279,-0.923953
9.485,293.296,-0.924003
9.48667,293.312,-0.92405
9.48833,293.329,-0.924096
9.49,293.346,-0.924138
9.49167,293.362,-0.924191
9.49333,293.379,-0.924245
9.495,293.396,-0.924297
9.49667,293.413,-0.924344
9.49833,293.429,-0.924394
9.5,293.446,-0.924447
9.50167,293.462,-0.924502
9.50333,293.479,-0.924555
9.505,293.495,-0.924609
9.50667,293.512,-0.924653
9.50833,293.529,-0.924701
9.51,293.545,-0.924751
9.51167,293.562,-0.924803
9.51333,293.579,-0.924858
9.515,293.595,-0.924923
9.51667,293.612,-0.924998
9.51833,293.628,-0.92508
9.52,293.645,-0.925155
9.52167,293.662,-0.925224
9.52333,293.679,-0.925292
9.525,293.695,-0.925361
9.52667,293.712,-0.92542
9.52833,293.729,-0.925474
9.53,293.745,-0.925522
9.53167,293.762,-0.925567
9.53333,293.779,-0.925608
9.535,293.795,-0.925652
9.53667,293.812,-0.9257
9.53833,293.829,-0.925747
9.54,293.845,-0.925788
9.54167,293.862,-0.925824
9.54333,293.879,-0.925863
9.545,293.895,-0.925905
9.54667,293.912,-0.92595
9.54833,293.929,-0.925992
9.55,293.945,-0.926037
9.55167,293.962,-0.926072
9.55333,293.979,-0.926112
9.555,293.995,-0.926162
9.55667,294.012,-0.926216
9.55833,294.029,-0.92627
9.56,294.045,-0.926328
9.56167,294.062,-0.926395
9.56333,294.078,-0.926468
9.565,294.095,-0.926543
9.56667,294.112,-0.926622
9.56833,294.128,-0.926699
9.57,294.145,-0.92678
9.57167,294.162,-0.926852
9.57333,294.178,-0.926918
9.575,294.195,-0.926986
9.57667,294.212,-0.927039
9.57833,294.228,-0.927097
9.58,294.245,-0.927167
9.58167,294.262,-0.927223
9.58333,294.279,-0.927281
9.585,294.295,-0.927341
9.58667,294.312,-0.927402
9.58833,294.328,-0.927459
9.59,294.345,-0.927519
9.59167,294.362,-0.92758
9.59333,294.378,-0.92764
9.595,294.395,-0.927701
9.59667,294.411,-0.927768
9.59833,294.429,-0.927834
9.6,294.445,-0.927898
9.60167,294.462,-0.927968
9.60333,294.478,-0.92804
9.605,294.495,-0.928108
9.60667,294.512,-0.928173
9.60833,294.528,-0.928236
9.61,294.545,-0.928305
9.61167,294.562,-0.928366
9.61333,294.578,-0.928427
9.615,294.595,-0.928486
9.61667,294.611,-0.928547
9.61833,294.628,-0.928603
9.62,294.645,-0.928659
9.62167,294.661,-0.928711
9.62333,294.678,-0.928753
9.625,294.695,-0.928793
9.62667,294.711,-0.928831
9.62833,294.728,-0.92887
9.63,294.745,-0.928916
9.63167,294.761,-0.928967
9.63333,294.778,-0.929019
9.635,294.795,-0.929078
9.63667,294.812,-0.929141
9.63833,294.828,-0.92921
9.64,294.845,-0.929278
9.64167,294.862,-0.929351
9.64333,294.878,-0.929425
9.645,294.895,-0.929495
9.64667,294.911,-0.929567
9.64833,294.928,-0.92963
9.65,294.944,-0.929696
9.65167,294.961,-0.929768
9.65333,294.978,-0.92984
9.655,294.995,-0.929917
9.65667,295.011,-0.929992
9.65833,295.028,-0.930066
9.66,295.045,-0.930138
9.66167,295.061,-0.9302
9.66333,295.078,-0.930261
9.665,295.095,-0.930322
9.66667,295.111,-0.930377
9.66833,295.128,-0.930426
9.67,295.145,-0.930477
9.67167,295.161,-0.93052
9.67333,295.178,-0.930575
9.675,295.195,-0.930635
9.67667,295.211,-0.930703
9.67833,295.228,-0.930766
9.68,295.245,-0.930833
9.68167,295.261,-0.930892
9.68333,295.278,-0.93095
9.685,295.294,-0.931003
9.68667,295.311,-0.931043
9.68833,295.328,-0.931079
9.69,295.344,-0.93112
9.69167,295.361,-0.931168
9.69333,295.378,-0.931213
9.695,295.395,-0.931255
9.69667,295.411,-0.931307
9.69833,295.428,-0.931355
9.7,295.445,-0.931409
9.70167,295.461,-0.931453
9.70333,295.478,-0.931509
9.705,295.494,-0.931567
9.70667,295.511,-0.93163
9.70833,295.528,-0.931696
9.71,295.544,-0.931777
9.71167,295.561,-0.931859
9.71333,295.578,-0.931941
9.715,295.595,-0.932028
9.71667,295.611,-0.932105
9.71833,295.628,-0.932178
9.72,295.645,-0.932242
9.72167,295.661,-0.932311
9.72333,295.678,-0.93237
9.725,295.695,-0.932422
9.72667,295.711,-0.932471
9.72833,295.728,-0.932516
9.73,295.745,-0.932554
9.73167,295.761,-0.932588
9.73333,295.778,-0.932625
9.735,295.794,-0.932657
9.73667,295.811,-0.932694
9.73833,295.828,-0.932736
9.74,295.844,-0.932789
9.74167,295.861,-0.932854
9.74333,295.877,-0.932924
9.745,295.894,-0.932992
9.74667,295.911,-0.933057
9.74833,295.927,-0.933117
9.75,295.944,-0.93318
9.75167,295.961,-0.933243
9.75333,295.977,-0.933299
9.755,295.994,-0.933355
9.75667,296.01,-0.933408
9.75833,296.027,-0.933456
9.76,296.044,-0.933508
9.76167,296.061,-0.933566
9.76333,296.078,-0.933613
9.765,296.095,-0.933655
9.76667,296.111,-0.933694
9.76833,296.128,-0.933742
9.77,296.144,-0.93378
9.77167,296.161,-0.93382
9.77333,296.177,-0.933862
9.775,296.194,-0.933908
9.77667,296.211,-0.933962
9.77833,296.227,-0.934016
9.78,296.244,-0.93407
9.78167,296.26,-0.934121
9.78333,296.277,-0.934169
9.785,296.294,-0.934214
9.78667,296.31,-0.934265
9.78833,296.327,-0.934313
9.79,296.344,-0.934362
9.79167,296.36,-0.934416
9.79333,296.377,-0.934474
9.795,296.394,-0.93454
9.79667,296.411,-0.934605
9.79833,296.427,-0.934666
9.8,296.444,-0.934722
9.80167,296.461,-0.934778
9.80333,296.477,-0.934831
9.805,296.494,-0.934884
9.80667,296.511,-0.934937
9.80833,296.527,-0.934986
9.81,296.544,-0.935039
9.81167,296.56,-0.935089
9.81333,296.577,-0.935135
9.815,296.594,-0.935183
9.81667,296.61,-0.935235
9.81833,296.627,-0.935282
9.82,296.643,-0.935325
9.82167,296.66,-0.935377
9.82333,296.677,-0.935432
9.825,296.693,-0.935488
9.82667,296.71,-0.935541
9.82833,296.727,-0.935595
9.83,296.743,-0.935655
9.83167,296.76,-0.935721
9.83333,296.777,-0.935783
9.835,296.793,-0.935839
9.83667,296.81,-0.935899
9.83833,296.827,-0.935958
9.84,296.843,-0.936016
9.84167,296.86,-0.936079
9.84333,296.877,-0.936134
9.845,296.893,-0.936186
9.84667,296.91,-0.936238
9.84833,296.926,-0.936285
9.85,296.944,-0.936334
9.85167,296.961,-0.936383
9.85333,296.977,-0.936419
9.855,296.994,-0.936459
9.85667,297.01,-0.936506
9.85833,297.027,-0.936556
9.86,297.044,-0.936615
9.86167,297.06,-0.936678
9.86333,297.077,-0.93675
9.865,297.093,-0.936818
9.86667,297.11,-0.936887
9.86833,297.127,-0.936957
9.87,297.143,-0.937025
9.87167,297.16,-0.937087
9.87333,297.177,-0.937145
9.875,297.194,-0.937208
9.87667,297.21,-0.937265
9.87833,297.227,-0.937319
9.88,297.244,-0.937371
9.88167,297.26,-0.937423
9.88333,297.277,-0.937477
9.885,297.294,-0.937527
9.88667,297.31,-0.937579
9.88833,297.327,-0.937626
9.89,297.343,-0.937676
9.89167,297.36,-0.937722
9.89333,297.377,-0.937777
9.895,297.393,-0.937829
9.89667,297.41,-0.937883
9.89833,297.426,-0.937943
9.9,297.443,-0.938004
9.90167,297.46,-0.938059
9.90333,297.477,-0.938125
9.905,297.494,-0.938192
9.90667,297.51,-0.938258
9.90833,297.526,-0.938336
9.91,297.543,-0.93841
9.91167,297.56,-0.938483
9.91333,297.577,-0.938557
9.915,297.593,-0.938628
9.91667,297.61,-0.938704
9.91833,297.626,-0.938775
9.92,297.643,-0.938847
9.92167,297.66,-0.938905
9.92333,297.676,-0.938963
9.925,297.693,-0.939013
9.92667,297.71,-0.939061
9.92833,297.726,-0.939102
9.93,297.743,-0.939141
9.93167,297.759,-0.939176
9.93333,297.776,-0.939209
9.935,297.793,-0.939245
9.93667,297.809,-0.939278
9.93833,297.826,-0.939315
9.94,297.843,-0.939348
9.94167,297.859,-0.939382
9.94333,297.876,-0.93942
9.945,297.893,-0.939466
9.94667,297.909,-0.939521
9.94833,297.926,-0.939584
9.95,297.943,-0.93965
9.95167,297.959,-0.93972
9.95333,297.976,-0.939792
9.955,297.993,-0.939883
9.95667,298.01,-0.939986
9.95833,298.026,-0.940067
9.96,298.043,-0.940137
9.96167,298.059,-0.940199
9.96333,298.076,-0.94026
9.965,298.093,-0.940324
9.96667,298.109,-0.940391
9.96833,298.126,-0.940463
9.97,298.142,-0.940536
9.97167,298.159,-0.940604
9.97333,298.176,-0.940668
9.975,298.192,-0.940731
9.97667,298.209,-0.940793
9.97833,298.226,-0.940854
9.98,298.242,-0.940896
9.98167,298.259,-0.940938
9.98333,298.276,-0.940982
9.985,298.292,-0.941029
9.98667,298.309,-0.941073
9.98833,298.326,-0.941113
9.99,298.343,-0.941152
9.99167,298.36,-0.941198
9.99333,298.376,-0.941242
9.995,298.393,-0.941291
9.99667,298.41,-0.941346
9.99833,298.426,-0.941398
10,298.443,-0.94146
10.0017,298.459,-0.941522
10.0033,298.476,-0.941591
10.005,298.492,-0.941657
10.0067,298.509,-0.941722
10.0083,298.526,-0.941796
10.01,298.542,-0.941869
10.0117,298.559,-0.941942
10.0133,298.575,-0.942014
10.015,298.592,-0.942083
10.0167,298.609,-0.942145
10.0183,298.625,-0.942203
10.02,298.642,-0.94226
10.0217,298.659,-0.942311
10.0233,298.676,-0.942366
10.025,298.692,-0.942428
10.0267,298.709,-0.942491
10.0283,298.726,-0.942552
10.03,298.742,-0.94262
10.0317,298.759,-0.942682
10.0333,298.775,-0.942741
10.035,298.792,-0.942806
10.0367,298.809,-0.942871
10.0383,298.825,-0.942929
10.04,298.842,-0.942976
10.0417,298.858,-0.94302
10.0433,298.875,-0.94306
10.045,298.892,-0.943094
10.0467,298.909,-0.943131
10.0483,298.925,-0.943171
10.05,298.942,-0.943209
10.0517,298.958,-0.943246
10.0533,298.975,-0.943296
10.055,298.992,-0.943349
10.0567,299.008,-0.943402
10.0583,299.025,-0.943451
10.06,299.042,-0.943496
10.0617,299.058,-0.94354
10.0633,299.075,-0.943583
10.065,299.092,-0.943624
10.0667,299.108,-0.943671
10.0683,299.125,-0.94373
10.07,299.142,-0.9438
10.0717,299.158,-0.943866
10.0733,299.175,-0.943944
10.075,299.192,-0.944018
10.0767,299.208,-0.944087
10.0783,299.225,-0.944147
10.08,299.242,-0.944204
10.0817,299.258,-0.94425
10.0833,299.275,-0.944284
10.085,299.291,-0.944324
10.0867,299.308,-0.944372
10.0883,299.325,-0.944421
10.09,299.342,-0.944466
10.0917,299.358,-0.944507
10.0933,299.375,-0.944552
10.095,299.392,-0.944606
10.0967,299.408,-0.944666
10.0983,299.425,-0.944729
10.1,299.442,-0.944785
10.1017,299.458,-0.944836
10.1033,299.475,-0.944886
10.105,299.492,-0.944935
10.1067,299.508,-0.944977
10.1083,299.525,-0.945013
10.11,299.542,-0.945053
10.1117,299.558,-0.945093
10.1133,299.575,-0.945131
10.115,299.592,-0.945174
10.1167,299.608,-0.945216
10.1183,299.625,-0.94527
10.12,299.641,-0.945326
10.1217,299.658,-0.94538
10.1233,299.675,-0.945431
10.125,299.691,-0.945481
10.1267,299.708,-0.945535
10.1283,299.724,-0.945587
10.13,299.741,-0.945642
10.1317,299.758,-0.9457
10.1333,299.774,-0.945753
10.135,299.791,-0.945814
10.1367,299.807,-0.945869
10.1383,299.824,-0.945925
10.14,299.841,-0.945977
10.1417,299.858,-0.946022
10.1433,299.874,-0.946062
10.145,299.891,-0.946105
10.1467,299.908,-0.946149
10.1483,299.925,-0.946199
10.15,299.941,-0.946256
10.1517,299.958,-0.946319
10.1533,299.974,-0.94639
10.155,299.991,-0.946464
10.1567,300.007,-0.946548
10.1583,300.024,-0.946629
10.16,300.041,-0.946707
10.1617,300.057,-0.946775
10.1633,300.074,-0.94684
10.165,300.091,-0.946903
10.1667,300.107,-0.946968
10.1683,300.124,-0.947025
10.17,300.141,-0.947081
10.1717,300.158,-0.94714
10.1733,300.174,-0.947195
10.175,300.191,-0.947249
10.1767,300.208,-0.947307
10.1783,300.225,-0.947366
10.18,300.241,-0.947435
10.1817,300.258,-0.947512
10.1833,300.275,-0.947589
10.185,300.291,-0.947662
10.1867,300.307,-0.947736
10.1883,300.324,-0.947806
10.19,300.341,-0.947868
10.1917,300.358,-0.94792
10.1933,300.375,-0.947968
10.195,300.391,-0.948015
10.1967,300.408,-0.948048
10.1983,300.424,-0.948077
10.2,300.441,-0.948104
10.2017,300.458,-0.948132
10.2033,300.474,-0.948158
10.205,300.491,-0.948178
10.2067,300.507,-0.9482
10.2083,300.524,-0.948225
10.21,300.541,-0.948259
10.2117,300.557,-0.948297
10.2133,300.574,-0.948337
10.215,300.591,-0.948383
10.2167,300.608,-0.948423
10.2183,300.624,-0.948465
10.22,300.641,-0.948512
10.2217,300.657,-0.948566
10.2233,300.674,-0.948617
10.225,300.691,-0.94867
10.2267,300.708,-0.948732
10.2283,300.725,-0.948811
10.23,300.742,-0.948888
10.2317,300.758,-0.948956
10.2333,300.775,-0.949021
10.235,300.791,-0.949082
10.2367,300.808,-0.94914
10.2383,300.825,-0.949204
10.24,300.841,-0.94927
10.2417,300.858,-0.949326
10.2433,300.875,-0.949382
10.245,300.891,-0.949439
10.2467,300.908,-0.949505
10.2483,300.924,-0.949572
10.25,300.941,-0.949638
10.2517,300.957,-0.949697
10.2533,300.974,-0.949756
10.255,300.991,-0.949811
10.2567,301.007,-0.949867
10.2583,301.024,-0.949926
10.26,301.041,-0.949982
10.2617,301.057,-0.950035
10.2633,301.074,-0.950087
10.265,301.091,-0.950135
10.2667,301.108,-0.950179
10.2683,301.124,-0.950224
10.27,301.141,-0.950263
10.2717,301.157,-0.950304
10.2733,301.174,-0.95035
10.275,301.191,-0.950402
10.2767,301.207,-0.950447
10.2783,301.224,-0.950492
10.28,301.241,-0.950541
10.2817,301.258,-0.950591
10.2833,301.274,-0.950638
10.285,301.291,-0.950686
10.2867,301.307,-0.950738
10.2883,301.324,-0.950793
10.29,301.341,-0.95084
10.2917,301.358,-0.950883
10.2933,301.374,-0.950937
10.295,301.391,-0.950992
10.2967,301.408,-0.951037
10.2983,301.424,-0.951087
10.3,301.441,-0.951146
10.3017,301.457,-0.951205
10.3033,301.474,-0.951264
10.305,301.491,-0.951327
10.3067,301.507,-0.951385
10.3083,301.524,-0.951439
10.31,301.541,-0.951492
10.3117,301.557,-0.951548
10.3133,301.574,-0.951608
10.315,301.591,-0.951675
10.3167,301.607,-0.951745
10.3183,301.624,-0.951813
10.32,301.64,-0.951876
10.3217,301.657,-0.951931
10.3233,301.674,-0.951986
10.325,301.69,-0.952041
10.3267,301.707,-0.952103
10.3283,301.724,-0.952157
10.33,301.74,-0.952204
10.3317,301.757,-0.952251
10.3333,301.774,-0.952308
10.335,301.791,-0.952373
10.3367,301.807,-0.952431
10.3383,301.824,-0.95249
10.34,301.84,-0.952543
10.3417,301.857,-0.952598
10.3433,301.874,-0.952647
10.345,301.891,-0.952696
10.3467,301.907,-0.952746
10.3483,301.924,-0.952795
10.35,301.941,-0.952833
10.3517,301.957,-0.952871
10.3533,301.974,-0.952914
10.355,301.99,-0.952958
10.3567,302.007,-0.953002
10.3583,302.024,-0.953046
10.36,302.04,-0.953081
10.3617,302.057,-0.953118
10.3633,302.074,-0.95316
10.365,302.09,-0.953204
10.3667,302.107,-0.953236
10.3683,302.123,-0.953268
10.37,302.14,-0.953305
10.3717,302.157,-0.953347
10.3733,302.173,-0.9534
10.375,302.19,-0.953465
10.3767,302.207,-0.953526
10.3783,302.223,-0.953584
10.38,302.24,-0.953641
10.3817,302.256,-0.953708
10.3833,302.273,-0.953772
10.385,302.29,-0.953824
10.3867,302.306,-0.953873
10.3883,302.323,-0.95392
10.39,302.34,-0.953962
10.3917,302.357,-0.953996
10.3933,302.374,-0.954033
10.395,302.39,-0.954071
10.3967,302.406,-0.954118
10.3983,302.423,-0.954165
10.4,302.439,-0.954209
10.4017,302.456,-0.954255
10.4033,302.472,-0.954297
10.405,302.489,-0.95434
10.4067,302.506,-0.954382
10.4083,302.523,-0.954419
10.41,302.539,-0.954459
10.4117,302.555,-0.954504
10.4133,302.572,-0.954555
10.415,302.589,-0.954608
10.4167,302.606,-0.954667
10.4183,302.623,-0.954731
10.42,302.639,-0.954786
10.4217,302.656,-0.954837
10.4233,302.673,-0.954894
10.425,302.689,-0.954944
10.4267,302.706,-0.954995
10.4283,302.723,-0.955049
10.43,302.739,-0.955111
10.4317,302.756,-0.955171
10.4333,302.772,-0.955222
10.435,302.789,-0.955266
10.4367,302.806,-0.955313
10.4383,302.822,-0.955347
10.44,302.839,-0.955377
10.4417,302.856,-0.955404
10.4433,302.873,-0.955435
10.445,302.889,-0.955473
10.4467,302.906,-0.955511
10.4483,302.922,-0.955552
10.45,302.939,-0.955591
10.4517,302.956,-0.955635
10.4533,302.973,-0.955691
10.455,302.989,-0.955749
10.4567,303.005,-0.955801
10.4583,303.022,-0.95585
10.46,303.039,-0.955896
10.4617,303.055,-0.955943
10.4633,303.072,-0.955988
10.465,303.089,-0.956036
10.4667,303.105,-0.956073
10.4683,303.122,-0.956099
10.47,303.139,-0.95613
10.4717,303.155,-0.956173
10.4733,303.172,-0.956229
10.475,303.189,-0.956279
10.4767,303.205,-0.956331
10.4783,303.222,-0.956389
10.48,303.239,-0.956463
10.4817,303.255,-0.956536
10.4833,303.272,-0.956607
10.485,303.289,-0.956675
10.4867,303.305,-0.956744
10.4883,303.322,-0.956802
10.49,303.339,-0.956858
10.4917,303.355,-0.956904
10.4933,303.372,-0.956959
10.495,303.389,-0.957012
10.4967,303.405,-0.957063
10.4983,303.422,-0.957124
10.5,303.438,-0.957184
10.5017,303.455,-0.95724
10.5033,303.472,-0.957292
10.505,303.488,-0.957346
10.5067,303.505,-0.957399
10.5083,303.522,-0.957452
10.51,303.538,-0.957501
10.5117,303.554,-0.957549
10.5133,303.571,-0.957604
10.515,303.588,-0.957652
10.5167,303.604,-0.957698
10.5183,303.621,-0.957748
10.52,303.638,-0.957804
10.5217,303.655,-0.957871
10.5233,303.671,-0.957936
10.525,303.688,-0.957997
10.5267,303.705,-0.958058
10.5283,303.721,-0.95812
10.53,303.738,-0.958182
10.5317,303.755,-0.958245
10.5333,303.771,-0.958304
10.535,303.788,-0.958353
10.5367,303.804,-0.958396
10.5383,303.821,-0.958446
10.54,303.838,-0.958501
10.5417,303.855,-0.958555
10.5433,303.871,-0.958598
10.545,303.888,-0.958637
10.5467,303.904,-0.958681
10.5483,303.921,-0.958729
10.55,303.938,-0.958771
10.5517,303.954,-0.958818
10.5533,303.971,-0.958874
10.555,303.988,-0.958936
10.5567,304.004,-0.958996
10.5583,304.021,-0.959064
10.56,304.037,-0.95913
10.5617,304.054,-0.959185
10.5633,304.071,-0.959234
10.565,304.087,-0.959279
10.5667,304.104,-0.959322
10.5683,304.121,-0.95937
10.57,304.137,-0.959405
10.5717,304.154,-0.95944
10.5733,304.171,-0.959477
10.575,304.187,-0.959525
10.5767,304.204,-0.95958
10.5783,304.22,-0.959638
10.58,304.237,-0.959696
10.5817,304.253,-0.959751
10.5833,304.27,-0.959804
10.585,304.287,-0.959864
10.5867,304.303,-0.959923
10.5883,304.319,-0.95998
10.59,304.337,-0.960028
10.5917,304.353,-0.960072
10.5933,304.37,-0.960124
10.595,304.387,-0.960177
10.5967,304.403,-0.960222
10.5983,304.419,-0.96027
10.6,304.437,-0.96032
10.6017,304.453,-0.960371
10.6033,304.47,-0.960427
10.605,304.487,-0.960481
10.6067,304.503,-0.960537
10.6083,304.52,-0.960591
10.61,304.537,-0.960649
10.6117,304.553,-0.960698
10.6133,304.57,-0.960743
10.615,304.586,-0.960797
10.6167,304.603,-0.960846
10.6183,304.62,-0.960898
10.62,304.636,-0.960956
10.6217,304.653,-0.961019
10.6233,304.669,-0.961088
10.625,304.686,-0.961161
10.6267,304.703,-0.961235
10.6283,304.719,-0.961314
10.63,304.736,-0.961385
10.6317,304.753,-0.961456
10.6333,304.77,-0.961524
10.635,304.786,-0.961585
10.6367,304.803,-0.961634
10.6383,304.819,-0.961675
10.64,304.836,-0.961714
10.6417,304.853,-0.961756
10.6433,304.869,-0.9618
10.645,304.886,-0.961853
10.6467,304.902,-0.961912
10.6483,304.919,-0.961968
10.65,304.936,-0.962031
10.6517,304.952,-0.962097
10.6533,304.969,-0.962153
10.655,304.986,-0.962205
10.6567,305.003,-0.962266
10.6583,305.019,-0.962318
10.66,305.036,-0.96237
10.6617,305.053,-0.962433
10.6633,305.069,-0.962507
10.665,305.086,-0.962579
10.6667,305.103,-0.962657
10.6683,305.12,-0.962734
10.67,305.136,-0.962811
10.6717,305.153,-0.962882
10.6733,305.169,-0.962948
10.675,305.186,-0.963005
10.6767,305.203,-0.963057
10.6783,305.22,-0.963108
10.68,305.236,-0.963161
10.6817,305.253,-0.963213
10.6833,305.269,-0.963264
10.685,305.286,-0.963308
10.6867,305.302,-0.963353
10.6883,305.319,-0.963408
10.69,305.336,-0.963458
10.6917,305.352,-0.963508
10.6933,305.369,-0.963566
10.695,305.386,-0.963625
10.6967,305.403,-0.96369
10.6983,305.419,-0.963754
10.7,305.436,-0.96382
10.7017,305.453,-0.963891
10.7033,305.469,-0.963953
10.705,305.486,-0.964015
10.7067,305.502,-0.964079
10.7083,305.519,-0.964138
10.71,305.536,-0.964187
10.7117,305.552,-0.964235
10.7133,305.569,-0.964284
10.715,305.586,-0.964328
10.7167,305.602,-0.964364
10.7183,305.619,-0.964399
10.72,305.635,-0.96444
10.7217,305.652,-0.96449
10.7233,305.668,-0.964545
10.725,305.685,-0.964596
10.7267,305.702,-0.964647
10.7283,305.719,-0.964705
10.73,305.735,-0.964767
10.7317,305.752,-0.964832
10.7333,305.769,-0.964903
10.735,305.786,-0.964975
10.7367,305.802,-0.96505
10.7383,305.819,-0.965133
10.74,305.835,-0.965242
10.7417,305.852,-0.965323
10.7433,305.869,-0.965399
10.745,305.886,-0.965465
10.7467,305.902,-0.965531
10.7483,305.919,-0.965599
10.75,305.935,-0.965666
10.7517,305.952,-0.965737
10.7533,305.969,-0.965803
10.755,305.985,-0.965873
10.7567,306.002,-0.965941
10.7583,306.018,-0.966003
10.76,306.035,-0.966063
10.7617,306.051,-0.966123
10.7633,306.068,-0.966178
10.765,306.085,-0.966235
10.7667,306.102,-0.966284
10.7683,306.118,-0.966328
10.77,306.135,-0.966369
10.7717,306.152,-0.966407
10.7733,306.168,-0.966449
10.775,306.185,-0.966491
10.7767,306.202,-0.966534
10.7783,306.218,-0.966589
10.78,306.235,-0.966652
10.7817,306.252,-0.966723
10.7833,306.268,-0.966805
10.785,306.285,-0.966904
10.7867,306.302,-0.966985
10.7883,306.319,-0.967067
10.79,306.336,-0.967135
10.7917,306.352,-0.967194
10.7933,306.369,-0.967252
10.795,306.385,-0.967305
10.7967,306.402,-0.96735
10.7983,306.419,-0.967388
10.8,306.435,-0.967427
10.8017,306.452,-0.967471
10.8033,306.468,-0.967515
10.805,306.485,-0.967562
10.8067,306.502,-0.967617
10.8083,306.518,-0.967678
10.81,306.535,-0.967746
10.8117,306.551,-0.967808
10.8133,306.568,-0.967866
10.815,306.585,-0.967928
10.8167,306.601,-0.967997
10.8183,306.618,-0.968053
10.82,306.635,-0.968103
10.8217,306.651,-0.968155
10.8233,306.668,-0.968205
10.825,306.685,-0.968248
10.8267,306.702,-0.968289
10.8283,306.718,-0.968338
10.83,306.734,-0.968379
10.8317,306.752,-0.968425
10.8333,306.768,-0.968473
10.835,306.785,-0.96852
10.8367,306.801,-0.968567
10.8383,306.818,-0.96861
10.84,306.835,-0.968651
10.8417,306.851,-0.968688
10.8433,306.868,-0.968724
10.845,306.885,-0.968766
10.8467,306.902,-0.968812
10.8483,306.918,-0.968858
10.85,306.935,-0.968906
10.8517,306.951,-0.968954
10.8533,306.968,-0.969005
10.855,306.985,-0.969059
10.8567,307.001,-0.969118
10.8583,307.018,-0.969189
10.86,307.034,-0.969267
10.8617,307.051,-0.969341
10.8633,307.068,-0.96942
10.865,307.085,-0.969532
10.8667,307.101,-0.96961
10.8683,307.118,-0.969677
10.87,307.135,-0.969739
10.8717,307.151,-0.96981
10.8733,307.168,-0.969876
10.875,307.184,-0.969933
10.8767,307.201,-0.969991
10.8783,307.218,-0.970049
10.88,307.234,-0.970101
10.8817,307.251,-0.970145
10.8833,307.268,-0.970186
10.885,307.284,-0.970222
10.8867,307.301,-0.970243
10.8883,307.318,-0.970263
10.89,307.335,-0.970283
10.8917,307.351,-0.970311
10.8933,307.368,-0.970335
10.895,307.384,-0.97036
10.8967,307.401,-0.970392
10.8983,307.418,-0.970432
10.9,307.435,-0.97048
10.9017,307.451,-0.97053
10.9033,307.468,-0.970588
10.905,307.484,-0.970649
10.9067,307.501,-0.970719
10.9083,307.518,-0.970792
10.91,307.534,-0.970864
10.9117,307.551,-0.970935
10.9133,307.568,-0.971009
10.915,307.584,-0.971088
10.9167,307.601,-0.971164
10.9183,307.618,-0.971238
10.92,307.634,-0.971311
10.9217,307.651,-0.971382
10.9233,307.667,-0.971453
10.925,307.684,-0.971521
10.9267,307.701,-0.971579
10.9283,307.717,-0.971639
10.93,307.734,-0.971694
10.9317,307.75,-0.971747
10.9333,307.767,-0.971805
10.935,307.784,-0.97187
10.9367,307.801,-0.971939
10.9383,307.818,-0.972013
10.94,307.834,-0.97208
10.9417,307.851,-0.972148
10.9433,307.867,-0.972208
10.945,307.884,-0.972257
10.9467,307.901,-0.972311
10.9483,307.917,-0.972362
10.95,307.934,-0.972405
10.9517,307.95,-0.972451
10.9533,307.967,-0.972493
10.955,307.984,-0.972538
10.9567,308,-0.972582
10.9583,308.017,-0.972631
10.96,308.033,-0.972671
10.9617,308.05,-0.972707
10.9633,308.067,-0.972738
10.965,308.084,-0.972773
10.9667,308.101,-0.9728
10.9683,308.117,-0.972836
10.97,308.134,-0.972874
10.9717,308.151,-0.972915
10.9733,308.167,-0.972964
10.975,308.184,-0.973009
10.9767,308.2,-0.973055
10.9783,308.217,-0.973101
10.98,308.234,-0.97314
10.9817,308.25,-0.97318
10.9833,308.267,-0.973227
10.985,308.283,-0.97327
10.9867,308.3,-0.973312
10.9883,308.316,-0.973359
10.99,308.333,-0.973408
10.9917,308.35,-0.973466
10.9933,308.366,-0.97353
10.995,308.383,-0.973605
10.9967,308.4,-0.973694
10.9983,308.416,-0.973772
11,308.433,-0.973889
11.0017,308.45,-0.973963
11.0033,308.466,-0.974035
11.005,308.483,-0.974103
11.0067,308.5,-0.974161
11.0083,308.516,-0.974214
11.01,308.533,-0.974268
11.0117,308.55,-0.974327
11.0133,308.566,-0.974387
11.015,308.583,-0.974447
11.0167,308.6,-0.97451
11.0183,308.616,-0.974576
11.02,308.633,-0.974645
11.0217,308.65,-0.974703
11.0233,308.667,-0.974745
11.025,308.683,-0.974783
11.0267,308.7,-0.974814
11.0283,308.716,-0.974845
11.03,308.733,-0.97489
11.0317,308.749,-0.974941
11.0333,308.766,-0.974986
11.035,308.783,-0.975043
11.0367,308.799,-0.975106
11.0383,308.816,-0.97518
11.04,308.832,-0.975252
11.0417,308.849,-0.975316
11.0433,308.866,-0.975379
11.045,308.882,-0.97544
11.0467,308.899,-0.975493
11.0483,308.916,-0.975544
11.05,308.933,-0.975591
11.0517,308.949,-0.975632
11.0533,308.966,-0.975681
11.055,308.982,-0.975731
11.0567,308.999,-0.975793
11.0583,309.016,-0.975855
11.06,309.032,-0.975919
11.0617,309.049,-0.975997
11.0633,309.065,-0.976077
11.065,309.082,-0.976157
11.0667,309.099,-0.976233
11.0683,309.116,-0.976298
11.07,309.132,-0.976359
11.0717,309.149,-0.97642
11.0733,309.166,-0.976481
11.075,309.182,-0.976542
11.0767,309.199,-0.976595
11.0783,309.216,-0.976644
11.08,309.232,-0.976697
11.0817,309.249,-0.976749
11.0833,309.265,-0.976798
11.085,309.282,-0.97684
11.0867,309.299,-0.976889
11.0883,309.316,-0.976932
11.09,309.332,-0.976967
11.0917,309.349,-0.977005
11.0933,309.366,-0.977048
11.095,309.383,-0.9771
11.0967,309.399,-0.97716
11.0983,309.416,-0.977226
11.1,309.432,-0.977283
11.1017,309.449,-0.977341
11.1033,309.466,-0.9774
11.105,309.482,-0.97746
11.1067,309.499,-0.977515
11.1083,309.515,-0.977559
11.11,309.532,-0.977599
11.1117,309.549,-0.977647
11.1133,309.565,-0.977695
11.115,309.582,-0.977747
11.1167,309.599,-0.977803
11.1183,309.615,-0.97785
11.12,309.632,-0.9779
11.1217,309.648,-0.977953
11.1233,309.665,-0.978007
11.125,309.682,-0.978057
11.1267,309.699,-0.9781
11.1283,309.715,-0.978151
11.13,309.732,-0.978215
11.1317,309.748,-0.978293
11.1333,309.765,-0.978373
11.135,309.782,-0.978453
11.1367,309.799,-0.978532
11.1383,309.815,-0.978608
11.14,309.832,-0.978678
11.1417,309.849,-0.978741
11.1433,309.865,-0.978801
11.145,309.882,-0.978856
11.1467,309.899,-0.978918
11.1483,309.915,-0.978979
11.15,309.932,-0.979038
11.1517,309.949,-0.979093
11.1533,309.965,-0.979148
11.155,309.982,-0.979203
11.1567,309.999,-0.979256
11.1583,310.015,-0.979306
11.16,310.032,-0.979354
11.1617,310.048,-0.979403
11.1633,310.065,-0.979453
11.165,310.081,-0.979504
11.1667,310.098,-0.979549
11.1683,310.115,-0.979601
11.17,310.132,-0.97965
11.1717,310.148,-0.979706
11.1733,310.165,-0.979766
11.175,310.182,-0.979839
11.1767,310.198,-0.979916
11.1783,310.215,-0.979993
11.18,310.231,-0.980065
11.1817,310.248,-0.980141
11.1833,310.265,-0.980206
11.185,310.281,-0.980269
11.1867,310.298,-0.980328
11.1883,310.315,-0.980387
11.19,310.331,-0.980445
11.1917,310.348,-0.980508
11.1933,310.365,-0.98057
11.195,310.382,-0.980628
11.1967,310.398,-0.98068
11.1983,310.415,-0.980735
11.2,310.431,-0.980787
11.2017,310.447,-0.980832
11.2033,310.463,-0.980874
11.205,310.48,-0.980916
11.2067,310.497,-0.980951
11.2083,310.514,-0.980992
11.21,310.531,-0.981046
11.2117,310.548,-0.981103
11.2133,310.564,-0.981166
11.215,310.581,-0.981231
11.2167,310.597,-0.98129
11.2183,310.614,-0.981354
11.22,310.631,-0.981421
11.2217,310.647,-0.981494
11.2233,310.664,-0.98156
11.225,310.68,-0.981618
11.2267,310.697,-0.981675
11.2283,310.714,-0.981724
11.23,310.731,-0.981775
11.2317,310.747,-0.981833
11.2333,310.764,-0.981896
11.235,310.781,-0.981956
11.2367,310.797,-0.982024
11.2383,310.814,-0.982096
11.24,310.83,-0.982175
11.2417,310.847,-0.982323
11.2433,310.864,-0.982501
11.245,310.881,-0.982639
11.2467,310.897,-0.982727
11.2483,310.914,-0.982804
11.25,310.931,-0.982877
11.2517,310.947,-0.982952
11.2533,310.964,-0.983015
11.255,310.981,-0.983061
11.2567,310.997,-0.983098
11.2583,311.014,-0.983133
11.26,311.031,-0.983172
11.2617,311.047,-0.983208
11.2633,311.064,-0.98325
11.265,311.081,-0.983301
11.2667,311.097,-0.983357
11.2683,311.114,-0.983425
11.27,311.131,-0.983497
11.2717,311.147,-0.983573
11.2733,311.164,-0.983648
11.275,311.181,-0.983727
11.2767,311.197,-0.983796
11.2783,311.214,-0.983865
11.28,311.231,-0.983926
11.2817,311.247,-0.983977
11.2833,311.264,-0.984028
11.285,311.281,-0.984072
11.2867,311.298,-0.984117
11.2883,311.314,-0.984166
11.29,311.331,-0.984226
11.2917,311.347,-0.984288
11.2933,311.364,-0.984355
11.295,311.38,-0.984424
11.2967,311.397,-0.984493
11.2983,311.414,-0.984569
11.3,311.431,-0.984649
11.3017,311.447,-0.984733
11.3033,311.463,-0.984819
11.305,311.48,-0.984894
11.3067,311.497,-0.984972
11.3083,311.514,-0.985055
11.31,311.53,-0.985133
11.3117,311.547,-0.985206
11.3133,311.564,-0.985279
11.315,311.581,-0.985346
11.3167,311.597,-0.985409
11.3183,311.614,-0.985468
11.32,311.631,-0.985527
11.3217,311.647,-0.985591
11.3233,311.664,-0.985656
11.325,311.68,-0.985722
11.3267,311.697,-0.985796
11.3283,311.714,-0.985873
11.33,311.73,-0.985948
11.3317,311.747,-0.986012
11.3333,311.764,-0.986069
11.335,311.781,-0.986126
11.3367,311.797,-0.986171
11.3383,311.814,-0.986212
11.34,311.831,-0.986253
11.3417,311.847,-0.986289
11.3433,311.863,-0.986338
11.345,311.88,-0.986408
11.3467,311.897,-0.986487
11.3483,311.914,-0.986573
11.35,311.93,-0.986699
11.3517,311.947,-0.98681
11.3533,311.964,-0.986977
11.355,311.98,-0.98717
11.3567,311.997,-0.987355
11.3583,312.014,-0.987479
11.36,312.03,-0.987566
11.3617,312.047,-0.98765
11.3633,312.063,-0.987725
11.365,312.08,-0.987785
11.3667,312.097,-0.987834
11.3683,312.114,-0.987879
11.37,312.13,-0.987915
11.3717,312.147,-0.987949
11.3733,312.163,-0.987987
11.375,312.18,-0.988029
11.3767,312.197,-0.988078
11.3783,312.213,-0.988128
11.38,312.23,-0.98818
11.3817,312.247,-0.988242
11.3833,312.264,-0.988316
11.385,312.28,-0.988395
11.3867,312.297,-0.988474
11.3883,312.313,-0.988555
11.39,312.33,-0.988637
11.3917,312.347,-0.988711
11.3933,312.363,-0.988779
11.395,312.38,-0.988845
11.3967,312.396,-0.988905
11.3983,312.413,-0.988953
11.4,312.43,-0.98899
11.4017,312.446,-0.989025
11.4033,312.463,-0.989064
11.405,312.48,-0.989109
11.4067,312.497,-0.989151
11.4083,312.513,-0.989207
11.41,312.53,-0.989269
11.4117,312.546,-0.989341
11.4133,312.563,-0.989414
11.415,312.58,-0.989486
11.4167,312.596,-0.989563
11.4183,312.613,-0.989635
11.42,312.63,-0.989707
11.4217,312.646,-0.989776
11.4233,312.663,-0.989848
11.425,312.68,-0.989921
11.4267,312.696,-0.989981
11.4283,312.713,-0.990047
11.43,312.73,-0.990118
11.4317,312.746,-0.99018
11.4333,312.763,-0.990242
11.435,312.78,-0.990307
11.4367,312.796,-0.990373
11.4383,312.813,-0.990442
11.44,312.83,-0.990513
11.4417,312.847,-0.990579
11.4433,312.863,-0.990644
11.445,312.88,-0.990701
11.4467,312.896,-0.990757
11.4483,312.913,-0.990806
11.45,312.93,-0.990853
11.4517,312.946,-0.99091
11.4533,312.963,-0.990972
11.455,312.98,-0.991038
11.4567,312.996,-0.991107
11.4583,313.013,-0.991177
11.46,313.03,-0.991247
11.4617,313.047,-0.991322
11.4633,313.063,-0.991395
11.465,313.08,-0.99146
11.4667,313.097,-0.991526
11.4683,313.113,-0.991599
11.47,313.13,-0.991675
11.4717,313.147,-0.99175
11.4733,313.163,-0.991829
11.475,313.18,-0.991941
11.4767,313.197,-0.992019
11.4783,313.213,-0.992098
11.48,313.23,-0.992166
11.4817,313.246,-0.992224
11.4833,313.263,-0.992284
11.485,313.28,-0.992341
11.4867,313.297,-0.992388
11.4883,313.313,-0.992442
11.49,313.33,-0.992499
11.4917,313.347,-0.99256
11.4933,313.363,-0.992623
11.495,313.38,-0.992681
11.4967,313.396,-0.99273
11.4983,313.413,-0.992772
11.5,313.429,-0.992813
11.5017,313.446,-0.992868
11.5033,313.463,-0.992936
11.505,313.48,-0.993008
11.5067,313.496,-0.99308
11.5083,313.513,-0.993164
11.51,313.53,-0.99327
11.5117,313.546,-0.993359
11.5133,313.563,-0.993441
11.515,313.579,-0.993519
11.5167,313.596,-0.993594
11.5183,313.613,-0.993667
11.52,313.63,-0.993737
11.5217,313.646,-0.993808
11.5233,313.663,-0.993869
11.525,313.679,-0.993923
11.5267,313.696,-0.993984
11.5283,313.713,-0.994048
11.53,313.729,-0.994122
11.5317,313.746,-0.9942
11.5333,313.763,-0.994273
11.535,313.779,-0.994342
11.5367,313.796,-0.994412
11.5383,313.813,-0.994486
11.54,313.83,-0.994558
11.5417,313.846,-0.994627
11.5433,313.863,-0.994688
11.545,313.88,-0.994742
11.5467,313.896,-0.994793
11.5483,313.912,-0.994847
11.55,313.929,-0.99491
11.5517,313.946,-0.994968
11.5533,313.963,-0.995018
11.555,313.979,-0.995076
11.5567,313.996,-0.995142
11.5583,314.013,-0.995217
11.56,314.029,-0.9953
11.5617,314.046,-0.995378
11.5633,314.063,-0.995452
11.565,314.079,-0.995521
11.5667,314.096,-0.99559
11.5683,314.112,-0.995658
11.57,314.129,-0.99571
11.5717,314.146,-0.995765
11.5733,314.163,-0.995819
11.575,314.18,-0.995882
11.5767,314.196,-0.995945
11.5783,314.213,-0.996016
11.58,314.229,-0.996091
11.5817,314.246,-0.99617
11.5833,314.263,-0.996252
11.585,314.279,-0.996338
11.5867,314.296,-0.996429
11.5883,314.312,-0.996524
11.59,314.329,-0.996664
11.5917,314.346,-0.996763
11.5933,314.363,-0.996852
11.595,314.379,-0.99693
11.5967,314.396,-0.996999
11.5983,314.412,-0.997062
11.6,314.429,-0.997122
11.6017,314.446,-0.997175
11.6033,314.462,-0.997228
11.605,314.479,-0.997279
11.6067,314.496,-0.997341
11.6083,314.513,-0.997402
11.61,314.529,-0.997476
11.6117,314.546,-0.997558
11.6133,314.563,-0.997637
11.615,314.579,-0.997718
11.6167,314.596,-0.997793
11.6183,314.613,-0.997869
11.62,314.629,-0.997934
11.6217,314.646,-0.998009
11.6233,314.663,-0.998085
11.625,314.679,-0.998176
11.6267,314.695,-0.998265
11.6283,314.713,-0.998357
11.63,314.729,-0.998451
11.6317,314.746,-0.998562
11.6333,314.763,-0.998692
11.635,314.779,-0.998788
11.6367,314.796,-0.998874
11.6383,314.812,-0.998957
11.64,314.829,-0.999041
11.6417,314.846,-0.999128
11.6433,314.863,-0.999211
11.645,314.879,-0.999284
11.6467,314.896,-0.999354
11.6483,314.912,-0.99943
11.65,314.929,-0.999511
11.6517,314.946,-0.999587
11.6533,314.963,-0.999657
11.655,314.979,-0.99973
11.6567,314.996,-0.999812
11.6583,315.013,-0.999891
11.66,315.029,-0.999971
11.6617,315.046,-1.00005
11.6633,315.063,-1.00012
11.665,315.079,-1.00019
11.6667,315.096,-1.00026
11.6683,315.112,-1.00034
11.67,315.129,-1.00042
11.6717,315.145,-1.0005
11.6733,315.162,-1.00056
11.675,315.179,-1.00062
11.6767,315.196,-1.00068
11.6783,315.213,-1.00076
11.68,315.229,-1.00083
11.6817,315.246,-1.0009
11.6833,315.262,-1.00096
11.685,315.279,-1.00103
11.6867,315.296,-1.00112
11.6883,315.312,-1.00121
11.69,315.329,-1.0013
11.6917,315.345,-1.00138
11.6933,315.362,-1.00149
11.695,315.379,-1.00163
11.6967,315.395,-1.0018
11.6983,315.412,-1.0019
11.7,315.429,-1.00199
11.7017,315.446,-1.00208
11.7033,315.462,-1.00216
11.705,315.479,-1.00224
11.7067,315.496,-1.00232
11.7083,315.513,-1.00239
11.71,315.529,-1.00246
11.7117,315.546,-1.00254
11.7133,315.563,-1.00262
11.715,315.579,-1.00271
11.7167,315.596,-1.0028
11.7183,315.612,-1.00289
11.72,315.629,-1.00298
11.7217,315.646,-1.00307
11.7233,315.663,-1.00316
11.725,315.679,-1.00325
11.7267,315.696,-1.00334
11.7283,315.712,-1.00343
11.73,315.729,-1.0035
11.7317,315.746,-1.00359
11.7333,315.763,-1.00367
11.735,315.779,-1.00375
11.7367,315.796,-1.00383
11.7383,315.812,-1.00391
11.74,315.829,-1.00399
11.7417,315.846,-1.00408
11.7433,315.862,-1.00417
11.745,315.879,-1.00426
11.7467,315.896,-1.00436
11.7483,315.912,-1.00446
11.75,315.929,-1.00456
11.7517,315.945,-1.00467
11.7533,315.962,-1.00484
11.755,315.979,-1.005
11.7567,315.996,-1.00516
11.7583,316.012,-1.00527
11.76,316.029,-1.00538
11.7617,316.046,-1.00548
11.7633,316.063,-1.00557
11.765,316.079,-1.00565
11.7667,316.096,-1.00573
11.7683,316.112,-1.0058
11.77,316.129,-1.00587
11.7717,316.146,-1.00594
11.7733,316.162,-1.00601
11.775,316.179,-1.00609
11.7767,316.195,-1.00618
11.7783,316.212,-1.00627
11.78,316.229,-1.00637
11.7817,316.245,-1.00647
11.7833,316.262,-1.00659
11.785,316.278,-1.0067
11.7867,316.295,-1.00681
11.7883,316.312,-1.00691
11.79,316.328,-1.00699
11.7917,316.345,-1.00706
11.7933,316.362,-1.00711
11.795,316.378,-1.00716
11.7967,316.395,-1.00721
11.7983,316.412,-1.00726
11.8,316.429,-1.00731
11.8017,316.445,-1.00739
11.8033,316.462,-1.00746
11.805,316.478,-1.00755
11.8067,316.495,-1.00765
11.8083,316.512,-1.00778
11.81,316.528,-1.00799
11.8117,316.545,-1.00818
11.8133,316.561,-1.00839
11.815,316.578,-1.00854
11.8167,316.595,-1.00865
11.8183,316.611,-1.00875
11.82,316.628,-1.00884
11.8217,316.645,-1.00894
11.8233,316.661,-1.00903
11.825,316.678,-1.00911
11.8267,316.695,-1.00919
11.8283,316.711,-1.00927
11.83,316.728,-1.00936
11.8317,316.745,-1.00945
11.8333,316.761,-1.00954
11.835,316.778,-1.00965
11.8367,316.794,-1.00975
11.8383,316.811,-1.00986
11.84,316.827,-1.01
11.8417,316.844,-1.01016
11.8433,316.861,-1.01027
11.845,316.878,-1.01036
11.8467,316.894,-1.01044
11.8483,316.911,-1.01051
11.85,316.928,-1.01058
11.8517,316.944,-1.01065
11.8533,316.961,-1.01072
11.855,316.977,-1.01081
11.8567,316.994,-1.01091
11.8583,317.01,-1.01104
11.86,317.027,-1.01124
11.8617,317.044,-1.01143
11.8633,317.061,-1.01155
11.865,317.078,-1.01167
11.8667,317.094,-1.01177
11.8683,317.111,-1.01186
11.87,317.128,-1.01195
11.8717,317.144,-1.01205
11.8733,317.161,-1.01213
11.875,317.178,-1.01222
11.8767,317.194,-1.01231
11.8783,317.211,-1.01239
11.88,317.227,-1.01248
11.8817,317.244,-1.01257
11.8833,317.261,-1.01266
11.885,317.277,-1.01274
11.8867,317.294,-1.01284
11.8883,317.311,-1.01294
11.89,317.327,-1.01309
11.8917,317.344,-1.01325
11.8933,317.361,-1.01336
11.895,317.377,-1.01352
11.8967,317.394,-1.01369
11.8983,317.411,-1.01386
11.9,317.427,-1.014
11.9017,317.444,-1.01412
11.9033,317.461,-1.01423
11.905,317.477,-1.01434
11.9067,317.494,-1.01443
11.9083,317.51,-1.01453
11.91,317.527,-1.01462
11.9117,317.544,-1.0147
11.9133,317.561,-1.01479
11.915,317.577,-1.01487
11.9167,317.594,-1.01496
11.9183,317.61,-1.01506
11.92,317.627,-1.01518
11.9217,317.644,-1.01529
11.9233,317.66,-1.0154
11.925,317.677,-1.01551
11.9267,317.694,-1.01563
11.9283,317.71,-1.01574
11.93,317.727,-1.01586
11.9317,317.744,-1.01596
11.9333,317.76,-1.01605
11.935,317.777,-1.01615
11.9367,317.794,-1.01625
11.9383,317.81,-1.01636
11.94,317.827,-1.01646
11.9417,317.844,-1.01657
11.9433,317.86,-1.01669
11.945,317.877,-1.01684
11.9467,317.893,-1.0171
11.9483,317.91,-1.01727
11.95,317.927,-1.01739
11.9517,317.944,-1.01751
11.9533,317.96,-1.01762
11.955,317.977,-1.01774
11.9567,317.993,-1.01786
11.9583,318.01,-1.01797
11.96,318.027,-1.01807
11.9617,318.043,-1.01819
11.9633,318.06,-1.0183
11.965,318.076,-1.01842
11.9667,318.092,-1.01853
11.9683,318.109,-1.01864
11.97,318.126,-1.01875
11.9717,318.143,-1.01885
11.9733,318.159,-1.01896
11.975,318.176,-1.01907
11.9767,318.193,-1.01919
11.9783,318.21,-1.01931
11.98,318.227,-1.01942
11.9817,318.243,-1.01955
11.9833,318.26,-1.01967
11.985,318.277,-1.01979
11.9867,318.293,-1.01991
11.9883,318.309,-1.02004
11.99,318.326,-1.02016
11.9917,318.342,-1.02028
11.9933,318.359,-1.0204
11.995,318.376,-1.02051
11.9967,318.393,-1.02062
11.9983,318.409,-1.02072
12,318.426,-1.02081
12.0017,318.443,-1.0209
12.0033,318.46,-1.021
12.005,318.476,-1.0211
12.0067,318.493,-1.02121
12.0083,318.509,-1.02133
12.01,318.526,-1.02144
12.0117,318.543,-1.02156
12.0133,318.559,-1.02168
12.015,318.576,-1.02181
12.0167,318.592,-1.02195
12.0183,318.609,-1.02209
12.02,318.626,-1.02238
12.0217,318.642,-1.02265
12.0233,318.659,-1.02291
12.025,318.676,-1.02315
12.0267,318.693,-1.02342
12.0283,318.709,-1.02358
12.03,318.726,-1.0237
12.0317,318.742,-1.02383
12.0333,318.759,-1.02396
12.035,318.775,-1.02408
12.0367,318.792,-1.02419
12.0383,318.809,-1.02431
12.04,318.826,-1.02443
12.0417,318.842,-1.02456
12.0433,318.859,-1.0247
12.045,318.875,-1.02495
12.0467,318.892,-1.02525
12.0483,318.909,-1.02557
12.05,318.925,-1.026
12.0517,318.942,-1.02627
12.0533,318.959,-1.0265
12.055,318.975,-1.02667
12.0567,318.992,-1.02682
12.0583,319.009,-1.02695
12.06,319.025,-1.02708
12.0617,319.042,-1.0272
12.0633,319.059,-1.02732
12.065,319.076,-1.02743
12.0667,319.092,-1.02755
12.0683,319.109,-1.02766
12.07,319.125,-1.02778
12.0717,319.142,-1.02789
12.0733,319.159,-1.028
12.075,319.175,-1.02812
12.0767,319.192,-1.02823
12.0783,319.208,-1.02835
12.08,319.225,-1.02847
12.0817,319.242,-1.02859
12.0833,319.258,-1.02872
12.085,319.275,-1.02885
12.0867,319.292,-1.02898
12.0883,319.309,-1.0291
12.09,319.325,-1.02922
12.0917,319.342,-1.02934
12.0933,319.358,-1.02946
12.095,319.375,-1.02958
12.0967,319.392,-1.0297
12.0983,319.408,-1.02981
12.1,319.425,-1.02993
12.1017,319.442,-1.03005
12.1033,319.458,-1.03018
12.105,319.476,-1.03031
12.1067,319.492,-1.03044
12.1083,319.508,-1.03057
12.11,319.525,-1.03081
12.1117,319.542,-1.03102
12.1133,319.558,-1.03141
12.115,319.575,-1.03189
12.1167,319.591,-1.03233
12.1183,319.608,-1.03294
12.12,319.624,-1.03333
12.1217,319.641,-1.03383
12.1233,319.658,-1.03419
12.125,319.675,-1.0345
12.1267,319.691,-1.03473
12.1283,319.708,-1.03488
12.13,319.725,-1.03502
12.1317,319.741,-1.03516
12.1333,319.758,-1.03528
12.135,319.774,-1.03544
12.1367,319.791,-1.03561
12.1383,319.807,-1.03573
12.14,319.824,-1.03586
12.1417,319.841,-1.03598
12.1433,319.857,-1.03611
12.145,319.874,-1.03625
12.1467,319.891,-1.03648
12.1483,319.908,-1.03675
12.15,319.924,-1.03704
12.1517,319.941,-1.03718
12.1533,319.957,-1.03731
12.155,319.975,-1.03744
12.1567,319.991,-1.03756
12.1583,320.008,-1.03769
12.16,320.025,-1.03782
12.1617,320.041,-1.03794
12.1633,320.058,-1.03807
12.165,320.074,-1.0382
12.1667,320.091,-1.03835
12.1683,320.107,-1.03849
12.17,320.124,-1.03864
12.1717,320.141,-1.03879
12.1733,320.157,-1.03893
12.175,320.174,-1.03911
12.1767,320.191,-1.0393
12.1783,320.207,-1.03951
12.18,320.224,-1.0397
12.1817,320.24,-1.03984
12.1833,320.257,-1.03999
12.185,320.273,-1.04018
12.1867,320.29,-1.04043
12.1883,320.307,-1.04057
12.19,320.324,-1.04071
12.1917,320.34,-1.04086
12.1933,320.357,-1.04101
12.195,320.374,-1.04115
12.1967,320.39,-1.04129
12.1983,320.407,-1.04144
12.2,320.424,-1.04158
12.2017,320.44,-1.04173
12.2033,320.457,-1.04197
12.205,320.473,-1.04224
12.2067,320.49,-1.04248
12.2083,320.506,-1.04283
12.21,320.523,-1.0432
12.2117,320.54,-1.0436
12.2133,320.556,-1.04393
12.215,320.573,-1.04425
12.2167,320.59,-1.04458
12.2183,320.607,-1.04487
12.22,320.624,-1.04521
12.2217,320.641,-1.04554
12.2233,320.658,-1.04577
12.225,320.675,-1.04591
12.2267,320.69,-1.04605
12.2283,320.707,-1.0462
12.23,320.723,-1.04633
12.2317,320.74,-1.04646
12.2333,320.757,-1.04662
12.235,320.773,-1.04676
12.2367,320.79,-1.04689
12.2383,320.806,-1.04703
12.24,320.823,-1.04718
12.2417,320.84,-1.04737
12.2433,320.856,-1.04759
12.245,320.873,-1.04787
12.2467,320.89,-1.04811
12.2483,320.907,-1.04834
12.25,320.923,-1.04861
12.2517,320.94,-1.04891
12.2533,320.956,-1.04922
12.255,320.973,-1.04955
12.2567,320.99,-1.04991
12.2583,321.006,-1.0502
12.26,321.023,-1.05062
12.2617,321.039,-1.05115
12.2633,321.056,-1.0517
12.265,321.073,-1.05216
12.2667,321.089,-1.05261
12.2683,321.106,-1.05313
12.27,321.122,-1.05373
12.2717,321.139,-1.05408
12.2733,321.156,-1.05439
12.275,321.172,-1.05462
12.2767,321.189,-1.05482
12.2783,321.205,-1.05501
12.28,321.222,-1.05524
12.2817,321.239,-1.05551
12.2833,321.255,-1.05581
12.285,321.272,-1.0561
12.2867,321.289,-1.05633
12.2883,321.306,-1.05653
12.29,321.322,-1.05673
12.2917,321.339,-1.05691
12.2933,321.355,-1.05706
12.295,321.372,-1.05721
12.2967,321.388,-1.05736
12.2983,321.405,-1.0575
12.3,321.421,-1.05765
12.3017,321.438,-1.0578
12.3033,321.455,-1.05794
12.305,321.472,-1.0581
12.3067,321.488,-1.05825
12.3083,321.504,-1.05851
12.31,321.521,-1.05883
12.3117,321.538,-1.05917
12.3133,321.555,-1.05952
12.315,321.571,-1.05988
12.3167,321.587,-1.06017
12.3183,321.604,-1.06045
12.32,321.621,-1.06074
12.3217,321.638,-1.06113
12.3233,321.654,-1.06166
12.325,321.671,-1.06231
12.3267,321.688,-1.06286
12.3283,321.704,-1.06338
12.33,321.721,-1.06402
12.3317,321.737,-1.06476
12.3333,321.754,-1.06558
12.335,321.771,-1.06636
12.3367,321.788,-1.06711
12.3383,321.804,-1.06768
12.34,321.821,-1.06805
12.3417,321.837,-1.06842
12.3433,321.854,-1.06883
12.345,321.871,-1.06909
12.3467,321.888,-1.0693
12.3483,321.904,-1.06953
12.35,321.921,-1.06974
12.3517,321.937,-1.06991
12.3533,321.954,-1.0701
12.355,321.971,-1.07026
12.3567,321.987,-1.07042
12.3583,322.004,-1.07077
12.36,322.02,-1.07123
12.3617,322.037,-1.07183
12.3633,322.053,-1.07254
12.365,322.07,-1.07313
12.3667,322.087,-1.07366
12.3683,322.103,-1.07418
12.37,322.12,-1.07481
12.3717,322.136,-1.07561
12.3733,322.153,-1.07635
12.375,322.169,-1.07691
12.3767,322.186,-1.0775
12.3783,322.203,-1.07792
12.38,322.219,-1.07832
12.3817,322.236,-1.07874
12.3833,322.253,-1.0791
12.385,322.269,-1.07949
12.3867,322.286,-1.07996
12.3883,322.303,-1.08038
12.39,322.319,-1.08091
12.3917,322.336,-1.08151
12.3933,322.352,-1.08203
12.395,322.369,-1.0826
12.3967,322.385,-1.08323
12.3983,322.402,-1.0839
12.4,322.418,-1.08459
12.4017,322.435,-1.08518
12.4033,322.452,-1.08578
12.405,322.468,-1.08662
12.4067,322.485,-1.08764
12.4083,322.502,-1.08842
12.41,322.518,-1.08925
12.4117,322.535,-1.08995
12.4133,322.552,-1.0907
12.415,322.568,-1.09138
12.4167,322.585,-1.09207
12.4183,322.602,-1.09253
12.42,322.618,-1.09291
12.4217,322.635,-1.09329
12.4233,322.652,-1.09364
12.425,322.668,-1.09406
12.4267,322.685,-1.09453
12.4283,322.701,-1.09506
12.43,322.718,-1.09575
12.4317,322.735,-1.09647
12.4333,322.751,-1.09734
12.435,322.768,-1.09818
12.4367,322.785,-1.09889
12.4383,322.801,-1.09951
12.44,322.818,-1.10018
12.4417,322.834,-1.10093
12.4433,322.851,-1.10149
12.445,322.867,-1.10182
12.4467,322.884,-1.10223
12.4483,322.901,-1.10267
12.45,322.918,-1.10311
12.4517,322.934,-1.10368
12.4533,322.951,-1.1042
12.455,322.967,-1.10483
12.4567,322.984,-1.10551
12.4583,323,-1.10624
12.46,323.017,-1.10714
12.4617,323.033,-1.10811
12.4633,323.05,-1.10881
12.465,323.067,-1.1095
12.4667,323.084,-1.11007
12.4683,323.101,-1.11061
12.47,323.117,-1.11122
12.4717,323.133,-1.11186
12.4733,323.15,-1.11262
12.475,323.167,-1.11345
12.4767,323.183,-1.11453
12.4783,323.2,-1.116
12.48,323.217,-1.11755
12.4817,323.234,-1.11894
12.4833,323.25,-1.12028
12.485,323.267,-1.12112
12.4867,323.283,-1.12179
12.4883,323.3,-1.12233
12.49,323.316,-1.12272
12.4917,323.333,-1.12296
12.4933,323.349,-1.12311
12.495,323.366,-1.12327
12.4967,323.383,-1.12352
12.4983,323.399,-1.1238
12.5,323.416,-1.12413
12.5017,323.433,-1.12462
12.5033,323.449,-1.12521
12.505,323.466,-1.12588
12.5067,323.482,-1.12641
12.5083,323.499,-1.12703
12.51,323.516,-1.12777
12.5117,323.532,-1.12857
12.5133,323.549,-1.12934
12.515,323.566,-1.13021
12.5167,323.582,-1.13106
12.5183,323.599,-1.13176
12.52,323.615,-1.13237
12.5217,323.632,-1.13305
12.5233,323.649,-1.13369
12.525,323.665,-1.13434
12.5267,323.682,-1.13514
12.5283,323.699,-1.13612
12.53,323.715,-1.13727
12.5317,323.731,-1.13847
12.5333,323.748,-1.13977
12.535,323.765,-1.14111
12.5367,323.782,-1.14208
12.5383,323.798,-1.143
12.54,323.815,-1.14365
12.5417,323.832,-1.14414
12.5433,323.848,-1.14458
12.545,323.865,-1.14501
12.5467,323.881,-1.14554
12.5483,323.898,-1.14597
12.55,323.915,-1.14651
12.5517,323.931,-1.14734
12.5533,323.947,-1.14817
12.555,323.964,-1.14898
12.5567,323.981,-1.14984
12.5583,323.997,-1.15091
12.56,324.014,-1.1517
12.5617,324.03,-1.15238
12.5633,324.047,-1.15325
12.565,324.064,-1.15402
12.5667,324.081,-1.15484
12.5683,324.097,-1.1555
12.57,324.114,-1.15621
12.5717,324.13,-1.15709
12.5733,324.146,-1.15817
12.575,324.163,-1.15932
12.5767,324.179,-1.16058
12.5783,324.196,-1.16182
12.58,324.213,-1.16325
12.5817,324.229,-1.16457
12.5833,324.246,-1.16575
12.585,324.263,-1.16676
12.5867,324.279,-1.16754
12.5883,324.296,-1.16824
12.59,324.313,-1.16896
12.5917,324.329,-1.16985
12.5933,324.346,-1.17079
12.595,324.363,-1.17199
12.5967,324.379,-1.17334
12.5983,324.395,-1.17484
12.6,324.412,-1.17597
12.6017,324.429,-1.17692
12.6033,324.446,-1.17788
12.605,324.462,-1.17846
12.6067,324.479,-1.17894
12.6083,324.495,-1.1794
12.61,324.512,-1.17972
12.6117,324.529,-1.18006
12.6133,324.545,-1.18037
12.615,324.562,-1.18091
12.6167,324.579,-1.18163
12.6183,324.595,-1.18233
12.62,324.612,-1.18325
12.6217,324.628,-1.18441
12.6233,324.645,-1.18576
12.625,324.661,-1.18713
12.6267,324.678,-1.18863
12.6283,324.695,-1.18994
12.63,324.711,-1.19101
12.6317,324.728,-1.19188
12.6333,324.744,-1.1927
12.635,324.761,-1.19346
12.6367,324.778,-1.19406
12.6383,324.794,-1.19455
12.64,324.811,-1.19517
12.6417,324.827,-1.19609
12.6433,324.844,-1.19708
12.645,324.861,-1.1983
12.6467,324.877,-1.19978
12.6483,324.893,-1.20152
12.65,324.91,-1.20311
12.6517,324.927,-1.20474
12.6533,324.944,-1.20653
12.655,324.96,-1.20811
12.6567,324.977,-1.20977
12.6583,324.993,-1.21129
12.66,325.01,-1.21273
12.6617,325.026,-1.21419
12.6633,325.043,-1.2164
12.665,325.059,-1.21833
12.6667,325.076,-1.22016
12.6683,325.092,-1.2216
12.67,325.109,-1.22296
12.6717,325.125,-1.2244
12.6733,325.142,-1.22531
12.675,325.159,-1.22592
12.6767,325.176,-1.22625
12.6783,325.192,-1.22666
12.68,325.208,-1.22708
12.6817,325.225,-1.22754
12.6833,325.242,-1.22801
12.685,325.258,-1.22865
12.6867,325.275,-1.2295
12.6883,325.292,-1.23027
12.69,325.308,-1.2312
12.6917,325.325,-1.23241
12.6933,325.341,-1.23365
12.695,325.358,-1.23498
12.6967,325.374,-1.2363
12.6983,325.391,-1.23776
12.7,325.407,-1.23949
12.7017,325.424,-1.24115
12.7033,325.44,-1.24281
12.705,325.457,-1.24442
12.7067,325.474,-1.24578
12.7083,325.49,-1.24665
12.71,325.507,-1.24733
12.7117,325.523,-1.24813
12.7133,325.54,-1.24896
12.715,325.557,-1.24964
12.7167,325.573,-1.25044
12.7183,325.589,-1.25112
12.72,325.606,-1.25226
12.7217,325.623,-1.25392
12.7233,325.639,-1.25552
12.725,325.656,-1.25757
12.7267,325.672,-1.25992
12.7283,325.689,-1.26284
12.73,325.705,-1.26594
12.7317,325.721,-1.26848
12.7333,325.738,-1.27046
12.735,325.754,-1.27222
12.7367,325.77,-1.27357
12.7383,325.787,-1.27486
12.74,325.804,-1.27579
12.7417,325.821,-1.27628
12.7433,325.838,-1.27673
12.745,325.854,-1.27716
12.7467,325.871,-1.27773
12.7483,325.887,-1.27858
12.75,325.904,-1.27952
12.7517,325.921,-1.281
12.7533,325.937,-1.28299
12.755,325.954,-1.28527
12.7567,325.97,-1.28706
12.7583,325.987,-1.28873
12.76,326.003,-1.29065
12.7617,326.02,-1.2922
12.7633,326.036,-1.29379
12.765,326.053,-1.29542
12.7667,326.069,-1.29703
12.7683,326.086,-1.29856
12.77,326.103,-1.29987
12.7717,326.119,-1.30154
12.7733,326.136,-1.30354
12.775,326.152,-1.30535
12.7767,326.169,-1.30741
12.7783,326.185,-1.3092
12.78,326.202,-1.31085
12.7817,326.218,-1.31249
12.7833,326.235,-1.31348
12.785,326.252,-1.31453
12.7867,326.268,-1.31538
12.7883,326.285,-1.31694
12.79,326.301,-1.31829
12.7917,326.318,-1.31971
12.7933,326.335,-1.32142
12.795,326.351,-1.32334
12.7967,326.368,-1.32593
12.7983,326.384,-1.32846
12.8,326.401,-1.33119
12.8017,326.417,-1.33353
12.8033,326.434,-1.33578
12.805,326.45,-1.33775
12.8067,326.467,-1.33888
12.8083,326.483,-1.34015
12.81,326.5,-1.34119
12.8117,326.517,-1.34235
12.8133,326.533,-1.34385
12.815,326.55,-1.34534
12.8167,326.566,-1.34729
12.8183,326.582,-1.34928
12.82,326.599,-1.35125
12.8217,326.616,-1.35389
12.8233,326.632,-1.35644
12.825,326.649,-1.35917
12.8267,326.665,-1.36184
12.8283,326.682,-1.36337
12.83,326.699,-1.36501
12.8317,326.715,-1.36763
12.8333,326.732,-1.37033
12.835,326.748,-1.37333
12.8367,326.764,-1.37591
12.8383,326.781,-1.37808
12.84,326.798,-1.38003
12.8417,326.814,-1.38155
12.8433,326.831,-1.38294
12.845,326.848,-1.38486
12.8467,326.864,-1.38616
12.8483,326.88,-1.38793
12.85,326.897,-1.38942
12.8517,326.913,-1.39126
12.8533,326.93,-1.3941
12.855,326.946,-1.39761
12.8567,326.963,-1.40082
12.8583,326.98,-1.40288
12.86,326.996,-1.40502
12.8617,327.013,-1.40705
12.8633,327.029,-1.4095
12.865,327.046,-1.41192
12.8667,327.062,-1.41518
12.8683,327.079,-1.41838
12.87,327.095,-1.42239
12.8717,327.112,-1.42614
12.8733,327.129,-1.42923
12.875,327.145,-1.43125
12.8767,327.161,-1.43329
12.8783,327.178,-1.43587
12.88,327.194,-1.43774
12.8817,327.21,-1.44077
12.8833,327.227,-1.44338
12.885,327.243,-1.44582
12.8867,327.26,-1.44779
12.8883,327.277,-1.45135
12.89,327.293,-1.45457
12.8917,327.309,-1.45751
12.8933,327.326,-1.46156
12.895,327.342,-1.4645
12.8967,327.359,-1.46787
12.8983,327.375,-1.47157
12.9,327.392,-1.47539
12.9017,327.408,-1.4797
12.9033,327.425,-1.48303
12.905,327.442,-1.48739
12.9067,327.458,-1.4905
12.9083,327.474,-1.49273
12.91,327.491,-1.49649
12.9117,327.507,-1.50038
12.9133,327.524,-1.50377
12.915,327.54,-1.50698
12.9167,327.557,-1.50944
12.9183,327.573,-1.51322
12.92,327.589,-1.51705
12.9217,327.606,-1.52147
12.9233,327.622,-1.52674
12.925,327.639,-1.53243
12.9267,327.655,-1.53671
12.9283,327.672,-1.54275
12.93,327.688,-1.5467
12.9317,327.705,-1.54933
12.9333,327.721,-1.55353
12.935,327.737,-1.55732
12.9367,327.754,-1.56069
12.9383,327.77,-1.56508
12.94,327.786,-1.56889
12.9417,327.803,-1.57347
12.9433,327.819,-1.5778
12.945,327.836,-1.58346
12.9467,327.852,-1.58803
12.9483,327.868,-1.59222
12.95,327.884,-1.59647
12.9517,327.901,-1.60077
12.9533,327.917,-1.60471
12.955,327.933,-1.6098
12.9567,327.95,-1.61576
12.9583,327.966,-1.622
12.96,327.983,-1.62815
12.9617,327.999,-1.63394
12.9633,328.015,-1.63861
12.965,328.032,-1.64466
12.9667,328.048,-1.65154
12.9683,328.064,-1.65697
12.97,328.081,-1.66219
12.9717,328.097,-1.66908
12.9733,328.113,-1.67625
12.975,328.13,-1.68288
12.9767,328.146,-1.68999
12.9783,328.162,-1.69745
12.98,328.179,-1.70327
12.9817,328.195,-1.70884
12.9833,328.211,-1.71494
12.985,328.228,-1.72199
12.9867,328.244,-1.72834
12.9883,328.261,-1.73332
12.99,328.277,-1.73936
12.9917,328.293,-1.74719
12.9933,328.31,-1.7546
12.995,328.326,-1.76079
12.9967,328.342,-1.7682
12.9983,328.358,-1.77472
13,328.374,-1.78171
13.0017,328.391,-1.78912
13.0033,328.407,-1.79688
13.005,328.423,-1.80487
13.0067,328.439,-1.81265
13.0083,328.455,-1.82073
13.01,328.472,-1.82919
13.0117,328.488,-1.83841
13.0133,328.504,-1.84695
13.015,328.52,-1.85591
13.0167,328.537,-1.86465
13.0183,328.553,-1.87304
13.02,328.569,-1.88112
13.0217,328.585,-1.8893
13.0233,328.601,-1.89685
13.025,328.618,-1.90617
13.0267,328.634,-1.91453
13.0283,328.65,-1.92428
13.03,328.666,-1.93261
13.0317,328.683,-1.94242
13.0333,328.699,-1.95145
13.035,328.715,-1.95971
13.0367,328.731,-1.96861
13.0383,328.747,-1.97826
13.04,328.763,-1.98768
13.0417,328.779,-1.99717
13.0433,328.795,-2.00865
13.045,328.811,-2.01962
13.0467,328.827,-2.03011
13.0483,328.843,-2.04129
13.05,328.86,-2.05242
13.0517,328.876,-2.06365
13.0533,328.892,-2.07508
13.055,328.908,-2.08573
13.0567,328.924,-2.09721
13.0583,328.94,-2.10702
13.06,328.956,-2.11884
13.0617,328.972,-2.12856
13.0633,328.989,-2.13995
13.065,329.004,-2.15128
13.0667,329.021,-2.16138
13.0683,329.036,-2.17201
13.07,329.052,-2.18402
13.0717,329.068,-2.19729
13.0733,329.085,-2.20894
13.075,329.101,-2.22113
13.0767,329.117,-2.23417
13.0783,329.133,-2.24614
13.08,329.149,-2.25805
13.0817,329.164,-2.2692
13.0833,329.18,-2.28057
13.085,329.196,-2.2924
13.0867,329.212,-2.30202
13.0883,329.228,-2.31202
13.09,329.244,-2.32225
13.0917,329.26,-2.33394
13.0933,329.277,-2.34458
13.095,329.292,-2.35659
13.0967,329.308,-2.3674
13.0983,329.324,-2.37708
13.1,329.34,-2.38823
13.1017,329.356,-2.3981
13.1033,329.372,-2.40791
13.105,329.388,-2.41692
13.1067,329.404,-2.42496
13.1083,329.42,-2.4336
13.11,329.435,-2.44024
13.1117,329.451,-2.44721
13.1133,329.467,-2.45445
13.115,329.483,-2.46126
13.1167,329.5,-2.46745
13.1183,329.515,-2.47232
13.12,329.531,-2.47606
13.1217,329.547,-2.47886
13.1233,329.563,-2.48181
13.125,329.58,-2.48402
13.1267,329.596,-2.48522
13.1283,329.612,-2.4864
13.13,329.628,-2.48637
13.1317,329.644,-2.48527
13.1333,329.66,-2.48286
13.135,329.676,-2.48112
13.1367,329.692,-2.47777
13.1383,329.708,-2.47269
13.14,329.725,-2.46872
13.1417,329.741,-2.46407
13.1433,329.757,-2.45859
13.145,329.773,-2.45314
13.1467,329.79,-2.44653
13.1483,329.806,-2.43927
13.15,329.822,-2.42955
13.1517,329.839,-2.42005
13.1533,329.855,-2.40921
13.155,329.872,-2.39739
13.1567,329.888,-2.38655
13.1583,329.904,-2.3745
13.16,329.921,-2.36178
13.1617,329.938,-2.34798
13.1633,329.955,-2.33437
13.165,329.971,-2.32126
13.1667,329.988,-2.30737
13.1683,330.005,-2.29278
13.17,330.022,-2.27772
13.1717,330.038,-2.26235
13.1733,330.055,-2.24673
13.175,330.072,-2.23036
13.1767,330.089,-2.21443
13.1783,330.106,-2.19713
13.18,330.122,-2.18107
13.1817,330.139,-2.16427
13.1833,330.157,-2.1471
13.185,330.173,-2.13012
13.1867,330.19,-2.11337
13.1883,330.207,-2.09642
13.19,330.224,-2.08009
13.1917,330.241,-2.06315
13.1933,330.258,-2.04586
13.195,330.275,-2.02894
13.1967,330.293,-2.01265
13.1983,330.31,-1.99576
13.2,330.327,-1.98059
13.2017,330.345,-1.96423
13.2033,330.362,-1.94867
13.205,330.379,-1.93303
13.2067,330.396,-1.91752
13.2083,330.413,-1.90062
13.21,330.431,-1.88524
13.2117,330.448,-1.86992
13.2133,330.466,-1.85286
13.215,330.483,-1.83762
13.2167,330.5,-1.82179
13.2183,330.517,-1.80719
13.22,330.535,-1.79368
13.2217,330.552,-1.77815
13.2233,330.57,-1.76389
13.225,330.587,-1.75126
13.2267,330.605,-1.7389
13.2283,330.622,-1.72695
13.23,330.639,-1.71502
13.2317,330.657,-1.70394
13.2333,330.674,-1.69136
13.235,330.692,-1.67931
13.2367,330.709,-1.66871
13.2383,330.727,-1.65668
13.24,330.745,-1.64409
13.2417,330.762,-1.63211
13.2433,330.779,-1.62014
13.245,330.797,-1.6084
13.2467,330.814,-1.59713
13.2483,330.831,-1.5846
13.25,330.849,-1.57379
13.2517,330.866,-1.56227
13.2533,330.884,-1.55132
13.255,330.901,-1.54052
13.2567,330.919,-1.53026
13.2583,330.936,-1.52092
13.26,330.954,-1.51204
13.2617,330.971,-1.50253
13.2633,330.988,-1.4947
13.265,331.006,-1.48676
13.2667,331.023,-1.47894
13.2683,331.04,-1.47138
13.27,331.058,-1.46294
13.2717,331.075,-1.45372
13.2733,331.093,-1.44526
13.275,331.11,-1.4356
13.2767,331.127,-1.42678
13.2783,331.145,-1.41835
13.28,331.162,-1.41019
13.2817,331.18,-1.40206
13.2833,331.197,-1.39564
13.285,331.215,-1.38891
13.2867,331.232,-1.38088
13.2883,331.25,-1.37354
13.29,331.267,-1.36679
13.2917,331.284,-1.35979
13.2933,331.302,-1.35305
13.295,331.319,-1.34632
13.2967,331.336,-1.33843
13.2983,331.354,-1.33219
13.3,331.371,-1.32556
13.3017,331.388,-1.31919
13.3033,331.406,-1.31311
13.305,331.423,-1.3081
13.3067,331.44,-1.30134
13.3083,331.457,-1.29522
13.31,331.475,-1.29008
13.3117,331.492,-1.28362
13.3133,331.509,-1.27842
13.315,331.527,-1.27289
13.3167,331.543,-1.26822
13.3183,331.561,-1.26349
13.32,331.578,-1.25926
13.3217,331.595,-1.25424
13.3233,331.613,-1.24985
13.325,331.63,-1.24578
13.3267,331.647,-1.24185
13.3283,331.664,-1.23493
13.33,331.682,-1.22924
13.3317,331.699,-1.22326
13.3333,331.716,-1.2179
13.335,331.733,-1.21316
13.3367,331.75,-1.20884
13.3383,331.768,-1.20417
13.34,331.785,-1.19913
13.3417,331.802,-1.19553
13.3433,331.819,-1.19286
13.345,331.836,-1.18921
13.3467,331.853,-1.18573
13.3483,331.871,-1.1828
13.35,331.888,-1.17857
13.3517,331.905,-1.17439
13.3533,331.922,-1.17095
13.355,331.939,-1.16704
13.3567,331.956,-1.16336
13.3583,331.974,-1.16027
13.36,331.991,-1.15762
13.3617,332.008,-1.15419
13.3633,332.025,-1.15044
13.365,332.042,-1.14789
13.3667,332.059,-1.14467
13.3683,332.076,-1.14145
13.37,332.093,-1.13696
13.3717,332.11,-1.13387
13.3733,332.127,-1.13064
13.375,332.144,-1.12735
13.3767,332.161,-1.12431
13.3783,332.178,-1.12264
13.38,332.195,-1.12175
13.3817,332.212,-1.11848
13.3833,332.229,-1.11576
13.385,332.247,-1.11517
13.3867,332.263,-1.11293
13.3883,332.28,-1.11008
13.39,332.298,-1.10811
13.3917,332.315,-1.10513
13.3933,332.332,-1.10105
13.395,332.348,-1.09814
13.3967,332.366,-1.09567
13.3983,332.382,-1.09351
13.4,332.399,-1.08998
13.4017,332.416,-1.0871
13.4033,332.433,-1.08656
13.405,332.45,-1.08487
13.4067,332.467,-1.08278
13.4083,332.483,-1.08116
13.41,332.5,-1.07908
13.4117,332.517,-1.0773
13.4133,332.535,-1.07568
13.415,332.552,-1.07512
13.4167,332.569,-1.0741
13.4183,332.586,-1.07272
13.42,332.603,-1.07106
13.4217,332.62,-1.06968
13.4233,332.637,-1.06824
13.425,332.653,-1.06593
13.4267,332.67,-1.0639
13.4283,332.687,-1.06261
13.43,332.704,-1.06106
13.4317,332.721,-1.05893
13.4333,332.738,-1.05708
13.435,332.754,-1.05485
13.4367,332.771,-1.05322
13.4383,332.788,-1.05163
13.44,332.805,-1.05054
13.4417,332.822,-1.0496
13.4433,332.839,-1.0478
13.445,332.856,-1.04583
13.4467,332.872,-1.04591
13.4483,332.889,-1.04573
13.45,332.906,-1.04567
13.4517,332.923,-1.04531
13.4533,332.94,-1.0445
13.455,332.957,-1.04317
13.4567,332.974,-1.04164
13.4583,332.99,-1.04007
13.46,333.007,-1.03805
13.4617,333.024,-1.03582
13.4633,333.041,-1.03323
13.465,333.058,-1.03115
13.4667,333.075,-1.02983
13.4683,333.091,-1.02932
13.47,333.108,-1.02863
13.4717,333.125,-1.02835
13.4733,333.142,-1.02791
13.475,333.159,-1.02767
13.4767,333.176,-1.02714
13.4783,333.192,-1.02607
13.48,333.209,-1.02463
13.4817,333.226,-1.0233
13.4833,333.243,-1.02147
13.485,333.26,-1.01961
13.4867,333.276,-1.01817
13.4883,333.293,-1.01666
13.49,333.31,-1.01532
13.4917,333.327,-1.0146
13.4933,333.344,-1.01407
13.495,333.36,-1.01385
13.4967,333.377,-1.01376
13.4983,333.394,-1.01374
13.5,333.411,-1.01346
13.5017,333.428,-1.01317
13.5033,333.444,-1.01304
13.505,333.461,-1.01286
13.5067,333.478,-1.01262
13.5083,333.494,-1.01232
13.51,333.511,-1.01205
13.5117,333.528,-1.01173
13.5133,333.544,-1.01148
13.515,333.561,-1.01115
13.5167,333.578,-1.01084
13.5183,333.595,-1.01044
13.52,333.612,-1.00992
13.5217,333.629,-1.00949
13.5233,333.646,-1.00898
13.525,333.662,-1.00846
13.5267,333.679,-1.00795
13.5283,333.696,-1.00758
13.53,333.712,-1.00715
13.5317,333.729,-1.00667
13.5333,333.746,-1.00627
13.535,333.763,-1.00589
13.5367,333.779,-1.00543
13.5383,333.796,-1.00492
13.54,333.813,-1.00434
13.5417,333.83,-1.0039
13.5433,333.847,-1.00356
13.545,333.863,-1.00294
13.5467,333.88,-1.00246
13.5483,333.897,-1.00187
13.55,333.913,-1.00117
13.5517,333.93,-1.00031
13.5533,333.947,-0.99954
13.555,333.964,-0.998827
13.5567,333.981,-0.997893
13.5583,333.998,-0.99723
13.56,334.014,-0.996815
13.5617,334.031,-0.996463
13.5633,334.047,-0.996148
13.565,334.064,-0.995929
13.5667,334.081,-0.99576
13.5683,334.097,-0.995591
13.57,334.114,-0.995448
13.5717,334.131,-0.995329
13.5733,334.147,-0.995216
13.575,334.164,-0.995135
13.5767,334.181,-0.995079
13.5783,334.197,-0.99499
13.58,334.214,-0.994878
13.5817,334.231,-0.99472
13.5833,334.248,-0.994556
13.585,334.265,-0.994235
13.5867,334.282,-0.9939
13.5883,334.298,-0.993662
13.59,334.315,-0.993361
13.5917,334.331,-0.993072
13.5933,334.348,-0.992723
13.595,334.365,-0.992494
13.5967,334.381,-0.992234
13.5983,334.398,-0.991965
13.6,334.415,-0.991818
13.6017,334.431,-0.991682
13.6033,334.448,-0.991535
13.605,334.465,-0.991341
13.6067,334.482,-0.991117
13.6083,334.499,-0.990894
13.61,334.516,-0.990588
13.6117,334.532,-0.990391
13.6133,334.548,-0.990291
13.615,334.565,-0.990222
13.6167,334.582,-0.990145
13.6183,334.599,-0.990099
13.62,334.616,-0.990051
13.6217,334.632,-0.989719
13.6233,334.649,-0.989678
13.625,334.666,-0.989632
13.6267,334.682,-0.989582
13.6283,334.699,-0.989485
13.63,334.716,-0.989383
13.6317,334.733,-0.98926
13.6333,334.749,-0.989123
13.635,334.766,-0.988942
13.6367,334.782,-0.988732
13.6383,334.799,-0.988565
13.64,334.816,-0.988449
13.6417,334.833,-0.988317
13.6433,334.849,-0.988216
13.645,334.866,-0.988147
13.6467,334.883,-0.988041
13.6483,334.899,-0.987919
13.65,334.916,-0.987794
13.6517,334.933,-0.987647
13.6533,334.949,-0.98753
13.655,334.966,-0.987459
13.6567,334.983,-0.98739
13.6583,334.999,-0.987319
13.66,335.016,-0.98725
13.6617,335.033,-0.987187
13.6633,335.049,-0.986942
13.665,335.066,-0.986731
13.6667,335.083,-0.986672
13.6683,335.1,-0.986607
13.67,335.116,-0.986442
13.6717,335.132,-0.986333
13.6733,335.149,-0.986182
13.675,335.166,-0.986122
13.6767,335.182,-0.986052
13.6783,335.199,-0.98598
13.68,335.216,-0.985908
13.6817,335.232,-0.985833
13.6833,335.249,-0.98573
13.685,335.266,-0.985565
13.6867,335.282,-0.98538
13.6883,335.299,-0.985218
13.69,335.316,-0.985087
13.6917,335.332,-0.984936
13.6933,335.349,-0.984812
13.695,335.365,-0.984725
13.6967,335.382,-0.984649
13.6983,335.399,-0.984576
13.7,335.416,-0.984434
13.7017,335.432,-0.984363
13.7033,335.449,-0.984293
13.705,335.465,-0.984223
13.7067,335.482,-0.984155
13.7083,335.499,-0.984086
13.71,335.516,-0.98401
13.7117,335.532,-0.983923
13.7133,335.549,-0.983839
13.715,335.566,-0.983755
13.7167,335.583,-0.983676
13.7183,335.599,-0.983592
13.72,335.616,-0.983515
13.7217,335.632,-0.983435
13.7233,335.649,-0.983363
13.725,335.666,-0.983285
13.7267,335.682,-0.983202
13.7283,335.699,-0.983126
13.73,335.716,-0.983042
13.7317,335.732,-0.98296
13.7333,335.749,-0.982877
13.735,335.766,-0.982795
13.7367,335.782,-0.982715
13.7383,335.799,-0.982633
13.74,335.816,-0.982549
13.7417,335.832,-0.98247
13.7433,335.849,-0.982391
13.745,335.866,-0.982311
13.7467,335.882,-0.982238
13.7483,335.899,-0.982164
13.75,335.916,-0.982096
13.7517,335.932,-0.982029
13.7533,335.949,-0.981967
13.755,335.966,-0.981914
13.7567,335.982,-0.981853
13.7583,335.999,-0.981796
13.76,336.015,-0.981738
13.7617,336.032,-0.981678
13.7633,336.049,-0.981607
13.765,336.066,-0.981534
13.7667,336.082,-0.981451
13.7683,336.099,-0.981362
13.77,336.115,-0.981265
13.7717,336.132,-0.981134
13.7733,336.148,-0.981039
13.775,336.165,-0.980947
13.7767,336.182,-0.980856
13.7783,336.199,-0.980765
13.78,336.216,-0.98068
13.7817,336.232,-0.980597
13.7833,336.249,-0.980518
13.785,336.266,-0.980447
13.7867,336.282,-0.980381
13.7883,336.299,-0.980314
13.79,336.316,-0.980251
13.7917,336.332,-0.980187
13.7933,336.349,-0.980134
13.795,336.366,-0.980074
13.7967,336.382,-0.980015
13.7983,336.399,-0.979952
13.8,336.415,-0.979889
13.8017,336.432,-0.979825
13.8033,336.449,-0.979764
13.805,336.466,-0.979708
13.8067,336.482,-0.979655
13.8083,336.499,-0.9796
13.81,336.515,-0.979543
13.8117,336.532,-0.979489
13.8133,336.549,-0.979437
13.815,336.565,-0.979375
13.8167,336.582,-0.979313
13.8183,336.599,-0.97925
13.82,336.615,-0.97919
13.8217,336.632,-0.979129
13.8233,336.648,-0.97908
13.825,336.665,-0.979032
13.8267,336.682,-0.978987
13.8283,336.699,-0.978956
13.83,336.715,-0.978923
13.8317,336.732,-0.978888
13.8333,336.749,-0.978842
13.835,336.765,-0.978792
13.8367,336.782,-0.978733
13.8383,336.799,-0.978662
13.84,336.815,-0.978592
13.8417,336.832,-0.978526
13.8433,336.848,-0.978453
13.845,336.865,-0.978385
13.8467,336.881,-0.978323
13.8483,336.898,-0.978269
13.85,336.915,-0.978224
13.8517,336.932,-0.978185
13.8533,336.948,-0.978138
13.855,336.965,-0.978091
13.8567,336.982,-0.978036
13.8583,336.998,-0.977974
13.86,337.015,-0.977903
13.8617,337.031,-0.97782
13.8633,337.048,-0.97774
13.865,337.064,-0.977668
13.8667,337.081,-0.977599
13.8683,337.098,-0.977528
13.87,337.115,-0.977466
13.8717,337.131,-0.977406
13.8733,337.148,-0.97736
13.875,337.164,-0.97732
13.8767,337.181,-0.977279
13.8783,337.198,-0.977232
13.88,337.214,-0.977187
13.8817,337.231,-0.977145
13.8833,337.248,-0.977102
13.885,337.265,-0.977058
13.8867,337.281,-0.977021
13.8883,337.298,-0.976993
13.89,337.315,-0.976968
13.8917,337.331,-0.97694
13.8933,337.348,-0.976913
13.895,337.365,-0.976875
13.8967,337.381,-0.976834
13.8983,337.398,-0.976785
13.9,337.414,-0.976726
13.9017,337.431,-0.976662
13.9033,337.448,-0.976602
13.905,337.465,-0.976549
13.9067,337.481,-0.976501
13.9083,337.498,-0.976463
13.91,337.515,-0.976426
13.9117,337.532,-0.976385
13.9133,337.548,-0.976339
13.915,337.565,-0.976295
13.9167,337.581,-0.976248
13.9183,337.598,-0.976199
13.92,337.614,-0.976151
13.9217,337.631,-0.976105
13.9233,337.648,-0.976064
13.925,337.664,-0.976024
13.9267,337.681,-0.975988
13.9283,337.698,-0.975964
13.93,337.714,-0.97595
13.9317,337.731,-0.975934
13.9333,337.748,-0.975921
13.935,337.764,-0.975905
13.9367,337.781,-0.975888
13.9383,337.798,-0.97586
13.94,337.815,-0.975834
13.9417,337.831,-0.97581
13.9433,337.848,-0.975773
13.945,337.865,-0.975731
13.9467,337.881,-0.975687
13.9483,337.898,-0.975635
13.95,337.915,-0.975579
13.9517,337.931,-0.975519
13.9533,337.948,-0.975459
13.955,337.964,-0.97541
13.9567,337.981,-0.975363
13.9583,337.998,-0.975315
13.96,338.014,-0.975276
13.9617,338.031,-0.975247
13.9633,338.048,-0.975214
13.965,338.065,-0.975186
13.9667,338.081,-0.975159
13.9683,338.098,-0.975125
13.97,338.114,-0.975094
13.9717,338.131,-0.97506
13.9733,338.148,-0.975028
13.975,338.165,-0.975
13.9767,338.181,-0.974975
13.9783,338.198,-0.974959
13.98,338.214,-0.974954
13.9817,338.231,-0.974935
13.9833,338.247,-0.974907
13.985,338.264,-0.974874
13.9867,338.281,-0.974837
13.9883,338.298,-0.974808
13.99,338.314,-0.974781
13.9917,338.331,-0.974752
13.9933,338.348,-0.974723
13.995,338.364,-0.974699
13.9967,338.381,-0.974675
13.9983,338.397,-0.974653
14,338.414,-0.97464
14.0017,338.431,-0.974627
14.0033,338.447,-0.974618
14.005,338.464,-0.974599
14.0067,338.48,-0.974579
14.0083,338.497,-0.97456
14.01,338.514,-0.974541
14.0117,338.53,-0.974515
14.0133,338.547,-0.974482
14.015,338.564,-0.974444
14.0167,338.581,-0.974408
14.0183,338.597,-0.974376
14.02,338.614,-0.97435
14.0217,338.631,-0.974326
14.0233,338.647,-0.974299
14.025,338.664,-0.974272
14.0267,338.68,-0.974242
14.0283,338.697,-0.974218
14.03,338.714,-0.974186
14.0317,338.73,-0.974149
14.0333,338.747,-0.97411
14.035,338.764,-0.974074
14.0367,338.78,-0.974042
14.0383,338.797,-0.974015
14.04,338.814,-0.973986
14.0417,338.83,-0.973962
14.0433,338.847,-0.973946
14.045,338.864,-0.973941
14.0467,338.88,-0.973947
14.0483,338.897,-0.973961
14.05,338.913,-0.973976
14.0517,338.93,-0.973982
14.0533,338.947,-0.973984
14.055,338.964,-0.973983
14.0567,338.98,-0.973978
14.0583,338.997,-0.973972
14.06,339.013,-0.973962
14.0617,339.03,-0.973956
14.0633,339.047,-0.973947
14.065,339.064,-0.973935
14.0667,339.08,-0.973924
14.0683,339.097,-0.973915
14.07,339.114,-0.973904
14.0717,339.13,-0.973891
14.0733,339.147,-0.97387
14.075,339.164,-0.973845
14.0767,339.181,-0.973817
14.0783,339.197,-0.973787
14.08,339.214,-0.973755
14.0817,339.23,-0.973717
14.0833,339.246,-0.973698
14.085,339.263,-0.973683
14.0867,339.28,-0.973688
14.0883,339.296,-0.973702
14.09,339.313,-0.973717
14.0917,339.33,-0.973737
14.0933,339.346,-0.973757
14.095,339.363,-0.973765
14.0967,339.38,-0.973767
14.0983,339.396,-0.973762
14.1,339.413,-0.973743
14.1017,339.43,-0.973718
14.1033,339.447,-0.973692
14.105,339.463,-0.973668
14.1067,339.48,-0.973638
14.1083,339.497,-0.973611
14.11,339.513,-0.973598
14.1117,339.53,-0.97358
14.1133,339.546,-0.973563
14.115,339.564,-0.973545
14.1167,339.58,-0.973535
14.1183,339.597,-0.973526
14.12,339.613,-0.973509
14.1217,339.63,-0.973494
14.1233,339.647,-0.973481
14.125,339.663,-0.973474
14.1267,339.68,-0.973475
14.1283,339.697,-0.973474
14.13,339.713,-0.973469
14.1317,339.73,-0.973469
14.1333,339.746,-0.973473
14.135,339.763,-0.973473
14.1367,339.78,-0.973477
14.1383,339.796,-0.973476
14.14,339.813,-0.973467
14.1417,339.829,-0.973451
14.1433,339.846,-0.973439
14.145,339.863,-0.973427
14.1467,339.879,-0.97341
14.1483,339.896,-0.973401
14.15,339.913,-0.97339
14.1517,339.93,-0.973387
14.1533,339.946,-0.973385
14.155,339.963,-0.973386
14.1567,339.979,-0.973384
14.1583,339.996,-0.973381
14.16,340.013,-0.973379
14.1617,340.029,-0.973382
14.1633,340.046,-0.973391
14.165,340.063,-0.973391
14.1667,340.079,-0.973396
14.1683,340.096,-0.973405
14.17,340.113,-0.973416
14.1717,340.13,-0.973423
14.1733,340.146,-0.973417
14.175,340.163,-0.973401
14.1767,340.179,-0.973383
14.1783,340.196,-0.973356
14.18,340.213,-0.973323
14.1817,340.229,-0.973284
14.1833,340.246,-0.973253
14.185,340.262,-0.973231
14.1867,340.279,-0.973224
14.1883,340.296,-0.973232
14.19,340.312,-0.973247
14.1917,340.329,-0.973268
14.1933,340.346,-0.973292
14.195,340.363,-0.973326
14.1967,340.379,-0.973353
14.1983,340.396,-0.973379
14.2,340.413,-0.973404
14.2017,340.429,-0.973429
14.2033,340.446,-0.973454
14.205,340.462,-0.973485
14.2067,340.479,-0.973513
14.2083,340.496,-0.973541
14.21,340.512,-0.97357
14.2117,340.529,-0.973603
14.2133,340.546,-0.973627
14.215,340.563,-0.973646
14.2167,340.579,-0.973655
14.2183,340.596,-0.973659
14.22,340.613,-0.973662
14.2217,340.63,-0.973663
14.2233,340.646,-0.97366
14.225,340.663,-0.973656
14.2267,340.679,-0.973645
14.2283,340.696,-0.973634
14.23,340.712,-0.973625
14.2317,340.729,-0.97362
14.2333,340.746,-0.973616
14.235,340.763,-0.973614
14.2367,340.779,-0.973612
14.2383,340.796,-0.973603
14.24,340.813,-0.973596
14.2417,340.829,-0.973593
14.2433,340.847,-0.973592
14.245,340.863,-0.973589
14.2467,340.88,-0.973586
14.2483,340.896,-0.973588
14.25,340.913,-0.973593
14.2517,340.929,-0.973603
14.2533,340.947,-0.973629
14.255,340.964,-0.973665
14.2567,340.98,-0.973704
14.2583,340.997,-0.97377
14.26,341.013,-0.973828
14.2617,341.03,-0.973864
14.2633,341.047,-0.973893
14.265,341.063,-0.973923
14.2667,341.08,-0.97394
14.2683,341.097,-0.973946
14.27,341.113,-0.973942
14.2717,341.13,-0.973934
14.2733,341.146,-0.973927
14.275,341.163,-0.973929
14.2767,341.179,-0.973939
14.2783,341.196,-0.973949
14.28,341.213,-0.973967
14.2817,341.23,-0.973987
14.2833,341.247,-0.974012
14.285,341.263,-0.974045
14.2867,341.28,-0.974075
14.2883,341.297,-0.974094
14.29,341.313,-0.974109
14.2917,341.33,-0.974121
14.2933,341.346,-0.974133
14.295,341.363,-0.974148
14.2967,341.379,-0.97416
14.2983,341.396,-0.974169
14.3,341.413,-0.974184
14.3017,341.43,-0.974205
14.3033,341.446,-0.974231
14.305,341.463,-0.974251
14.3067,341.479,-0.974266
14.3083,341.496,-0.974274
14.31,341.513,-0.974286
14.3117,341.53,-0.974305
14.3133,341.546,-0.974321
14.315,341.563,-0.974344
14.3167,341.579,-0.97437
14.3183,341.596,-0.974396
14.32,341.613,-0.974434
14.3217,341.629,-0.974476
14.3233,341.646,-0.974513
14.325,341.663,-0.974544
14.3267,341.679,-0.974565
14.3283,341.696,-0.974579
14.33,341.712,-0.974591
14.3317,341.729,-0.974595
14.3333,341.746,-0.9746
14.335,341.762,-0.974602
14.3367,341.779,-0.974595
14.3383,341.796,-0.974591
14.34,341.812,-0.974588
14.3417,341.829,-0.974594
14.3433,341.846,-0.974604
14.345,341.862,-0.974612
14.3467,341.879,-0.974619
14.3483,341.896,-0.974625
14.35,341.913,-0.974633
14.3517,341.929,-0.974639
14.3533,341.946,-0.974655
14.355,341.963,-0.974664
14.3567,341.979,-0.974673
14.3583,341.996,-0.974691
14.36,342.013,-0.974706
14.3617,342.029,-0.974728
14.3633,342.046,-0.974759
14.365,342.063,-0.974786
14.3667,342.079,-0.974817
14.3683,342.096,-0.974852
14.37,342.113,-0.974889
14.3717,342.129,-0.974923
14.3733,342.146,-0.974951
14.375,342.162,-0.974975
14.3767,342.179,-0.975001
14.3783,342.196,-0.975024
14.38,342.213,-0.975044
14.3817,342.229,-0.97507
14.3833,342.246,-0.975106
14.385,342.263,-0.975138
14.3867,342.28,-0.975166
14.3883,342.296,-0.975199
14.39,342.313,-0.97523
14.3917,342.329,-0.975255
14.3933,342.346,-0.975275
14.395,342.363,-0.975289
14.3967,342.379,-0.975305
14.3983,342.396,-0.975328
14.4,342.413,-0.975351
14.4017,342.43,-0.975383
14.4033,342.446,-0.975422
14.405,342.463,-0.97546
14.4067,342.479,-0.975501
14.4083,342.496,-0.975547
14.41,342.513,-0.975592
14.4117,342.529,-0.975619
14.4133,342.546,-0.975643
14.415,342.563,-0.975662
14.4167,342.58,-0.975674
14.4183,342.596,-0.975685
14.42,342.613,-0.975702
14.4217,342.629,-0.975723
14.4233,342.646,-0.975746
14.425,342.663,-0.975777
14.4267,342.68,-0.975817
14.4283,342.696,-0.975865
14.43,342.713,-0.975919
14.4317,342.73,-0.975977
14.4333,342.746,-0.976026
14.435,342.763,-0.976067
14.4367,342.779,-0.976102
14.4383,342.796,-0.976134
14.44,342.813,-0.976158
14.4417,342.829,-0.97617
14.4433,342.846,-0.976171
14.445,342.863,-0.976177
14.4467,342.88,-0.976179
14.4483,342.896,-0.976197
14.45,342.913,-0.976224
14.4517,342.93,-0.976254
14.4533,342.946,-0.976276
14.455,342.963,-0.976303
14.4567,342.98,-0.976342
14.4583,342.996,-0.976378
14.46,343.013,-0.976416
14.4617,343.03,-0.976443
14.4633,343.046,-0.976475
14.465,343.063,-0.976512
14.4667,343.08,-0.97655
14.4683,343.096,-0.976588
14.47,343.113,-0.976622
14.4717,343.13,-0.976653
14.4733,343.146,-0.976687
14.475,343.163,-0.976725
14.4767,343.18,-0.976762
14.4783,343.196,-0.976791
14.48,343.213,-0.976813
14.4817,343.23,-0.97684
14.4833,343.246,-0.976863
14.485,343.263,-0.976882
14.4867,343.28,-0.976898
14.4883,343.296,-0.976918
14.49,343.313,-0.97694
14.4917,343.33,-0.976965
14.4933,343.346,-0.977003
14.495,343.363,-0.977038
14.4967,343.38,-0.977069
14.4983,343.396,-0.977108
14.5,343.413,-0.977151
14.5017,343.43,-0.977194
14.5033,343.446,-0.977235
14.505,343.463,-0.977281
14.5067,343.48,-0.977327
14.5083,343.496,-0.977374
14.51,343.513,-0.977414
14.5117,343.53,-0.977456
14.5133,343.546,-0.977488
14.515,343.563,-0.977519
14.5167,343.58,-0.977544
14.5183,343.597,-0.977567
14.52,343.613,-0.977588
14.5217,343.629,-0.977615
14.5233,343.646,-0.977647
14.525,343.663,-0.977679
14.5267,343.68,-0.977707
14.5283,343.697,-0.977724
14.53,343.713,-0.977738
14.5317,343.73,-0.977759
14.5333,343.746,-0.977781
14.535,343.763,-0.977804
14.5367,343.779,-0.977826
14.5383,343.796,-0.977846
14.54,343.813,-0.977879
14.5417,343.829,-0.977915
14.5433,343.846,-0.977949
14.545,343.862,-0.977987
14.5467,343.879,-0.978017
14.5483,343.896,-0.978053
14.55,343.913,-0.978088
14.5517,343.93,-0.978121
14.5533,343.946,-0.978153
14.555,343.963,-0.978179
14.5567,343.98,-0.9782
14.5583,343.996,-0.978221
14.56,344.013,-0.978248
14.5617,344.03,-0.978267
14.5633,344.046,-0.978285
14.565,344.063,-0.9783
14.5667,344.08,-0.978329
14.5683,344.096,-0.978364
14.57,344.113,-0.978402
14.5717,344.13,-0.978442
14.5733,344.146,-0.978484
14.575,344.163,-0.978528
14.5767,344.18,-0.978572
14.5783,344.197,-0.978609
14.58,344.213,-0.978641
14.5817,344.23,-0.978669
14.5833,344.246,-0.978697
14.585,344.263,-0.978721
14.5867,344.28,-0.97875
14.5883,344.296,-0.978778
14.59,344.313,-0.978809
14.5917,344.33,-0.978846
14.5933,344.346,-0.978893
14.595,344.363,-0.978931
14.5967,344.38,-0.978971
14.5983,344.396,-0.979005
14.6,344.413,-0.979042
14.6017,344.43,-0.979082
14.6033,344.447,-0.979122
14.605,344.463,-0.979156
14.6067,344.48,-0.979189
14.6083,344.497,-0.979212
14.61,344.513,-0.979226
14.6117,344.53,-0.979244
14.6133,344.546,-0.97927
14.615,344.563,-0.979298
14.6167,344.579,-0.979329
14.6183,344.596,-0.979366
14.62,344.613,-0.979414
14.6217,344.63,-0.979464
14.6233,344.646,-0.979521
14.625,344.663,-0.979586
14.6267,344.68,-0.979641
14.6283,344.697,-0.97969
14.63,344.713,-0.979731
14.6317,344.73,-0.979762
14.6333,344.746,-0.979784
14.635,344.763,-0.979805
14.6367,344.78,-0.979824
14.6383,344.796,-0.97984
14.64,344.813,-0.979858
14.6417,344.83,-0.979872
14.6433,344.846,-0.97989
14.645,344.863,-0.979911
14.6467,344.879,-0.97994
14.6483,344.896,-0.979972
14.65,344.913,-0.980013
14.6517,344.929,-0.980051
14.6533,344.946,-0.980089
14.655,344.963,-0.980131
14.6567,344.979,-0.980182
14.6583,344.996,-0.980238
14.66,345.012,-0.980294
14.6617,345.029,-0.980347
14.6633,345.046,-0.980402
14.665,345.063,-0.980454
14.6667,345.079,-0.980504
14.6683,345.096,-0.980552
14.67,345.112,-0.980601
14.6717,345.129,-0.980645
14.6733,345.146,-0.980683
14.675,345.162,-0.980727
14.6767,345.179,-0.98077
14.6783,345.196,-0.980817
14.68,345.212,-0.980855
14.6817,345.229,-0.980895
14.6833,345.246,-0.980922
14.685,345.262,-0.980941
14.6867,345.279,-0.980958
14.6883,345.295,-0.980971
14.69,345.312,-0.980989
14.6917,345.329,-0.981008
14.6933,345.346,-0.981032
14.695,345.362,-0.981056
14.6967,345.379,-0.981072
14.6983,345.396,-0.981083
14.7,345.412,-0.981099
14.7017,345.429,-0.981118
14.7033,345.446,-0.981154
14.705,345.462,-0.981188
14.7067,345.479,-0.98121
14.7083,345.495,-0.981236
14.71,345.512,-0.981274
14.7117,345.529,-0.981316
14.7133,345.546,-0.981352
14.715,345.562,-0.981383
14.7167,345.579,-0.981411
14.7183,345.596,-0.981439
14.72,345.612,-0.981471
14.7217,345.629,-0.981501
14.7233,345.646,-0.98153
14.725,345.663,-0.981559
14.7267,345.679,-0.981586
14.7283,345.695,-0.981631
14.73,345.712,-0.98167
14.7317,345.729,-0.981709
14.7333,345.745,-0.981746
14.735,345.762,-0.981787
14.7367,345.779,-0.98182
14.7383,345.795,-0.981849
14.74,345.812,-0.981873
14.7417,345.829,-0.981892
14.7433,345.845,-0.981918
14.745,345.862,-0.981947
14.7467,345.879,-0.98198
14.7483,345.895,-0.98201
14.75,345.912,-0.982045
14.7517,345.929,-0.982086
14.7533,345.945,-0.982128
14.755,345.962,-0.982168
14.7567,345.978,-0.982195
14.7583,345.995,-0.982218
14.76,346.011,-0.982256
14.7617,346.028,-0.982307
14.7633,346.045,-0.982354
14.765,346.062,-0.982397
14.7667,346.079,-0.982437
14.7683,346.095,-0.982473
14.77,346.112,-0.982518
14.7717,346.129,-0.982554
14.7733,346.145,-0.982582
14.775,346.162,-0.982605
14.7767,346.178,-0.982624
14.7783,346.195,-0.982642
14.78,346.212,-0.982667
14.7817,346.228,-0.982694
14.7833,346.245,-0.982725
14.785,346.261,-0.982771
14.7867,346.278,-0.982809
14.7883,346.295,-0.982852
14.79,346.311,-0.982907
14.7917,346.328,-0.982948
14.7933,346.345,-0.98299
14.795,346.362,-0.983025
14.7967,346.378,-0.983057
14.7983,346.395,-0.983086
14.8,346.412,-0.983113
14.8017,346.428,-0.983144
14.8033,346.445,-0.983184
14.805,346.461,-0.983231
14.8067,346.478,-0.983283
14.8083,346.495,-0.983334
14.81,346.511,-0.983388
14.8117,346.528,-0.983423
14.8133,346.545,-0.983452
14.815,346.561,-0.983474
14.8167,346.578,-0.983497
14.8183,346.595,-0.983517
14.82,346.611,-0.983534
14.8217,346.628,-0.983559
14.8233,346.645,-0.983583
14.825,346.661,-0.983627
14.8267,346.678,-0.983676
14.8283,346.694,-0.983733
14.83,346.711,-0.983788
14.8317,346.728,-0.983839
14.8333,346.745,-0.983894
14.835,346.761,-0.983945
14.8367,346.778,-0.983983
14.8383,346.795,-0.984013
14.84,346.811,-0.98404
14.8417,346.828,-0.984066
14.8433,346.845,-0.984086
14.845,346.862,-0.984096
14.8467,346.878,-0.984101
14.8483,346.895,-0.984113
14.85,346.912,-0.984132
14.8517,346.928,-0.984152
14.8533,346.945,-0.98418
14.855,346.961,-0.984211
14.8567,346.978,-0.98424
14.8583,346.995,-0.984277
14.86,347.011,-0.984318
14.8617,347.028,-0.984368
14.8633,347.044,-0.984409
14.865,347.061,-0.984451
14.8667,347.078,-0.984503
14.8683,347.095,-0.984559
14.87,347.111,-0.984615
14.8717,347.128,-0.984665
14.8733,347.145,-0.984713
14.875,347.161,-0.984756
14.8767,347.178,-0.984794
14.8783,347.195,-0.984826
14.88,347.211,-0.984854
14.8817,347.228,-0.984875
14.8833,347.245,-0.984897
14.885,347.261,-0.984926
14.8867,347.278,-0.984961
14.8883,347.295,-0.985004
14.89,347.311,-0.98504
14.8917,347.328,-0.985079
14.8933,347.345,-0.985125
14.895,347.361,-0.98517
14.8967,347.378,-0.985216
14.8983,347.394,-0.985254
14.9,347.411,-0.985284
14.9017,347.427,-0.985311
14.9033,347.444,-0.985337
14.905,347.461,-0.985368
14.9067,347.478,-0.985406
14.9083,347.494,-0.985436
14.91,347.511,-0.985462
14.9117,347.528,-0.985492
14.9133,347.545,-0.985521
14.915,347.561,-0.985551
14.9167,347.578,-0.985577
14.9183,347.594,-0.985606
14.92,347.611,-0.985639
14.9217,347.628,-0.985672
14.9233,347.645,-0.985704
14.925,347.661,-0.985732
14.9267,347.678,-0.985757
14.9283,347.694,-0.985786
14.93,347.711,-0.985821
14.9317,347.728,-0.985851
14.9333,347.745,-0.98588
14.935,347.761,-0.985916
14.9367,347.778,-0.985961
14.9383,347.794,-0.986003
14.94,347.811,-0.986043
14.9417,347.827,-0.986076
14.9433,347.844,-0.986116
14.945,347.861,-0.986156
14.9467,347.877,-0.986191
14.9483,347.894,-0.986222
14.95,347.911,-0.986253
14.9517,347.928,-0.986288
14.9533,347.944,-0.986316
14.955,347.961,-0.986354
14.9567,347.978,-0.986388
14.9583,347.994,-0.986424
14.96,348.011,-0.986468
14.9617,348.027,-0.986527
14.9633,348.044,-0.986598
14.965,348.061,-0.986667
14.9667,348.077,-0.986741
14.9683,348.094,-0.986814
14.97,348.11,-0.98688
14.9717,348.127,-0.986943
14.9733,348.144,-0.986993
14.975,348.161,-0.987028
14.9767,348.177,-0.987053
14.9783,348.194,-0.98707
14.98,348.211,-0.987083
14.9817,348.227,-0.987092
14.9833,348.244,-0.9871
14.985,348.261,-0.987106
14.9867,348.278,-0.987115
14.9883,348.294,-0.987127
14.99,348.311,-0.987143
14.9917,348.327,-0.987166
14.9933,348.344,-0.987201
14.995,348.361,-0.987247
14.9967,348.377,-0.987297
14.9983,348.394,-0.987351
15,348.41,-0.987408
15.0017,348.427,-0.987467
15.0033,348.443,-0.987523
15.005,348.46,-0.98757
15.0067,348.477,-0.987606
15.0083,348.493,-0.987645
15.01,348.51,-0.987677
15.0117,348.527,-0.987702
15.0133,348.543,-0.987725
15.015,348.56,-0.987755
15.0167,348.576,-0.987787
15.0183,348.593,-0.987826
15.02,348.61,-0.987861
15.0217,348.627,-0.987904
15.0233,348.643,-0.987946
15.025,348.66,-0.987987
15.0267,348.677,-0.988019
15.0283,348.693,-0.988057
15.03,348.71,-0.9881
15.0317,348.726,-0.988137
15.0333,348.743,-0.988177
15.035,348.76,-0.98822
15.0367,348.776,-0.988255
15.0383,348.793,-0.988286
15.04,348.81,-0.988324
15.0417,348.827,-0.988359
15.0433,348.843,-0.988394
15.045,348.86,-0.988423
15.0467,348.877,-0.988451
15.0483,348.893,-0.988482
15.05,348.909,-0.988513
15.0517,348.926,-0.988549
15.0533,348.943,-0.98858
15.055,348.96,-0.988608
15.0567,348.977,-0.988632
15.0583,348.994,-0.988663
15.06,349.01,-0.988704
15.0617,349.027,-0.988745
15.0633,349.043,-0.988781
15.065,349.06,-0.988822
15.0667,349.076,-0.988857
15.0683,349.093,-0.988886
15.07,349.11,-0.988922
15.0717,349.127,-0.988965
15.0733,349.143,-0.989006
15.075,349.16,-0.989045
15.0767,349.176,-0.989088
15.0783,349.193,-0.989127
15.08,349.21,-0.98917
15.0817,349.226,-0.989219
15.0833,349.243,-0.989262
15.085,349.26,-0.9893
15.0867,349.276,-0.989329
15.0883,349.293,-0.989364
15.09,349.31,-0.989404
15.0917,349.326,-0.98944
15.0933,349.343,-0.989484
15.095,349.359,-0.989534
15.0967,349.376,-0.989587
15.0983,349.393,-0.989644
15.1,349.409,-0.9897
15.1017,349.426,-0.989752
15.1033,349.442,-0.989807
15.105,349.459,-0.989862
15.1067,349.476,-0.989912
15.1083,349.493,-0.989959
15.11,349.509,-0.990002
15.1117,349.526,-0.990045
15.1133,349.543,-0.990093
15.115,349.56,-0.990146
15.1167,349.576,-0.990199
15.1183,349.593,-0.990258
15.12,349.609,-0.990309
15.1217,349.626,-0.990358
15.1233,349.643,-0.990409
15.125,349.659,-0.990453
15.1267,349.676,-0.990493
15.1283,349.693,-0.990526
15.13,349.709,-0.990561
15.1317,349.726,-0.990585
15.1333,349.743,-0.990605
15.135,349.759,-0.990625
15.1367,349.776,-0.990648
15.1383,349.793,-0.990674
15.14,349.809,-0.990697
15.1417,349.826,-0.990723
15.1433,349.843,-0.990755
15.145,349.86,-0.990786
15.1467,349.876,-0.990812
15.1483,349.892,-0.990842
15.15,349.909,-0.990876
15.1517,349.926,-0.990904
15.1533,349.943,-0.990931
15.155,349.96,-0.990961
15.1567,349.976,-0.990984
15.1583,349.993,-0.99101
15.16,350.009,-0.991036
15.1617,350.026,-0.991066
15.1633,350.042,-0.991098
15.165,350.059,-0.991138
15.1667,350.075,-0.991171
15.1683,350.092,-0.991203
15.17,350.109,-0.991226
15.1717,350.125,-0.991256
15.1733,350.142,-0.991289
15.175,350.159,-0.991316
15.1767,350.175,-0.991345
15.1783,350.192,-0.991376
15.18,350.208,-0.991407
15.1817,350.225,-0.991444
15.1833,350.242,-0.991485
15.185,350.259,-0.991524
15.1867,350.275,-0.99156
15.1883,350.292,-0.991598
15.19,350.308,-0.991636
15.1917,350.325,-0.991684
15.1933,350.342,-0.991727
15.195,350.359,-0.991755
15.1967,350.375,-0.991779
15.1983,350.391,-0.991801
15.2,350.408,-0.99183
15.2017,350.425,-0.991857
15.2033,350.441,-0.991878
15.205,350.458,-0.991906
15.2067,350.474,-0.99195
15.2083,350.491,-0.992002
15.21,350.508,-0.992061
15.2117,350.525,-0.992123
15.2133,350.541,-0.992186
15.215,350.558,-0.99224
15.2167,350.574,-0.992296
15.2183,350.591,-0.992349
15.22,350.608,-0.992394
15.2217,350.624,-0.992431
15.2233,350.641,-0.992474
15.225,350.658,-0.992522
15.2267,350.675,-0.992577
15.2283,350.691,-0.992636
15.23,350.708,-0.992699
15.2317,350.724,-0.992754
15.2333,350.741,-0.992804
15.235,350.757,-0.992845
15.2367,350.774,-0.992882
15.2383,350.791,-0.992911
15.24,350.808,-0.992929
15.2417,350.824,-0.992946
15.2433,350.841,-0.99296
15.245,350.857,-0.992989
15.2467,350.874,-0.993023
15.2483,350.891,-0.993058
15.25,350.907,-0.993099
15.2517,350.924,-0.993137
15.2533,350.94,-0.993172
15.255,350.957,-0.993212
15.2567,350.974,-0.993254
15.2583,350.991,-0.993296
15.26,351.008,-0.993327
15.2617,351.024,-0.993357
15.2633,351.041,-0.993391
15.265,351.057,-0.993423
15.2667,351.074,-0.993455
15.2683,351.09,-0.993485
15.27,351.107,-0.99351
15.2717,351.124,-0.993529
15.2733,351.141,-0.993557
15.275,351.157,-0.993591
15.2767,351.174,-0.99363
15.2783,351.191,-0.993678
15.28,351.207,-0.993727
15.2817,351.224,-0.993783
15.2833,351.24,-0.993837
15.285,351.257,-0.993886
15.2867,351.274,-0.993933
15.2883,351.29,-0.993973
15.29,351.307,-0.994004
15.2917,351.324,-0.994034
15.2933,351.34,-0.994045
15.295,351.357,-0.994059
15.2967,351.374,-0.994076
15.2983,351.39,-0.994102
15.3,351.407,-0.994129
15.3017,351.423,-0.994164
15.3033,351.44,-0.994204
15.305,351.456,-0.994249
15.3067,351.473,-0.994297
15.3083,351.49,-0.994358
15.31,351.507,-0.994414
15.3117,351.523,-0.994462
15.3133,351.54,-0.994508
15.315,351.557,-0.994557
15.3167,351.573,-0.994598
15.3183,351.59,-0.994626
15.32,351.607,-0.994649
15.3217,351.623,-0.994675
15.3233,351.64,-0.994695
15.325,351.656,-0.994717
15.3267,351.673,-0.99473
15.3283,351.689,-0.994742
15.33,351.706,-0.994756
15.3317,351.723,-0.994776
15.3333,351.74,-0.994801
15.335,351.757,-0.994824
15.3367,351.774,-0.994853
15.3383,351.79,-0.994889
15.34,351.807,-0.994931
15.3417,351.824,-0.99498
15.3433,351.84,-0.995037
15.345,351.856,-0.995098
15.3467,351.873,-0.995229
15.3483,351.89,-0.995336
15.35,351.906,-0.995434
15.3517,351.923,-0.995505
15.3533,351.94,-0.995561
15.355,351.956,-0.995604
15.3567,351.973,-0.995648
15.3583,351.989,-0.995682
15.36,352.006,-0.995713
15.3617,352.023,-0.99574
15.3633,352.04,-0.995755
15.365,352.056,-0.995773
15.3667,352.073,-0.995794
15.3683,352.089,-0.99582
15.37,352.106,-0.99585
15.3717,352.123,-0.995884
15.3733,352.139,-0.995915
15.375,352.156,-0.995945
15.3767,352.173,-0.995985
15.3783,352.189,-0.996033
15.38,352.206,-0.996083
15.3817,352.223,-0.996138
15.3833,352.239,-0.996195
15.385,352.256,-0.996252
15.3867,352.273,-0.996303
15.3883,352.289,-0.996352
15.39,352.306,-0.996394
15.3917,352.323,-0.996426
15.3933,352.339,-0.996455
15.395,352.356,-0.996477
15.3967,352.372,-0.996498
15.3983,352.389,-0.996519
15.4,352.406,-0.996543
15.4017,352.423,-0.996567
15.4033,352.439,-0.996592
15.405,352.456,-0.996628
15.4067,352.473,-0.996673
15.4083,352.489,-0.996719
15.41,352.506,-0.996764
15.4117,352.523,-0.996812
15.4133,352.539,-0.996868
15.415,352.556,-0.996916
15.4167,352.572,-0.996966
15.4183,352.589,-0.997006
15.42,352.606,-0.997047
15.4217,352.622,-0.997079
15.4233,352.639,-0.997115
15.425,352.656,-0.997152
15.4267,352.673,-0.997182
15.4283,352.689,-0.997208
15.43,352.706,-0.997233
15.4317,352.723,-0.997256
15.4333,352.74,-0.997285
15.435,352.756,-0.997316
15.4367,352.772,-0.997351
15.4383,352.789,-0.997394
15.44,352.805,-0.997434
15.4417,352.822,-0.997483
15.4433,352.839,-0.997538
15.445,352.855,-0.997592
15.4467,352.872,-0.997646
15.4483,352.889,-0.997696
15.45,352.905,-0.997745
15.4517,352.922,-0.997788
15.4533,352.938,-0.997838
15.455,352.955,-0.997897
15.4567,352.972,-0.997959
15.4583,352.989,-0.998018
15.46,353.005,-0.998079
15.4617,353.022,-0.998139
15.4633,353.039,-0.998187
15.465,353.055,-0.998241
15.4667,353.072,-0.998285
15.4683,353.089,-0.998323
15.47,353.105,-0.998361
15.4717,353.122,-0.998391
15.4733,353.139,-0.998419
15.475,353.155,-0.998454
15.4767,353.172,-0.998493
15.4783,353.189,-0.998529
15.48,353.205,-0.998562
15.4817,353.222,-0.998595
15.4833,353.238,-0.998624
15.485,353.255,-0.998657
15.4867,353.272,-0.998686
15.4883,353.288,-0.99871
15.49,353.305,-0.998731
15.4917,353.322,-0.998753
15.4933,353.338,-0.998772
15.495,353.355,-0.998789
15.4967,353.372,-0.998814
15.4983,353.388,-0.998838
15.5,353.405,-0.998861
15.5017,353.422,-0.998891
15.5033,353.439,-0.998928
15.505,353.455,-0.998965
15.5067,353.472,-0.999009
15.5083,353.488,-0.999065
15.51,353.505,-0.999116
15.5117,353.522,-0.99916
15.5133,353.538,-0.999204
15.515,353.555,-0.999253
15.5167,353.572,-0.999308
15.5183,353.588,-0.999358
15.52,353.605,-0.999409
15.5217,353.622,-0.999456
15.5233,353.639,-0.999507
15.525,353.656,-0.999554
15.5267,353.672,-0.999592
15.5283,353.689,-0.999617
15.53,353.705,-0.999647
15.5317,353.721,-0.999681
15.5333,353.738,-0.999714
15.535,353.755,-0.999756
15.5367,353.772,-0.999803
15.5383,353.788,-0.999857
15.54,353.805,-0.999917
15.5417,353.822,-0.999974
15.5433,353.838,-1.00003
15.545,353.855,-1.00007
15.5467,353.872,-1.00011
15.5483,353.888,-1.00014
15.55,353.905,-1.00017
15.5517,353.922,-1.0002
15.5533,353.939,-1.00022
15.555,353.955,-1.00025
15.5567,353.972,-1.00027
15.5583,353.988,-1.00031
15.56,354.005,-1.00036
15.5617,354.022,-1.00041
15.5633,354.038,-1.00047
15.565,354.055,-1.00054
15.5667,354.071,-1.0006
15.5683,354.088,-1.00066
15.57,354.105,-1.00073
15.5717,354.122,-1.00079
15.5733,354.138,-1.00085
15.575,354.155,-1.00091
15.5767,354.172,-1.00096
15.5783,354.188,-1.00102
15.58,354.205,-1.00107
15.5817,354.222,-1.00112
15.5833,354.239,-1.00117
15.585,354.255,-1.00121
15.5867,354.272,-1.00125
15.5883,354.289,-1.00128
15.59,354.305,-1.00131
15.5917,354.322,-1.00133
15.5933,354.338,-1.00134
15.595,354.355,-1.00135
15.5967,354.371,-1.00137
15.5983,354.388,-1.00138
15.6,354.405,-1.0014
15.6017,354.421,-1.00143
15.6033,354.438,-1.00147
15.605,354.455,-1.00151
15.6067,354.472,-1.00156
15.6083,354.488,-1.00162
15.61,354.505,-1.00169
15.6117,354.521,-1.00174
15.6133,354.538,-1.00179
15.615,354.555,-1.00184
15.6167,354.571,-1.00189
15.6183,354.588,-1.00195
15.62,354.605,-1.002
15.6217,354.621,-1.00204
15.6233,354.638,-1.00207
15.625,354.655,-1.00211
15.6267,354.671,-1.00214
15.6283,354.688,-1.00216
15.63,354.705,-1.00218
15.6317,354.721,-1.00219
15.6333,354.738,-1.0022
15.635,354.755,-1.00219
15.6367,354.771,-1.0022
15.6383,354.788,-1.00221
15.64,354.805,-1.00222
15.6417,354.821,-1.00224
15.6433,354.838,-1.00228
15.645,354.855,-1.00232
15.6467,354.871,-1.00238
15.6483,354.888,-1.00242
15.65,354.905,-1.00247
15.6517,354.921,-1.0025
15.6533,354.938,-1.00254
15.655,354.954,-1.00257
15.6567,354.971,-1.0026
15.6583,354.987,-1.00264
15.66,355.004,-1.00267
15.6617,355.021,-1.00271
15.6633,355.038,-1.00275
15.665,355.054,-1.00279
15.6667,355.071,-1.00284
15.6683,355.088,-1.00287
15.67,355.104,-1.0029
15.6717,355.121,-1.00293
15.6733,355.138,-1.00296
15.675,355.155,-1.003
15.6767,355.171,-1.00305
15.6783,355.188,-1.0031
15.68,355.205,-1.00316
15.6817,355.221,-1.00322
15.6833,355.238,-1.00329
15.685,355.254,-1.00335
15.6867,355.271,-1.0034
15.6883,355.288,-1.00345
15.69,355.304,-1.00349
15.6917,355.321,-1.00352
15.6933,355.338,-1.00354
15.695,355.354,-1.00358
15.6967,355.371,-1.00362
15.6983,355.387,-1.00366
15.7,355.404,-1.00369
15.7017,355.421,-1.00373
15.7033,355.438,-1.00376
15.705,355.454,-1.00379
15.7067,355.471,-1.00382
15.7083,355.487,-1.00385
15.71,355.504,-1.00388
15.7117,355.521,-1.00392
15.7133,355.538,-1.00397
15.715,355.554,-1.00403
15.7167,355.571,-1.00412
15.7183,355.588,-1.00418
15.72,355.605,-1.00422
15.7217,355.621,-1.00427
15.7233,355.638,-1.0043
15.725,355.654,-1.00433
15.7267,355.671,-1.00435
15.7283,355.688,-1.00436
15.73,355.704,-1.00437
15.7317,355.721,-1.00438
15.7333,355.738,-1.00439
15.735,355.754,-1.00442
15.7367,355.771,-1.00444
15.7383,355.787,-1.00446
15.74,355.804,-1.00448
15.7417,355.821,-1.0045
15.7433,355.837,-1.00452
15.745,355.854,-1.00455
15.7467,355.871,-1.00458
15.7483,355.887,-1.00461
15.75,355.904,-1.00465
15.7517,355.921,-1.00469
15.7533,355.938,-1.00473
15.755,355.954,-1.00476
15.7567,355.971,-1.00481
15.7583,355.987,-1.00484
15.76,356.004,-1.00488
15.7617,356.021,-1.00492
15.7633,356.038,-1.00495
15.765,356.054,-1.00499
15.7667,356.07,-1.00502
15.7683,356.087,-1.00506
15.77,356.105,-1.00508
15.7717,356.121,-1.0051
15.7733,356.138,-1.00512
15.775,356.154,-1.00515
15.7767,356.171,-1.00518
15.7783,356.188,-1.0052
15.78,356.204,-1.00524
15.7817,356.221,-1.00528
15.7833,356.238,-1.00532
15.785,356.254,-1.00536
15.7867,356.271,-1.0054
15.7883,356.288,-1.00544
15.79,356.304,-1.00547
15.7917,356.321,-1.00549
15.7933,356.337,-1.00552
15.795,356.354,-1.00553
15.7967,356.371,-1.00556
15.7983,356.387,-1.00561
15.8,356.404,-1.00566
15.8017,356.421,-1.0057
15.8033,356.437,-1.00575
15.805,356.454,-1.00579
15.8067,356.471,-1.00583
15.8083,356.487,-1.00587
15.81,356.504,-1.00591
15.8117,356.521,-1.00596
15.8133,356.537,-1.00602
15.815,356.554,-1.0061
15.8167,356.57,-1.00617
15.8183,356.587,-1.00631
15.82,356.604,-1.00642
15.8217,356.62,-1.0065
15.8233,356.637,-1.00657
15.825,356.654,-1.00662
15.8267,356.67,-1.00666
15.8283,356.686,-1.00668
15.83,356.703,-1.00668
15.8317,356.72,-1.00669
15.8333,356.737,-1.00669
15.835,356.754,-1.00668
15.8367,356.771,-1.00668
15.8383,356.787,-1.0067
15.84,356.804,-1.00672
15.8417,356.82,-1.00674
15.8433,356.837,-1.00676
15.845,356.853,-1.00679
15.8467,356.87,-1.00681
15.8483,356.887,-1.00683
15.85,356.903,-1.00687
15.8517,356.92,-1.0069
15.8533,356.936,-1.00694
15.855,356.953,-1.00697
15.8567,356.97,-1.00701
15.8583,356.987,-1.00706
15.86,357.004,-1.0071
15.8617,357.02,-1.00714
15.8633,357.037,-1.00717
15.865,357.053,-1.0072
15.8667,357.07,-1.00722
15.8683,357.086,-1.00724
15.87,357.103,-1.00725
15.8717,357.119,-1.00727
15.8733,357.136,-1.00729
15.875,357.153,-1.00731
15.8767,357.169,-1.00735
15.8783,357.186,-1.00738
15.88,357.203,-1.00742
15.8817,357.219,-1.00747
15.8833,357.236,-1.00752
15.885,357.253,-1.00756
15.8867,357.27,-1.0076
15.8883,357.286,-1.00764
15.89,357.303,-1.00768
15.8917,357.319,-1.00771
15.8933,357.336,-1.00775
15.895,357.353,-1.00778
15.8967,357.369,-1.00781
15.8983,357.386,-1.00783
15.9,357.403,-1.00785
15.9017,357.419,-1.00787
15.9033,357.436,-1.0079
15.905,357.452,-1.00792
15.9067,357.469,-1.00794
15.9083,357.486,-1.00798
15.91,357.503,-1.00802
15.9117,357.519,-1.00806
15.9133,357.536,-1.00812
15.915,357.553,-1.00817
15.9167,357.569,-1.00823
15.9183,357.586,-1.00828
15.92,357.603,-1.00833
15.9217,357.619,-1.00838
15.9233,357.636,-1.00841
15.925,357.653,-1.00843
15.9267,357.669,-1.00844
15.9283,357.685,-1.00844
15.93,357.702,-1.00845
15.9317,357.719,-1.00846
15.9333,357.735,-1.00847
15.935,357.752,-1.0085
15.9367,357.769,-1.00852
15.9383,357.785,-1.00856
15.94,357.802,-1.0086
15.9417,357.819,-1.00865
15.9433,357.836,-1.00871
15.945,357.853,-1.00876
15.9467,357.869,-1.0088
15.9483,357.886,-1.00884
15.95,357.902,-1.00888
15.9517,357.919,-1.00891
15.9533,357.935,-1.00894
15.955,357.952,-1.00896
15.9567,357.968,-1.009
15.9583,357.985,-1.00903
15.96,358.002,-1.00907
15.9617,358.018,-1.00911
15.9633,358.036,-1.00915
15.965,358.052,-1.00918
15.9667,358.068,-1.00922
15.9683,358.085,-1.00926
15.97,358.102,-1.00928
15.9717,358.118,-1.0093
15.9733,358.135,-1.00931
15.975,358.152,-1.00932
15.9767,358.168,-1.00933
15.9783,358.185,-1.00935
15.98,358.202,-1.00937
15.9817,358.219,-1.0094
15.9833,358.235,-1.00941
15.985,358.252,-1.00944
15.9867,358.268,-1.00949
15.9883,358.285,-1.00953
15.99,358.301,-1.00957
15.9917,358.318,-1.00961
15.9933,358.335,-1.00965
15.995,358.351,-1.00967
15.9967,358.368,-1.0097
15.9983,358.385,-1.00974
16,358.402,-1.00976
16.0017,358.418,-1.00978
16.0033,358.435,-1.00981
16.005,358.451,-1.00985
16.0067,358.468,-1.00988
16.0083,358.484,-1.00992
16.01,358.501,-1.00996
16.0117,358.518,-1.01001
16.0133,358.534,-1.01006
16.015,358.551,-1.0101
16.0167,358.568,-1.01014
16.0183,358.584,-1.01017
16.02,358.601,-1.01021
16.0217,358.618,-1.01024
16.0233,358.635,-1.01028
16.025,358.651,-1.0103
16.0267,358.668,-1.01031
16.0283,358.685,-1.01032
16.03,358.701,-1.01033
16.0317,358.718,-1.01035
16.0333,358.734,-1.01037
16.035,358.751,-1.01038
16.0367,358.767,-1.0104
16.0383,358.784,-1.01042
16.04,358.8,-1.01046
16.0417,358.817,-1.01051
16.0433,358.834,-1.01057
16.045,358.85,-1.01063
16.0467,358.867,-1.01068
16.0483,358.884,-1.01072
16.05,358.9,-1.01077
16.0517,358.917,-1.0108
16.0533,358.934,-1.01083
16.055,358.95,-1.01086
16.0567,358.967,-1.01089
16.0583,358.983,-1.01091
16.06,359,-1.01095
16.0617,359.017,-1.01099
16.0633,359.034,-1.01103
16.065,359.05,-1.01108
16.0667,359.067,-1.01113
16.0683,359.084,-1.01119
16.07,359.101,-1.01124
16.0717,359.117,-1.01129
16.0733,359.134,-1.01133
16.075,359.151,-1.01136
16.0767,359.167,-1.01137
16.0783,359.184,-1.01138
16.08,359.2,-1.01139
16.0817,359.217,-1.0114
16.0833,359.234,-1.01142
16.085,359.25,-1.01143
16.0867,359.267,-1.01145
16.0883,359.284,-1.01147
16.09,359.3,-1.0115
16.0917,359.317,-1.01153
16.0933,359.333,-1.01156
16.095,359.35,-1.01158
16.0967,359.367,-1.0116
16.0983,359.383,-1.01163
16.1,359.4,-1.01165
16.1017,359.417,-1.01168
16.1033,359.434,-1.0117
16.105,359.45,-1.01172
16.1067,359.467,-1.01174
16.1083,359.484,-1.01178
16.11,359.5,-1.01181
16.1117,359.517,-1.01185
16.1133,359.533,-1.0119
16.115,359.55,-1.01195
16.1167,359.567,-1.01199
16.1183,359.584,-1.01205
16.12,359.6,-1.01209
16.1217,359.617,-1.01214
16.1233,359.633,-1.01218
16.125,359.65,-1.01222
16.1267,359.667,-1.01226
16.1283,359.683,-1.01229
16.13,359.7,-1.01231
16.1317,359.717,-1.01234
16.1333,359.733,-1.01238
16.135,359.75,-1.01241
16.1367,359.766,-1.01245
16.1383,359.783,-1.01248
16.14,359.799,-1.01252
16.1417,359.816,-1.01255
16.1433,359.832,-1.01258
16.145,359.849,-1.01261
16.1467,359.866,-1.01264
16.1483,359.882,-1.01267
16.15,359.899,-1.0127
16.1517,359.916,-1.01272
16.1533,359.932,-1.01274
16.155,359.949,-1.01275
16.1567,359.966,-1.01277
16.1583,359.982,-1.01279
16.16,359.999,-1.0128
16.1617,360.015,-1.01282
16.1633,360.032,-1.01282
16.165,360.049,-1.01283
16.1667,360.066,-1.01284
16.1683,360.082,-1.01284
16.17,360.099,-1.01286
16.1717,360.115,-1.01288
16.1733,360.132,-1.01291
16.175,360.148,-1.01294
16.1767,360.165,-1.01297
16.1783,360.182,-1.01301
16.18,360.198,-1.01305
16.1817,360.215,-1.01309
16.1833,360.232,-1.01313
16.185,360.248,-1.01317
16.1867,360.265,-1.01321
16.1883,360.282,-1.01324
16.19,360.298,-1.01327
16.1917,360.315,-1.01331
16.1933,360.332,-1.01335
16.195,360.349,-1.01338
16.1967,360.365,-1.01342
16.1983,360.382,-1.01345
16.2,360.399,-1.01349
16.2017,360.415,-1.01353
16.2033,360.432,-1.01357
16.205,360.448,-1.0136
16.2067,360.465,-1.01364
16.2083,360.481,-1.01369
16.21,360.498,-1.01374
16.2117,360.515,-1.0138
16.2133,360.532,-1.01385
16.215,360.548,-1.01389
16.2167,360.565,-1.01394
16.2183,360.582,-1.01398
16.22,360.598,-1.01401
16.2217,360.615,-1.01403
16.2233,360.631,-1.01405
16.225,360.648,-1.01407
16.2267,360.665,-1.01408
16.2283,360.681,-1.01411
16.23,360.698,-1.01413
16.2317,360.715,-1.01417
16.2333,360.731,-1.01421
16.235,360.748,-1.01425
16.2367,360.765,-1.01429
16.2383,360.782,-1.01433
16.24,360.798,-1.01437
16.2417,360.815,-1.0144
16.2433,360.831,-1.01443
16.245,360.848,-1.01447
16.2467,360.865,-1.01449
16.2483,360.881,-1.01452
16.25,360.898,-1.01454
16.2517,360.915,-1.01457
16.2533,360.931,-1.0146
16.255,360.948,-1.01463
16.2567,360.965,-1.01466
16.2583,360.981,-1.01469
16.26,360.998,-1.01471
16.2617,361.015,-1.01473
16.2633,361.031,-1.01474
16.265,361.048,-1.01474
16.2667,361.065,-1.01473
16.2683,361.082,-1.01472
16.27,361.098,-1.01472
16.2717,361.115,-1.01473
16.2733,361.131,-1.01475
16.275,361.148,-1.01478
16.2767,361.165,-1.01481
16.2783,361.181,-1.01486
16.28,361.198,-1.01492
16.2817,361.214,-1.01501
16.2833,361.231,-1.01507
16.285,361.248,-1.01512
16.2867,361.264,-1.01517
16.2883,361.281,-1.01521
16.29,361.298,-1.01525
16.2917,361.315,-1.01528
16.2933,361.331,-1.0153
16.295,361.348,-1.01532
16.2967,361.365,-1.01535
16.2983,361.381,-1.01537
16.3,361.398,-1.01539
16.3017,361.415,-1.01543
16.3033,361.431,-1.01546
16.305,361.448,-1.0155
16.3067,361.465,-1.01554
16.3083,361.481,-1.01559
16.31,361.498,-1.01563
16.3117,361.515,-1.01567
16.3133,361.531,-1.01571
16.315,361.548,-1.01576
16.3167,361.564,-1.0158
16.3183,361.581,-1.01584
16.32,361.598,-1.01589
16.3217,361.614,-1.01595
16.3233,361.631,-1.016
16.325,361.647,-1.01605
16.3267,361.664,-1.0161
16.3283,361.681,-1.01615
16.33,361.698,-1.01619
16.3317,361.714,-1.01623
16.3333,361.731,-1.01625
16.335,361.748,-1.01627
16.3367,361.764,-1.01628
16.3383,361.781,-1.01627
16.34,361.798,-1.01627
16.3417,361.814,-1.01626
16.3433,361.83,-1.01626
16.345,361.847,-1.01626
16.3467,361.864,-1.01626
16.3483,361.88,-1.01627
16.35,361.897,-1.01629
16.3517,361.914,-1.0163
16.3533,361.931,-1.01633
16.355,361.948,-1.01635
16.3567,361.964,-1.01639
16.3583,361.981,-1.01641
16.36,361.997,-1.01644
16.3617,362.014,-1.01648
16.3633,362.031,-1.01651
16.365,362.048,-1.01653
16.3667,362.065,-1.01656
16.3683,362.081,-1.01658
16.37,362.098,-1.01658
16.3717,362.114,-1.01659
16.3733,362.131,-1.0166
16.375,362.147,-1.01662
16.3767,362.164,-1.01664
16.3783,362.181,-1.01667
16.38,362.197,-1.01669
16.3817,362.214,-1.01672
16.3833,362.231,-1.01676
16.385,362.247,-1.0168
16.3867,362.264,-1.01685
16.3883,362.281,-1.01689
16.39,362.297,-1.01694
16.3917,362.314,-1.01698
16.3933,362.331,-1.01702
16.395,362.348,-1.01705
16.3967,362.364,-1.01708
16.3983,362.381,-1.01711
16.4,362.398,-1.01714
16.4017,362.414,-1.01717
16.4033,362.431,-1.01722
16.405,362.447,-1.01726
16.4067,362.464,-1.01729
16.4083,362.481,-1.0173
16.41,362.497,-1.01732
16.4117,362.514,-1.01733
16.4133,362.53,-1.01733
16.415,362.547,-1.01734
16.4167,362.564,-1.01735
16.4183,362.581,-1.01735
16.42,362.598,-1.01736
16.4217,362.614,-1.01738
16.4233,362.63,-1.01741
16.425,362.646,-1.01744
16.4267,362.663,-1.01746
16.4283,362.68,-1.01749
16.43,362.697,-1.01752
16.4317,362.713,-1.01754
16.4333,362.73,-1.01758
16.435,362.747,-1.0176
16.4367,362.763,-1.01763
16.4383,362.78,-1.01765
16.44,362.797,-1.01768
16.4417,362.813,-1.01771
16.4433,362.83,-1.01774
16.445,362.846,-1.01776
16.4467,362.863,-1.01779
16.4483,362.88,-1.01782
16.45,362.897,-1.01784
16.4517,362.913,-1.01788
16.4533,362.93,-1.01791
16.455,362.947,-1.01795
16.4567,362.963,-1.01799
16.4583,362.98,-1.01803
16.46,362.997,-1.01806
16.4617,363.013,-1.01809
16.4633,363.03,-1.01812
16.465,363.046,-1.01815
16.4667,363.063,-1.01817
16.4683,363.08,-1.01818
16.47,363.097,-1.01819
16.4717,363.113,-1.0182
16.4733,363.13,-1.01821
16.475,363.147,-1.01821
16.4767,363.163,-1.01821
16.4783,363.18,-1.0182
16.48,363.197,-1.0182
16.4817,363.213,-1.01821
16.4833,363.23,-1.01822
16.485,363.246,-1.01823
16.4867,363.263,-1.01825
16.4883,363.279,-1.01827
16.49,363.296,-1.0183
16.4917,363.312,-1.01832
16.4933,363.329,-1.01836
16.495,363.346,-1.01838
16.4967,363.363,-1.01841
16.4983,363.38,-1.01844
16.5,363.396,-1.01847
16.5017,363.413,-1.0185
16.5033,363.429,-1.01853
16.505,363.446,-1.01856
16.5067,363.463,-1.01859
16.5083,363.479,-1.01862
16.51,363.496,-1.01866
16.5117,363.512,-1.01869
16.5133,363.529,-1.01871
16.515,363.546,-1.01874
16.5167,363.563,-1.01877
16.5183,363.579,-1.0188
16.52,363.596,-1.01884
16.5217,363.612,-1.01888
16.5233,363.629,-1.01892
16.525,363.646,-1.01896
16.5267,363.663,-1.01899
16.5283,363.679,-1.019
16.53,363.696,-1.01901
16.5317,363.712,-1.01901
16.5333,363.729,-1.01901
16.535,363.746,-1.01901
16.5367,363.762,-1.01901
16.5383,363.779,-1.01903
16.54,363.795,-1.01905
16.5417,363.812,-1.01909
16.5433,363.829,-1.01913
16.545,363.845,-1.01917
16.5467,363.862,-1.01921
16.5483,363.879,-1.01925
16.55,363.896,-1.01928
16.5517,363.912,-1.01931
16.5533,363.929,-1.01934
16.555,363.945,-1.01938
16.5567,363.962,-1.01942
16.5583,363.979,-1.01946
16.56,363.995,-1.0195
16.5617,364.012,-1.01955
16.5633,364.029,-1.01958
16.565,364.045,-1.01962
16.5667,364.062,-1.01966
16.5683,364.079,-1.0197
16.57,364.095,-1.01973
16.5717,364.112,-1.01975
16.5733,364.129,-1.01976
16.575,364.145,-1.01977
16.5767,364.162,-1.01979
16.5783,364.179,-1.0198
16.58,364.195,-1.0198
16.5817,364.212,-1.0198
16.5833,364.229,-1.01981
16.585,364.245,-1.01982
16.5867,364.262,-1.01984
16.5883,364.278,-1.01986
16.59,364.295,-1.01989
16.5917,364.312,-1.01991
16.5933,364.329,-1.01993
16.595,364.345,-1.01996
16.5967,364.362,-1.01999
16.5983,364.379,-1.02001
16.6,364.395,-1.02004
16.6017,364.412,-1.02008
16.6033,364.429,-1.02011
16.605,364.445,-1.02015
16.6067,364.462,-1.02018
16.6083,364.478,-1.02022
16.61,364.495,-1.02025
16.6117,364.512,-1.02027
16.6133,364.528,-1.02028
16.615,364.545,-1.02028
16.6167,364.561,-1.02028
16.6183,364.578,-1.02028
16.62,364.595,-1.02028
16.6217,364.611,-1.02027
16.6233,364.628,-1.02027
16.625,364.645,-1.02026
16.6267,364.661,-1.02027
16.6283,364.678,-1.02028
16.63,364.695,-1.02029
16.6317,364.711,-1.02031
16.6333,364.728,-1.02034
16.635,364.745,-1.02039
16.6367,364.761,-1.02044
16.6383,364.777,-1.02049
16.64,364.794,-1.02053
16.6417,364.811,-1.02057
16.6433,364.827,-1.0206
16.645,364.845,-1.02063
16.6467,364.861,-1.02066
16.6483,364.878,-1.02069
16.65,364.894,-1.02071
16.6517,364.911,-1.02073
16.6533,364.928,-1.02075
16.655,364.944,-1.02077
16.6567,364.961,-1.02079
16.6583,364.978,-1.0208
16.66,364.994,-1.02081
16.6617,365.011,-1.02084
16.6633,365.028,-1.02087
16.665,365.044,-1.0209
16.6667,365.061,-1.02093
16.6683,365.077,-1.02098
16.67,365.094,-1.02102
16.6717,365.11,-1.02107
16.6733,365.127,-1.02112
16.675,365.144,-1.02116
16.6767,365.161,-1.0212
16.6783,365.177,-1.02122
16.68,365.194,-1.02125
16.6817,365.211,-1.02127
16.6833,365.227,-1.0213
16.685,365.244,-1.02131
16.6867,365.261,-1.02132
16.6883,365.277,-1.02133
16.69,365.294,-1.02133
16.6917,365.31,-1.02133
16.6933,365.327,-1.02133
16.695,365.344,-1.02133
16.6967,365.36,-1.02133
16.6983,365.377,-1.02134
16.7,365.393,-1.02136
16.7017,365.41,-1.02137
16.7033,365.427,-1.0214
16.705,365.443,-1.02144
16.7067,365.46,-1.02148
16.7083,365.477,-1.02152
16.71,365.494,-1.02157
16.7117,365.51,-1.02162
16.7133,365.527,-1.02167
16.715,365.543,-1.02172
16.7167,365.56,-1.02177
16.7183,365.577,-1.02182
16.72,365.593,-1.02186
16.7217,365.61,-1.0219
16.7233,365.627,-1.02193
16.725,365.643,-1.02195
16.7267,365.66,-1.02197
16.7283,365.677,-1.02197
16.73,365.693,-1.02197
16.7317,365.71,-1.02198
16.7333,365.727,-1.02198
16.735,365.743,-1.02199
16.7367,365.76,-1.022
16.7383,365.776,-1.02202
16.74,365.793,-1.02205
16.7417,365.81,-1.02208
16.7433,365.826,-1.02211
16.745,365.843,-1.02214
16.7467,365.86,-1.02216
16.7483,365.876,-1.02219
16.75,365.893,-1.02222
16.7517,365.91,-1.02225
16.7533,365.926,-1.02227
16.755,365.943,-1.02229
16.7567,365.96,-1.02232
16.7583,365.976,-1.02236
16.76,365.993,-1.0224
16.7617,366.009,-1.02245
16.7633,366.026,-1.0225
16.765,366.043,-1.02255
16.7667,366.059,-1.02261
16.7683,366.076,-1.02267
16.77,366.092,-1.02272
16.7717,366.109,-1.02276
16.7733,366.126,-1.0228
16.775,366.142,-1.02282
16.7767,366.159,-1.02283
16.7783,366.175,-1.02285
16.78,366.192,-1.02287
16.7817,366.209,-1.02288
16.7833,366.225,-1.0229
16.785,366.242,-1.02292
16.7867,366.259,-1.02294
16.7883,366.276,-1.02296
16.79,366.292,-1.02299
16.7917,366.309,-1.02301
16.7933,366.326,-1.02303
16.795,366.342,-1.02304
16.7967,366.359,-1.02307
16.7983,366.376,-1.02309
16.8,366.393,-1.02313
16.8017,366.409,-1.02318
16.8033,366.426,-1.02322
16.805,366.442,-1.02328
16.8067,366.459,-1.02333
16.8083,366.476,-1.02337
16.81,366.492,-1.0234
16.8117,366.509,-1.02342
16.8133,366.525,-1.02343
16.815,366.542,-1.02345
16.8167,366.559,-1.02345
16.8183,366.576,-1.02345
16.82,366.592,-1.02345
16.8217,366.609,-1.02345
16.8233,366.626,-1.02346
16.825,366.642,-1.02347
16.8267,366.659,-1.02349
16.8283,366.675,-1.02351
16.83,366.692,-1.02353
16.8317,366.708,-1.02356
16.8333,366.725,-1.02359
16.835,366.742,-1.0236
16.8367,366.759,-1.02363
16.8383,366.775,-1.02364
16.84,366.792,-1.02365
16.8417,366.808,-1.02366
16.8433,366.825,-1.02369
16.845,366.842,-1.02372
16.8467,366.858,-1.02375
16.8483,366.875,-1.0238
16.85,366.892,-1.02385
16.8517,366.908,-1.02389
16.8533,366.925,-1.02393
16.855,366.942,-1.02397
16.8567,366.958,-1.024
16.8583,366.976,-1.02402
16.86,366.992,-1.02404
16.8617,367.009,-1.02405
16.8633,367.026,-1.02407
16.865,367.042,-1.02409
16.8667,367.059,-1.02411
16.8683,367.076,-1.02413
16.87,367.092,-1.02415
16.8717,367.108,-1.02416
16.8733,367.125,-1.02418
16.875,367.142,-1.02419
16.8767,367.158,-1.0242
16.8783,367.175,-1.02421
16.88,367.192,-1.02422
16.8817,367.208,-1.02424
16.8833,367.225,-1.02427
16.885,367.242,-1.02431
16.8867,367.259,-1.02436
16.8883,367.275,-1.02441
16.89,367.292,-1.02444
16.8917,367.309,-1.02448
16.8933,367.325,-1.02453
16.895,367.342,-1.02457
16.8967,367.359,-1.02462
16.8983,367.375,-1.02465
16.9,367.392,-1.02469
16.9017,367.408,-1.02473
16.9033,367.425,-1.02475
16.905,367.442,-1.02478
16.9067,367.459,-1.0248
16.9083,367.475,-1.02482
16.91,367.492,-1.02484
16.9117,367.509,-1.02486
16.9133,367.525,-1.02487
16.915,367.542,-1.02488
16.9167,367.559,-1.0249
16.9183,367.576,-1.02492
16.92,367.592,-1.02495
16.9217,367.608,-1.02498
16.9233,367.625,-1.025
16.925,367.642,-1.02504
16.9267,367.658,-1.02507
16.9283,367.675,-1.02511
16.93,367.691,-1.02514
16.9317,367.708,-1.02518
16.9333,367.725,-1.02521
16.935,367.742,-1.02524
16.9367,367.758,-1.02527
16.9383,367.775,-1.0253
16.94,367.791,-1.02532
16.9417,367.808,-1.02533
16.9433,367.825,-1.02535
16.945,367.841,-1.02537
16.9467,367.858,-1.02539
16.9483,367.875,-1.02543
16.95,367.891,-1.02547
16.9517,367.908,-1.02552
16.9533,367.925,-1.02556
16.955,367.941,-1.0256
16.9567,367.958,-1.02564
16.9583,367.975,-1.02567
16.96,367.992,-1.02569
16.9617,368.008,-1.0257
16.9633,368.025,-1.02571
16.965,368.042,-1.02572
16.9667,368.058,-1.02572
16.9683,368.075,-1.02573
16.97,368.091,-1.02574
16.9717,368.108,-1.02576
16.9733,368.125,-1.02577
16.975,368.141,-1.02579
16.9767,368.158,-1.02581
16.9783,368.174,-1.02584
16.98,368.191,-1.02588
16.9817,368.208,-1.02592
16.9833,368.225,-1.02596
16.985,368.241,-1.02601
16.9867,368.258,-1.02607
16.9883,368.275,-1.02611
16.99,368.291,-1.02616
16.9917,368.308,-1.02621
16.9933,368.325,-1.02625
16.995,368.341,-1.02629
16.9967,368.358,-1.02631
16.9983,368.374,-1.02633
17,368.391,-1.02634
17.0017,368.407,-1.02636
17.0033,368.424,-1.02636
17.005,368.44,-1.02637
17.0067,368.457,-1.02638
17.0083,368.474,-1.02639
17.01,368.49,-1.02641
17.0117,368.508,-1.02644
17.0133,368.524,-1.02647
17.015,368.541,-1.0265
17.0167,368.557,-1.02653
17.0183,368.574,-1.02655
17.02,368.591,-1.02658
17.0217,368.607,-1.02661
17.0233,368.624,-1.02663
17.025,368.64,-1.02665
17.0267,368.657,-1.02669
17.0283,368.673,-1.02673
17.03,368.69,-1.02677
17.0317,368.707,-1.0268
17.0333,368.724,-1.02683
17.035,368.74,-1.02686
17.0367,368.757,-1.02686
17.0383,368.774,-1.02686
17.04,368.79,-1.02686
17.0417,368.807,-1.02685
17.0433,368.823,-1.02684
17.045,368.84,-1.02683
17.0467,368.857,-1.02683
17.0483,368.874,-1.02683
17.05,368.89,-1.02683
17.0517,368.907,-1.02685
17.0533,368.923,-1.02688
17.055,368.94,-1.02691
17.0567,368.957,-1.02694
17.0583,368.973,-1.02697
17.06,368.99,-1.02701
17.0617,369.007,-1.02704
17.0633,369.023,-1.02707
17.065,369.04,-1.02709
17.0667,369.056,-1.0271
17.0683,369.073,-1.02712
17.07,369.09,-1.02713
17.0717,369.107,-1.02714
17.0733,369.123,-1.02715
17.075,369.14,-1.02717
17.0767,369.156,-1.02719
17.0783,369.173,-1.02721
17.08,369.19,-1.02724
17.0817,369.206,-1.02727
17.0833,369.223,-1.0273
17.085,369.239,-1.02733
17.0867,369.256,-1.02736
17.0883,369.273,-1.02738
17.09,369.29,-1.0274
17.0917,369.306,-1.02743
17.0933,369.323,-1.02745
17.095,369.34,-1.02748
17.0967,369.357,-1.02751
17.0983,369.373,-1.02754
17.1,369.389,-1.02759
17.1017,369.406,-1.02763
17.1033,369.423,-1.02768
17.105,369.439,-1.02772
17.1067,369.456,-1.02776
17.1083,369.473,-1.02781
17.11,369.49,-1.02784
17.1117,369.506,-1.02787
17.1133,369.523,-1.02791
17.115,369.539,-1.02793
17.1167,369.556,-1.02795
17.1183,369.573,-1.02795
17.12,369.589,-1.02796
17.1217,369.606,-1.02796
17.1233,369.623,-1.02797
17.125,369.639,-1.02798
17.1267,369.656,-1.02801
17.1283,369.673,-1.02803
17.13,369.689,-1.02806
17.1317,369.706,-1.0281
17.1333,369.723,-1.02814
17.135,369.739,-1.02818
17.1367,369.755,-1.02822
17.1383,369.772,-1.02827
17.14,369.789,-1.02831
17.1417,369.805,-1.02834
17.1433,369.822,-1.02837
17.145,369.839,-1.02839
17.1467,369.856,-1.0284
17.1483,369.872,-1.02842
17.15,369.889,-1.02844
17.1517,369.906,-1.02845
17.1533,369.922,-1.02846
17.155,369.939,-1.02848
17.1567,369.956,-1.02851
17.1583,369.972,-1.02854
17.16,369.989,-1.02857
17.1617,370.005,-1.02861
17.1633,370.022,-1.02863
17.165,370.039,-1.02865
17.1667,370.055,-1.02868
17.1683,370.072,-1.02869
17.17,370.089,-1.0287
17.1717,370.105,-1.0287
17.1733,370.122,-1.02869
17.175,370.138,-1.0287
17.1767,370.155,-1.0287
17.1783,370.172,-1.0287
17.18,370.188,-1.02872
17.1817,370.205,-1.02874
17.1833,370.222,-1.02876
17.185,370.238,-1.0288
17.1867,370.255,-1.02884
17.1883,370.272,-1.02888
17.19,370.289,-1.0289
17.1917,370.305,-1.02893
17.1933,370.322,-1.02895
17.195,370.338,-1.02895
17.1967,370.355,-1.02896
17.1983,370.372,-1.02897
17.2,370.388,-1.02898
17.2017,370.405,-1.02899
17.2033,370.422,-1.029
17.205,370.438,-1.02901
17.2067,370.455,-1.02903
17.2083,370.472,-1.02905
17.21,370.489,-1.02908
17.2117,370.505,-1.02911
17.2133,370.521,-1.02914
17.215,370.538,-1.02916
17.2167,370.555,-1.02919
17.2183,370.571,-1.02921
17.22,370.588,-1.02925
17.2217,370.605,-1.02926
17.2233,370.622,-1.02928
17.225,370.638,-1.02929
17.2267,370.655,-1.02929
17.2283,370.672,-1.0293
17.23,370.688,-1.02931
17.2317,370.705,-1.02931
17.2333,370.721,-1.02933
17.235,370.738,-1.02936
17.2367,370.754,-1.02938
17.2383,370.771,-1.02942
17.24,370.788,-1.02945
17.2417,370.805,-1.02949
17.2433,370.821,-1.02954
17.245,370.838,-1.02961
17.2467,370.854,-1.02966
17.2483,370.871,-1.0297
17.25,370.887,-1.02974
17.2517,370.904,-1.02976
17.2533,370.921,-1.02978
17.255,370.938,-1.0298
17.2567,370.954,-1.02981
17.2583,370.971,-1.02983
17.26,370.988,-1.02985
17.2617,371.004,-1.02987
17.2633,371.021,-1.02989
17.265,371.038,-1.02991
17.2667,371.054,-1.02993
17.2683,371.071,-1.02996
17.27,371.088,-1.02999
17.2717,371.105,-1.03001
17.2733,371.122,-1.03002
17.275,371.138,-1.03004
17.2767,371.155,-1.03005
17.2783,371.171,-1.03007
17.28,371.188,-1.03009
17.2817,371.205,-1.03012
17.2833,371.221,-1.03014
17.285,371.238,-1.03017
17.2867,371.254,-1.03021
17.2883,371.271,-1.03025
17.29,371.288,-1.03029
17.2917,371.304,-1.03034
17.2933,371.321,-1.03038
17.295,371.337,-1.03042
17.2967,371.354,-1.03045
17.2983,371.371,-1.03048
17.3,371.388,-1.03051
17.3017,371.404,-1.03054
17.3033,371.421,-1.03056
17.305,371.438,-1.03057
17.3067,371.454,-1.03058
17.3083,371.471,-1.0306
17.31,371.487,-1.03062
17.3117,371.504,-1.03064
17.3133,371.521,-1.03066
17.315,371.538,-1.03069
17.3167,371.554,-1.03072
17.3183,371.571,-1.03075
17.32,371.587,-1.03078
17.3217,371.604,-1.03081
17.3233,371.621,-1.03083
17.325,371.637,-1.03085
17.3267,371.654,-1.03087
17.3283,371.671,-1.03088
17.33,371.687,-1.03089
17.3317,371.704,-1.0309
17.3333,371.721,-1.0309
17.335,371.737,-1.0309
17.3367,371.754,-1.03089
17.3383,371.77,-1.03089
17.34,371.787,-1.03089
17.3417,371.804,-1.0309
17.3433,371.821,-1.03093
17.345,371.837,-1.03096
17.3467,371.854,-1.03099
17.3483,371.87,-1.03103
17.35,371.887,-1.03107
17.3517,371.904,-1.0311
17.3533,371.921,-1.03113
17.355,371.937,-1.03116
17.3567,371.953,-1.03119
17.3583,371.97,-1.03121
17.36,371.987,-1.03123
17.3617,372.004,-1.03126
17.3633,372.02,-1.0313
17.365,372.037,-1.03134
17.3667,372.053,-1.03138
17.3683,372.07,-1.03142
17.37,372.086,-1.03145
17.3717,372.103,-1.03147
17.3733,372.12,-1.03148
17.375,372.136,-1.03148
17.3767,372.153,-1.03149
17.3783,372.17,-1.03149
17.38,372.187,-1.03151
17.3817,372.203,-1.03152
17.3833,372.22,-1.03154
17.385,372.236,-1.03156
17.3867,372.254,-1.03159
17.3883,372.27,-1.03162
17.39,372.287,-1.03164
17.3917,372.303,-1.03166
17.3933,372.32,-1.03167
17.395,372.336,-1.03167
17.3967,372.353,-1.03167
17.3983,372.369,-1.03168
17.4,372.386,-1.03167
17.4017,372.403,-1.03168
17.4033,372.42,-1.03169
17.405,372.436,-1.03172
17.4067,372.453,-1.03174
17.4083,372.47,-1.03177
17.41,372.486,-1.0318
17.4117,372.503,-1.03182
17.4133,372.519,-1.03185
17.415,372.536,-1.03189
17.4167,372.553,-1.03192
17.4183,372.569,-1.03194
17.42,372.585,-1.03197
17.4217,372.602,-1.032
17.4233,372.619,-1.03202
17.425,372.636,-1.03205
17.4267,372.653,-1.03208
17.4283,372.669,-1.03211
17.43,372.686,-1.03213
17.4317,372.702,-1.03215
17.4333,372.719,-1.03218
17.435,372.735,-1.03221
17.4367,372.752,-1.03222
17.4383,372.769,-1.03223
17.44,372.785,-1.03223
17.4417,372.802,-1.03223
17.4433,372.819,-1.03224
17.445,372.835,-1.03225
17.4467,372.852,-1.03226
17.4483,372.869,-1.03228
17.45,372.885,-1.03231
17.4517,372.902,-1.03234
17.4533,372.919,-1.03237
17.455,372.935,-1.0324
17.4567,372.952,-1.03244
17.4583,372.969,-1.03247
17.46,372.985,-1.03248
17.4617,373.002,-1.0325
17.4633,373.019,-1.03251
17.465,373.036,-1.03253
17.4667,373.052,-1.03254
17.4683,373.069,-1.03255
17.47,373.085,-1.03255
17.4717,373.102,-1.03255
17.4733,373.119,-1.03255
17.475,373.135,-1.03255
17.4767,373.152,-1.03254
17.4783,373.169,-1.03253
17.48,373.185,-1.03254
17.4817,373.202,-1.03254
17.4833,373.218,-1.03254
17.485,373.235,-1.03256
17.4867,373.251,-1.03259
17.4883,373.268,-1.03263
17.49,373.285,-1.03269
17.4917,373.301,-1.03277
17.4933,373.318,-1.03282
17.495,373.334,-1.03287
17.4967,373.351,-1.03291
17.4983,373.368,-1.03295
17.5,373.384,-1.03298
17.5017,373.401,-1.033
17.5033,373.418,-1.03301
17.505,373.435,-1.03303
