Ramp 10.00 °C/min to 375.00 °C,,
Time,Temperature,Heat Flow (Normalized)
min,°C,W/g
5.00333,249.864,-0.189302
5.005,249.864,-0.189305
5.00667,249.864,-0.189308
5.00833,249.865,-0.189309
5.01,249.864,-0.189301
5.01167,249.864,-0.189294
5.01333,249.864,-0.189296
5.015,249.864,-0.189293
5.01667,249.865,-0.189291
5.01833,249.865,-0.189294
5.02,249.865,-0.189301
5.02167,249.865,-0.189307
5.02333,249.866,-0.189316
5.025,249.866,-0.189335
5.02667,249.867,-0.189359
5.02833,249.867,-0.189392
5.03,249.867,-0.189421
5.03167,249.868,-0.189453
5.03333,249.869,-0.189499
5.035,249.87,-0.18959
5.03667,249.87,-0.189714
5.03833,249.871,-0.1898
5.04,249.873,-0.189841
5.04167,249.874,-0.189877
5.04333,249.875,-0.189895
5.045,249.876,-0.189905
5.04667,249.878,-0.189896
5.04833,249.879,-0.189843
5.05,249.881,-0.189727
5.05167,249.883,-0.189422
5.05333,249.885,-0.188912
5.055,249.887,-0.187926
5.05667,249.889,-0.186367
5.05833,249.891,-0.184798
5.06,249.893,-0.182983
5.06167,249.896,-0.18069
5.06333,249.899,-0.178078
5.065,249.902,-0.174624
5.06667,249.905,-0.170569
5.06833,249.909,-0.165879
5.07,249.912,-0.160696
5.07167,249.916,-0.154348
5.07333,249.919,-0.147732
5.075,249.924,-0.141703
5.07667,249.928,-0.136695
5.07833,249.933,-0.13199
5.08,249.938,-0.128396
5.08167,249.942,-0.126388
5.08333,249.947,-0.123929
5.085,249.952,-0.121528
5.08667,249.958,-0.119878
5.08833,249.963,-0.119574
5.09,249.969,-0.119337
5.09167,249.975,-0.119501
5.09333,249.981,-0.119765
5.095,249.988,-0.119786
5.09667,249.994,-0.120307
5.09833,250.001,-0.121173
5.1,250.008,-0.122005
5.10167,250.015,-0.122739
5.10333,250.022,-0.125343
5.105,250.03,-0.127073
5.10667,250.038,-0.128178
5.10833,250.046,-0.128758
5.11,250.054,-0.129171
5.11167,250.062,-0.130012
5.11333,250.071,-0.131525
5.115,250.079,-0.134404
5.11667,250.088,-0.140255
5.11833,250.097,-0.149572
5.12,250.106,-0.161289
5.12167,250.115,-0.175628
5.12333,250.125,-0.189407
5.125,250.134,-0.202236
5.12667,250.144,-0.211217
5.12833,250.154,-0.218831
5.13,250.164,-0.225359
5.13167,250.174,-0.23322
5.13333,250.184,-0.240582
5.135,250.195,-0.248264
5.13667,250.205,-0.256571
5.13833,250.216,-0.265324
5.14,250.227,-0.273821
5.14167,250.238,-0.282873
5.14333,250.25,-0.292651
5.145,250.261,-0.301964
5.14667,250.272,-0.310148
5.14833,250.284,-0.318477
5.15,250.295,-0.325697
5.15167,250.306,-0.333775
5.15333,250.318,-0.342543
5.155,250.33,-0.3502
5.15667,250.342,-0.358369
5.15833,250.354,-0.366569
5.16,250.366,-0.374928
5.16167,250.378,-0.382619
5.16333,250.391,-0.389993
5.165,250.403,-0.396412
5.16667,250.416,-0.403273
5.16833,250.428,-0.410325
5.17,250.441,-0.416963
5.17167,250.454,-0.424555
5.17333,250.466,-0.431186
5.175,250.479,-0.438655
5.17667,250.492,-0.446925
5.17833,250.505,-0.453444
5.18,250.518,-0.460289
5.18167,250.531,-0.46585
5.18333,250.545,-0.472028
5.185,250.558,-0.477702
5.18667,250.572,-0.482612
5.18833,250.585,-0.488242
5.19,250.599,-0.493561
5.19167,250.612,-0.499008
5.19333,250.626,-0.505861
5.195,250.64,-0.511022
5.19667,250.653,-0.516828
5.19833,250.667,-0.522142
5.2,250.681,-0.526852
5.20167,250.695,-0.530937
5.20333,250.709,-0.534779
5.205,250.723,-0.538221
5.20667,250.737,-0.542131
5.20833,250.751,-0.54674
5.21,250.765,-0.551203
5.21167,250.779,-0.555733
5.21333,250.793,-0.55985
5.215,250.808,-0.565197
5.21667,250.822,-0.570516
5.21833,250.837,-0.573503
5.22,250.851,-0.577049
5.22167,250.866,-0.581695
5.22333,250.881,-0.585371
5.225,250.895,-0.588173
5.22667,250.91,-0.590526
5.22833,250.924,-0.592443
5.23,250.939,-0.594898
5.23167,250.954,-0.597494
5.23333,250.968,-0.601672
5.235,250.983,-0.605869
5.23667,250.998,-0.609271
5.23833,251.013,-0.612446
5.24,251.027,-0.616941
5.24167,251.043,-0.62093
5.24333,251.058,-0.624092
5.245,251.073,-0.626371
5.24667,251.088,-0.628368
5.24833,251.103,-0.631494
5.25,251.118,-0.63396
5.25167,251.133,-0.636784
5.25333,251.148,-0.638927
5.255,251.163,-0.640588
5.25667,251.179,-0.64426
5.25833,251.194,-0.648351
5.26,251.209,-0.650813
5.26167,251.224,-0.652875
5.26333,251.24,-0.65441
5.265,251.255,-0.656752
5.26667,251.27,-0.658447
5.26833,251.285,-0.660715
5.27,251.301,-0.662076
5.27167,251.316,-0.661892
5.27333,251.332,-0.663573
5.275,251.347,-0.665432
5.27667,251.363,-0.667779
5.27833,251.378,-0.67018
5.28,251.394,-0.672757
5.28167,251.409,-0.675091
5.28333,251.425,-0.678397
5.285,251.44,-0.680743
5.28667,251.456,-0.68367
5.28833,251.472,-0.685371
5.29,251.487,-0.687877
5.29167,251.503,-0.688572
5.29333,251.519,-0.690413
5.295,251.535,-0.692075
5.29667,251.55,-0.693955
5.29833,251.566,-0.694985
5.3,251.582,-0.696259
5.30167,251.597,-0.69846
5.30333,251.613,-0.700667
5.305,251.629,-0.702698
5.30667,251.644,-0.703876
5.30833,251.66,-0.704843
5.31,251.676,-0.70548
5.31167,251.692,-0.706534
5.31333,251.708,-0.706514
5.315,251.724,-0.70717
5.31667,251.74,-0.70729
5.31833,251.756,-0.707911
5.32,251.772,-0.709314
5.32167,251.787,-0.711
5.32333,251.803,-0.711563
5.325,251.819,-0.712725
5.32667,251.835,-0.713595
5.32833,251.851,-0.714598
5.33,251.867,-0.716325
5.33167,251.883,-0.717811
5.33333,251.899,-0.719714
5.335,251.915,-0.721231
5.33667,251.931,-0.722778
5.33833,251.947,-0.724949
5.34,251.963,-0.727036
5.34167,251.979,-0.728275
5.34333,251.995,-0.729076
5.345,252.011,-0.729629
5.34667,252.027,-0.729742
5.34833,252.043,-0.729942
5.35,252.059,-0.73001
5.35167,252.075,-0.730151
5.35333,252.091,-0.730283
5.355,252.107,-0.730455
5.35667,252.123,-0.730917
5.35833,252.139,-0.731265
5.36,252.156,-0.731713
5.36167,252.172,-0.732067
5.36333,252.188,-0.732543
5.365,252.204,-0.733166
5.36667,252.22,-0.734334
5.36833,252.236,-0.735602
5.37,252.252,-0.73643
5.37167,252.268,-0.737102
5.37333,252.285,-0.737573
5.375,252.301,-0.738165
5.37667,252.317,-0.738594
5.37833,252.333,-0.738877
5.38,252.349,-0.73912
5.38167,252.365,-0.739272
5.38333,252.382,-0.739451
5.385,252.398,-0.739741
5.38667,252.414,-0.740213
5.38833,252.43,-0.740775
5.39,252.446,-0.741495
5.39167,252.463,-0.742234
5.39333,252.479,-0.743153
5.395,252.495,-0.743883
5.39667,252.511,-0.744647
5.39833,252.527,-0.745325
5.4,252.544,-0.746056
5.40167,252.56,-0.7467
5.40333,252.576,-0.747318
5.405,252.593,-0.747668
5.40667,252.609,-0.748083
5.40833,252.625,-0.748647
5.41,252.641,-0.748998
5.41167,252.657,-0.749321
5.41333,252.674,-0.749582
5.415,252.69,-0.74985
5.41667,252.707,-0.750008
5.41833,252.722,-0.750219
5.42,252.739,-0.750447
5.42167,252.755,-0.750722
5.42333,252.771,-0.751014
5.425,252.787,-0.751367
5.42667,252.804,-0.751765
5.42833,252.82,-0.752256
5.43,252.836,-0.752688
5.43167,252.852,-0.75314
5.43333,252.869,-0.753497
5.435,252.886,-0.753679
5.43667,252.902,-0.753768
5.43833,252.917,-0.753871
5.44,252.934,-0.753993
5.44167,252.951,-0.754088
5.44333,252.967,-0.754158
5.445,252.983,-0.754299
5.44667,252.999,-0.754497
5.44833,253.016,-0.75481
5.45,253.032,-0.755207
5.45167,253.049,-0.755673
5.45333,253.065,-0.756155
5.455,253.081,-0.756553
5.45667,253.097,-0.756948
5.45833,253.114,-0.757464
5.46,253.13,-0.757847
5.46167,253.146,-0.75819
5.46333,253.163,-0.758423
5.465,253.179,-0.758742
5.46667,253.196,-0.759311
5.46833,253.212,-0.760032
5.47,253.228,-0.760606
5.47167,253.244,-0.761167
5.47333,253.261,-0.761575
5.475,253.277,-0.761786
5.47667,253.294,-0.761936
5.47833,253.31,-0.762003
5.48,253.326,-0.762375
5.48167,253.343,-0.762558
5.48333,253.359,-0.762738
5.485,253.375,-0.76277
5.48667,253.391,-0.762802
5.48833,253.408,-0.762866
5.49,253.424,-0.762961
5.49167,253.441,-0.763146
5.49333,253.457,-0.7634
5.495,253.473,-0.763728
5.49667,253.49,-0.763995
5.49833,253.506,-0.764164
5.5,253.522,-0.764309
5.50167,253.539,-0.764421
5.50333,253.555,-0.764558
5.505,253.572,-0.764637
5.50667,253.588,-0.764716
5.50833,253.604,-0.764801
5.51,253.621,-0.764856
5.51167,253.637,-0.764905
5.51333,253.653,-0.764978
5.515,253.67,-0.765095
5.51667,253.686,-0.765202
5.51833,253.702,-0.765294
5.52,253.719,-0.765424
5.52167,253.735,-0.765615
5.52333,253.752,-0.765836
5.525,253.768,-0.76608
5.52667,253.784,-0.766279
5.52833,253.801,-0.766434
5.53,253.817,-0.766526
5.53167,253.834,-0.766647
5.53333,253.85,-0.766838
5.535,253.867,-0.767033
5.53667,253.883,-0.767191
5.53833,253.899,-0.767336
5.54,253.916,-0.767484
5.54167,253.932,-0.767604
5.54333,253.948,-0.767713
5.545,253.965,-0.767795
5.54667,253.981,-0.767887
5.54833,253.998,-0.76797
5.55,254.014,-0.768045
5.55167,254.031,-0.768257
5.55333,254.047,-0.768326
5.555,254.064,-0.768544
5.55667,254.08,-0.768664
5.55833,254.097,-0.768722
5.56,254.113,-0.768774
5.56167,254.13,-0.768852
5.56333,254.146,-0.768916
5.565,254.163,-0.768982
5.56667,254.179,-0.76906
5.56833,254.195,-0.769145
5.57,254.212,-0.769287
5.57167,254.229,-0.769611
5.57333,254.245,-0.770002
5.575,254.261,-0.770331
5.57667,254.277,-0.770666
5.57833,254.294,-0.77094
5.58,254.31,-0.771211
5.58167,254.326,-0.771454
5.58333,254.343,-0.771613
5.585,254.359,-0.771703
5.58667,254.376,-0.771793
5.58833,254.392,-0.771884
5.59,254.409,-0.771975
5.59167,254.425,-0.772059
5.59333,254.441,-0.772144
5.595,254.458,-0.772231
5.59667,254.475,-0.772317
5.59833,254.491,-0.772445
5.6,254.508,-0.772595
5.60167,254.525,-0.772675
5.60333,254.541,-0.77276
5.605,254.558,-0.772849
5.60667,254.574,-0.772941
5.60833,254.59,-0.773034
5.61,254.606,-0.773177
5.61167,254.623,-0.773293
5.61333,254.639,-0.773388
5.615,254.656,-0.773486
5.61667,254.672,-0.773586
5.61833,254.688,-0.77368
5.62,254.705,-0.773775
5.62167,254.721,-0.773872
5.62333,254.738,-0.773969
5.625,254.754,-0.774062
5.62667,254.771,-0.774146
5.62833,254.787,-0.774223
5.63,254.803,-0.7743
5.63167,254.82,-0.774378
5.63333,254.836,-0.774471
5.635,254.853,-0.774571
5.63667,254.87,-0.774689
5.63833,254.886,-0.774823
5.64,254.903,-0.775089
5.64167,254.919,-0.7754
5.64333,254.936,-0.77582
5.645,254.952,-0.776104
5.64667,254.969,-0.776476
5.64833,254.985,-0.776867
5.65,255.002,-0.777073
5.65167,255.018,-0.777217
5.65333,255.034,-0.777316
5.655,255.051,-0.777474
5.65667,255.067,-0.777556
5.65833,255.084,-0.777632
5.66,255.1,-0.777712
5.66167,255.117,-0.777804
5.66333,255.133,-0.777902
5.665,255.149,-0.778003
5.66667,255.166,-0.778112
5.66833,255.182,-0.778311
5.67,255.199,-0.778541
5.67167,255.215,-0.778679
5.67333,255.232,-0.778786
5.675,255.248,-0.778912
5.67667,255.265,-0.778991
5.67833,255.281,-0.779071
5.68,255.298,-0.77915
5.68167,255.314,-0.779233
5.68333,255.331,-0.779312
5.685,255.347,-0.779395
5.68667,255.364,-0.779479
5.68833,255.38,-0.779574
5.69,255.397,-0.779679
5.69167,255.413,-0.779789
5.69333,255.43,-0.779911
5.695,255.446,-0.780085
5.69667,255.463,-0.780216
5.69833,255.479,-0.780339
5.7,255.496,-0.780449
5.70167,255.512,-0.780559
5.70333,255.529,-0.780663
5.705,255.545,-0.780763
5.70667,255.562,-0.780873
5.70833,255.578,-0.780973
5.71,255.595,-0.781074
5.71167,255.611,-0.781178
5.71333,255.628,-0.781286
5.715,255.644,-0.781394
5.71667,255.661,-0.781509
5.71833,255.677,-0.781621
5.72,255.694,-0.781737
5.72167,255.71,-0.781852
5.72333,255.727,-0.781961
5.725,255.743,-0.782069
5.72667,255.76,-0.782171
5.72833,255.776,-0.782272
5.73,255.793,-0.782369
5.73167,255.809,-0.782465
5.73333,255.825,-0.782561
5.735,255.842,-0.782661
5.73667,255.859,-0.782773
5.73833,255.875,-0.782892
5.74,255.892,-0.783049
5.74167,255.908,-0.783238
5.74333,255.925,-0.783416
5.745,255.942,-0.783536
5.74667,255.958,-0.783647
5.74833,255.974,-0.783751
5.75,255.991,-0.783855
5.75167,256.007,-0.78395
5.75333,256.024,-0.784046
5.755,256.04,-0.784146
5.75667,256.056,-0.784246
5.75833,256.073,-0.784352
5.76,256.09,-0.784462
5.76167,256.106,-0.784568
5.76333,256.122,-0.784676
5.765,256.139,-0.784783
5.76667,256.156,-0.784887
5.76833,256.172,-0.784998
5.77,256.188,-0.785113
5.77167,256.205,-0.785222
5.77333,256.222,-0.785321
5.775,256.238,-0.785422
5.77667,256.254,-0.785518
5.77833,256.271,-0.785613
5.78,256.287,-0.785705
5.78167,256.304,-0.785801
5.78333,256.321,-0.785905
5.785,256.337,-0.786009
5.78667,256.354,-0.786126
5.78833,256.37,-0.786241
5.79,256.387,-0.786363
5.79167,256.403,-0.786477
5.79333,256.42,-0.786587
5.795,256.436,-0.786703
5.79667,256.453,-0.786816
5.79833,256.469,-0.786925
5.8,256.486,-0.787033
5.80167,256.502,-0.78714
5.80333,256.518,-0.78725
5.805,256.536,-0.787356
5.80667,256.552,-0.787462
5.80833,256.569,-0.787568
5.81,256.585,-0.787669
5.81167,256.601,-0.787768
5.81333,256.618,-0.787867
5.815,256.635,-0.787969
5.81667,256.651,-0.788062
5.81833,256.667,-0.788147
5.82,256.684,-0.788234
5.82167,256.701,-0.788323
5.82333,256.717,-0.788415
5.825,256.734,-0.788507
5.82667,256.75,-0.788606
5.82833,256.767,-0.788704
5.83,256.783,-0.788801
5.83167,256.8,-0.788895
5.83333,256.816,-0.788993
5.835,256.833,-0.789086
5.83667,256.85,-0.789175
5.83833,256.866,-0.789269
5.84,256.883,-0.789373
5.84167,256.9,-0.789481
5.84333,256.916,-0.789594
5.845,256.932,-0.789712
5.84667,256.949,-0.789831
5.84833,256.965,-0.789967
5.85,256.981,-0.7901
5.85167,256.998,-0.790228
5.85333,257.015,-0.790351
5.855,257.031,-0.790467
5.85667,257.048,-0.790573
5.85833,257.064,-0.790668
5.86,257.081,-0.790767
5.86167,257.098,-0.790868
5.86333,257.114,-0.790972
5.865,257.131,-0.791072
5.86667,257.147,-0.791171
5.86833,257.164,-0.791272
5.87,257.18,-0.791385
5.87167,257.197,-0.791499
5.87333,257.213,-0.791612
5.875,257.23,-0.791727
5.87667,257.246,-0.791842
5.87833,257.263,-0.791962
5.88,257.279,-0.792079
5.88167,257.296,-0.792193
5.88333,257.312,-0.792302
5.885,257.329,-0.792408
5.88667,257.346,-0.792508
5.88833,257.362,-0.792602
5.89,257.379,-0.792689
5.89167,257.395,-0.792776
5.89333,257.412,-0.792866
5.895,257.429,-0.792962
5.89667,257.445,-0.793063
5.89833,257.462,-0.793165
5.9,257.478,-0.793262
5.90167,257.494,-0.793364
5.90333,257.511,-0.793468
5.905,257.527,-0.793569
5.90667,257.544,-0.793664
5.90833,257.561,-0.793756
5.91,257.577,-0.793846
5.91167,257.594,-0.793938
5.91333,257.61,-0.794026
5.915,257.627,-0.794101
5.91667,257.643,-0.794179
5.91833,257.66,-0.794264
5.92,257.676,-0.794353
5.92167,257.693,-0.794453
5.92333,257.71,-0.79456
5.925,257.726,-0.794664
5.92667,257.743,-0.794756
5.92833,257.759,-0.79485
5.93,257.776,-0.79494
5.93167,257.792,-0.795025
5.93333,257.809,-0.795108
5.935,257.825,-0.795184
5.93667,257.841,-0.795266
5.93833,257.858,-0.795347
5.94,257.875,-0.795428
5.94167,257.891,-0.79552
5.94333,257.908,-0.795618
5.945,257.925,-0.795718
5.94667,257.941,-0.795817
5.94833,257.958,-0.795919
5.95,257.974,-0.796019
5.95167,257.991,-0.796115
5.95333,258.007,-0.796202
5.955,258.024,-0.796292
5.95667,258.041,-0.796379
5.95833,258.057,-0.796462
5.96,258.074,-0.796541
5.96167,258.09,-0.796619
5.96333,258.107,-0.796695
5.965,258.123,-0.796776
5.96667,258.14,-0.796864
5.96833,258.157,-0.796963
5.97,258.173,-0.797069
5.97167,258.19,-0.79718
5.97333,258.206,-0.797288
5.975,258.223,-0.7974
5.97667,258.24,-0.79751
5.97833,258.256,-0.797607
5.98,258.273,-0.797701
5.98167,258.289,-0.797789
5.98333,258.306,-0.797878
5.985,258.322,-0.79796
5.98667,258.339,-0.798039
5.98833,258.356,-0.798123
5.99,258.372,-0.798218
5.99167,258.389,-0.798317
5.99333,258.405,-0.798419
5.995,258.422,-0.798517
5.99667,258.439,-0.798612
5.99833,258.455,-0.7987
6,258.472,-0.798789
6.00167,258.488,-0.798877
6.00333,258.505,-0.798958
6.005,258.521,-0.79904
6.00667,258.538,-0.79912
6.00833,258.554,-0.799197
6.01,258.571,-0.799284
6.01167,258.588,-0.799373
6.01333,258.604,-0.799466
6.015,258.62,-0.799562
6.01667,258.637,-0.799656
6.01833,258.654,-0.799748
6.02,258.671,-0.799844
6.02167,258.687,-0.79994
6.02333,258.704,-0.800029
6.025,258.72,-0.800113
6.02667,258.736,-0.800197
6.02833,258.753,-0.800283
6.03,258.77,-0.800374
6.03167,258.787,-0.800473
6.03333,258.803,-0.800573
6.035,258.82,-0.800674
6.03667,258.836,-0.800779
6.03833,258.853,-0.800883
6.04,258.87,-0.800983
6.04167,258.886,-0.801087
6.04333,258.903,-0.80119
6.045,258.919,-0.801282
6.04667,258.936,-0.801367
6.04833,258.952,-0.80145
6.05,258.969,-0.801539
6.05167,258.986,-0.801624
6.05333,259.002,-0.801696
6.055,259.019,-0.801757
6.05667,259.035,-0.801821
6.05833,259.052,-0.801885
6.06,259.068,-0.801957
6.06167,259.085,-0.802023
6.06333,259.102,-0.802095
6.065,259.118,-0.80217
6.06667,259.135,-0.802248
6.06833,259.151,-0.802334
6.07,259.168,-0.80242
6.07167,259.185,-0.80251
6.07333,259.201,-0.802591
6.075,259.218,-0.802669
6.07667,259.235,-0.802745
6.07833,259.251,-0.80282
6.08,259.268,-0.802895
6.08167,259.285,-0.802971
6.08333,259.301,-0.803051
6.085,259.317,-0.803129
6.08667,259.334,-0.803211
6.08833,259.35,-0.803295
6.09,259.367,-0.803384
6.09167,259.383,-0.803479
6.09333,259.4,-0.803575
6.095,259.417,-0.803663
6.09667,259.434,-0.803746
6.09833,259.45,-0.803833
6.1,259.467,-0.803922
6.10167,259.483,-0.804022
6.10333,259.5,-0.804112
6.105,259.516,-0.804207
6.10667,259.533,-0.804292
6.10833,259.55,-0.804384
6.11,259.566,-0.804481
6.11167,259.583,-0.804573
6.11333,259.599,-0.804666
6.115,259.616,-0.804754
6.11667,259.633,-0.804836
6.11833,259.649,-0.804922
6.12,259.666,-0.805011
6.12167,259.682,-0.805101
6.12333,259.699,-0.805196
6.125,259.715,-0.805286
6.12667,259.732,-0.805388
6.12833,259.748,-0.805487
6.13,259.765,-0.805577
6.13167,259.782,-0.805664
6.13333,259.798,-0.805745
6.135,259.815,-0.805813
6.13667,259.832,-0.805869
6.13833,259.848,-0.805921
6.14,259.865,-0.805972
6.14167,259.881,-0.806017
6.14333,259.898,-0.806063
6.145,259.915,-0.806115
6.14667,259.931,-0.806164
6.14833,259.948,-0.806219
6.15,259.965,-0.806283
6.15167,259.981,-0.806354
6.15333,259.998,-0.806427
6.155,260.014,-0.806499
6.15667,260.031,-0.80657
6.15833,260.047,-0.806636
6.16,260.064,-0.806696
6.16167,260.081,-0.80674
6.16333,260.097,-0.806786
6.165,260.114,-0.806828
6.16667,260.131,-0.806863
6.16833,260.147,-0.806898
6.17,260.164,-0.806935
6.17167,260.18,-0.806976
6.17333,260.197,-0.807023
6.175,260.213,-0.80708
6.17667,260.23,-0.807148
6.17833,260.246,-0.807227
6.18,260.263,-0.807312
6.18167,260.28,-0.807444
6.18333,260.296,-0.807604
6.185,260.313,-0.807701
6.18667,260.329,-0.807786
6.18833,260.346,-0.807861
6.19,260.363,-0.807928
6.19167,260.379,-0.807989
6.19333,260.396,-0.80805
6.195,260.413,-0.808113
6.19667,260.429,-0.808177
6.19833,260.446,-0.808243
6.2,260.462,-0.80831
6.20167,260.479,-0.808378
6.20333,260.495,-0.808448
6.205,260.512,-0.808518
6.20667,260.529,-0.808588
6.20833,260.546,-0.808656
6.21,260.562,-0.808717
6.21167,260.578,-0.808782
6.21333,260.595,-0.808853
6.215,260.611,-0.808923
6.21667,260.628,-0.809002
6.21833,260.645,-0.809085
6.22,260.661,-0.809167
6.22167,260.678,-0.809244
6.22333,260.695,-0.809316
6.225,260.711,-0.809383
6.22667,260.728,-0.80944
6.22833,260.744,-0.809492
6.23,260.761,-0.809539
6.23167,260.778,-0.809588
6.23333,260.795,-0.809635
6.235,260.811,-0.809685
6.23667,260.828,-0.809746
6.23833,260.844,-0.809818
6.24,260.861,-0.809899
6.24167,260.878,-0.809986
6.24333,260.894,-0.810076
6.245,260.911,-0.810174
6.24667,260.927,-0.810259
6.24833,260.943,-0.810334
6.25,260.96,-0.810402
6.25167,260.977,-0.810455
6.25333,260.993,-0.810493
6.255,261.01,-0.810523
6.25667,261.027,-0.81055
6.25833,261.043,-0.81058
6.26,261.06,-0.810613
6.26167,261.076,-0.810652
6.26333,261.093,-0.810697
6.265,261.109,-0.810757
6.26667,261.126,-0.810821
6.26833,261.143,-0.810891
6.27,261.159,-0.810964
6.27167,261.176,-0.811046
6.27333,261.193,-0.81115
6.275,261.209,-0.81123
6.27667,261.226,-0.811306
6.27833,261.243,-0.811381
6.28,261.259,-0.811461
6.28167,261.276,-0.811534
6.28333,261.292,-0.811601
6.285,261.309,-0.811667
6.28667,261.325,-0.811732
6.28833,261.341,-0.811795
6.29,261.358,-0.811859
6.29167,261.375,-0.811922
6.29333,261.392,-0.811986
6.295,261.409,-0.812048
6.29667,261.425,-0.812106
6.29833,261.442,-0.81216
6.3,261.458,-0.812219
6.30167,261.475,-0.812276
6.30333,261.492,-0.812328
6.305,261.508,-0.812389
6.30667,261.525,-0.812444
6.30833,261.542,-0.812501
6.31,261.558,-0.812553
6.31167,261.575,-0.8126
6.31333,261.591,-0.81264
6.315,261.608,-0.812686
6.31667,261.625,-0.812734
6.31833,261.641,-0.812774
6.32,261.658,-0.812817
6.32167,261.675,-0.812857
6.32333,261.691,-0.812898
6.325,261.708,-0.812938
6.32667,261.725,-0.812982
6.32833,261.741,-0.813036
6.33,261.758,-0.813096
6.33167,261.774,-0.81315
6.33333,261.791,-0.813202
6.335,261.807,-0.813257
6.33667,261.824,-0.813314
6.33833,261.84,-0.81337
6.34,261.857,-0.813423
6.34167,261.874,-0.813484
6.34333,261.891,-0.813546
6.345,261.908,-0.813617
6.34667,261.924,-0.81369
6.34833,261.941,-0.813757
6.35,261.957,-0.813818
6.35167,261.974,-0.813868
6.35333,261.99,-0.813906
6.355,262.007,-0.813948
6.35667,262.024,-0.813977
6.35833,262.04,-0.813994
6.36,262.057,-0.814016
6.36167,262.074,-0.814045
6.36333,262.09,-0.814087
6.365,262.106,-0.814133
6.36667,262.123,-0.814185
6.36833,262.139,-0.814247
6.37,262.156,-0.814321
6.37167,262.173,-0.814405
6.37333,262.19,-0.814502
6.375,262.207,-0.814608
6.37667,262.223,-0.814689
6.37833,262.239,-0.814765
6.38,262.256,-0.814837
6.38167,262.273,-0.814906
6.38333,262.289,-0.814968
6.385,262.306,-0.815029
6.38667,262.323,-0.815085
6.38833,262.339,-0.815139
6.39,262.356,-0.815191
6.39167,262.373,-0.815243
6.39333,262.389,-0.815294
6.395,262.406,-0.815346
6.39667,262.422,-0.815399
6.39833,262.439,-0.815456
6.4,262.455,-0.815503
6.40167,262.472,-0.815549
6.40333,262.489,-0.815592
6.405,262.505,-0.815643
6.40667,262.522,-0.815693
6.40833,262.539,-0.815744
6.41,262.555,-0.815793
6.41167,262.572,-0.815833
6.41333,262.588,-0.815877
6.415,262.605,-0.815921
6.41667,262.622,-0.81597
6.41833,262.638,-0.816013
6.42,262.655,-0.81606
6.42167,262.671,-0.816105
6.42333,262.688,-0.816146
6.425,262.705,-0.816191
6.42667,262.722,-0.816236
6.42833,262.738,-0.816286
6.43,262.755,-0.816334
6.43167,262.771,-0.816378
6.43333,262.788,-0.816418
6.435,262.805,-0.816461
6.43667,262.821,-0.81651
6.43833,262.838,-0.816561
6.44,262.854,-0.8166
6.44167,262.871,-0.816633
6.44333,262.888,-0.816671
6.445,262.905,-0.816711
6.44667,262.921,-0.816756
6.44833,262.938,-0.816798
6.45,262.954,-0.816842
6.45167,262.97,-0.816878
6.45333,262.987,-0.816907
6.455,263.004,-0.816933
6.45667,263.02,-0.816937
6.45833,263.037,-0.816939
6.46,263.054,-0.816932
6.46167,263.071,-0.816933
6.46333,263.087,-0.816947
6.465,263.104,-0.816973
6.46667,263.121,-0.817003
6.46833,263.137,-0.817044
6.47,263.154,-0.817096
6.47167,263.171,-0.817169
6.47333,263.187,-0.817305
6.475,263.204,-0.817417
6.47667,263.22,-0.817549
6.47833,263.237,-0.817712
6.48,263.254,-0.817855
6.48167,263.27,-0.817998
6.48333,263.287,-0.818155
6.485,263.304,-0.818233
6.48667,263.32,-0.818296
6.48833,263.337,-0.818359
6.49,263.353,-0.81842
6.49167,263.37,-0.818471
6.49333,263.387,-0.818516
6.495,263.403,-0.818549
6.49667,263.42,-0.818573
6.49833,263.437,-0.818601
6.5,263.453,-0.81863
6.50167,263.47,-0.818658
6.50333,263.486,-0.818685
6.505,263.503,-0.818705
6.50667,263.519,-0.818731
6.50833,263.536,-0.818755
6.51,263.553,-0.818775
6.51167,263.569,-0.818802
6.51333,263.586,-0.818826
6.515,263.603,-0.818857
6.51667,263.619,-0.818903
6.51833,263.636,-0.818952
6.52,263.653,-0.819014
6.52167,263.669,-0.81909
6.52333,263.686,-0.819157
6.525,263.703,-0.819204
6.52667,263.719,-0.819243
6.52833,263.736,-0.819274
6.53,263.752,-0.819297
6.53167,263.769,-0.819322
6.53333,263.785,-0.819345
6.535,263.802,-0.819365
6.53667,263.819,-0.819379
6.53833,263.835,-0.819401
6.54,263.852,-0.81943
6.54167,263.868,-0.819459
6.54333,263.885,-0.819484
6.545,263.902,-0.819518
6.54667,263.919,-0.81955
6.54833,263.935,-0.819586
6.55,263.952,-0.81962
6.55167,263.968,-0.819662
6.55333,263.984,-0.819711
6.555,264.001,-0.819753
6.55667,264.017,-0.819796
6.55833,264.034,-0.819845
6.56,264.05,-0.819891
6.56167,264.066,-0.819939
6.56333,264.083,-0.819985
6.565,264.1,-0.820034
6.56667,264.117,-0.820081
6.56833,264.134,-0.820137
6.57,264.15,-0.820194
6.57167,264.167,-0.82025
6.57333,264.184,-0.820304
6.575,264.2,-0.820352
6.57667,264.217,-0.820397
6.57833,264.234,-0.820445
6.58,264.25,-0.8205
6.58167,264.267,-0.820547
6.58333,264.283,-0.820593
6.585,264.3,-0.820636
6.58667,264.317,-0.820674
6.58833,264.333,-0.820711
6.59,264.35,-0.820745
6.59167,264.367,-0.820768
6.59333,264.383,-0.820785
6.595,264.4,-0.820796
6.59667,264.417,-0.820806
6.59833,264.434,-0.820818
6.6,264.45,-0.820828
6.60167,264.467,-0.820842
6.60333,264.483,-0.820862
6.605,264.5,-0.820885
6.60667,264.517,-0.820916
6.60833,264.534,-0.820949
6.61,264.55,-0.820989
6.61167,264.567,-0.821028
6.61333,264.583,-0.82106
6.615,264.6,-0.821097
6.61667,264.616,-0.821128
6.61833,264.634,-0.821155
6.62,264.65,-0.821185
6.62167,264.667,-0.821216
6.62333,264.684,-0.82125
6.625,264.701,-0.821288
6.62667,264.717,-0.821329
6.62833,264.733,-0.821373
6.63,264.75,-0.821419
6.63167,264.766,-0.821464
6.63333,264.783,-0.821515
6.635,264.8,-0.82156
6.63667,264.817,-0.821602
6.63833,264.833,-0.821642
6.64,264.85,-0.821685
6.64167,264.866,-0.82172
6.64333,264.883,-0.821757
6.645,264.9,-0.821803
6.64667,264.916,-0.82186
6.64833,264.933,-0.821931
6.65,264.949,-0.821999
6.65167,264.966,-0.82207
6.65333,264.983,-0.822169
6.655,265,-0.822252
6.65667,265.016,-0.822319
6.65833,265.032,-0.822381
6.66,265.049,-0.822429
6.66167,265.066,-0.82247
6.66333,265.083,-0.822502
6.665,265.099,-0.82254
6.66667,265.116,-0.822579
6.66833,265.133,-0.822627
6.67,265.15,-0.822674
6.67167,265.166,-0.822722
6.67333,265.183,-0.822765
6.675,265.199,-0.82281
6.67667,265.216,-0.82285
6.67833,265.233,-0.82289
6.68,265.249,-0.822936
6.68167,265.266,-0.822978
6.68333,265.283,-0.823024
6.685,265.299,-0.82307
6.68667,265.316,-0.823117
6.68833,265.333,-0.823155
6.69,265.349,-0.823188
6.69167,265.366,-0.823212
6.69333,265.382,-0.823233
6.695,265.399,-0.823252
6.69667,265.416,-0.823265
6.69833,265.432,-0.823277
6.7,265.449,-0.823291
6.70167,265.466,-0.823307
6.70333,265.482,-0.823329
6.705,265.499,-0.823357
6.70667,265.515,-0.823393
6.70833,265.532,-0.823436
6.71,265.548,-0.823478
6.71167,265.565,-0.823523
6.71333,265.582,-0.823576
6.715,265.599,-0.823623
6.71667,265.615,-0.823665
6.71833,265.632,-0.823703
6.72,265.649,-0.823739
6.72167,265.665,-0.823775
6.72333,265.682,-0.823805
6.725,265.699,-0.823838
6.72667,265.716,-0.823872
6.72833,265.732,-0.82391
6.73,265.749,-0.82394
6.73167,265.765,-0.82397
6.73333,265.782,-0.824003
6.735,265.799,-0.824025
6.73667,265.815,-0.824042
6.73833,265.832,-0.824055
6.74,265.849,-0.824077
6.74167,265.865,-0.824105
6.74333,265.882,-0.824138
6.745,265.899,-0.82418
6.74667,265.915,-0.824226
6.74833,265.932,-0.824282
6.75,265.949,-0.824331
6.75167,265.965,-0.824382
6.75333,265.982,-0.824435
6.755,265.998,-0.824489
6.75667,266.015,-0.82454
6.75833,266.032,-0.82459
6.76,266.048,-0.824633
6.76167,266.065,-0.82467
6.76333,266.082,-0.824701
6.765,266.098,-0.824725
6.76667,266.115,-0.824743
6.76833,266.131,-0.824754
6.77,266.148,-0.824761
6.77167,266.165,-0.824771
6.77333,266.181,-0.824785
6.775,266.198,-0.824807
6.77667,266.215,-0.824835
6.77833,266.232,-0.824871
6.78,266.248,-0.824907
6.78167,266.265,-0.824946
6.78333,266.281,-0.824986
6.785,266.298,-0.825024
6.78667,266.314,-0.825063
6.78833,266.331,-0.825109
6.79,266.348,-0.825156
6.79167,266.364,-0.8252
6.79333,266.381,-0.825248
6.795,266.398,-0.825294
6.79667,266.414,-0.82534
6.79833,266.431,-0.825382
6.8,266.448,-0.825413
6.80167,266.464,-0.825446
6.80333,266.481,-0.825482
6.805,266.497,-0.825518
6.80667,266.514,-0.825556
6.80833,266.531,-0.825599
6.81,266.548,-0.825647
6.81167,266.565,-0.825701
6.81333,266.581,-0.825756
6.815,266.598,-0.825812
6.81667,266.615,-0.825873
6.81833,266.631,-0.825924
6.82,266.648,-0.825969
6.82167,266.665,-0.826009
6.82333,266.681,-0.82604
6.825,266.698,-0.826065
6.82667,266.715,-0.826086
6.82833,266.731,-0.826099
6.83,266.748,-0.826112
6.83167,266.764,-0.826128
6.83333,266.781,-0.826151
6.835,266.797,-0.826176
6.83667,266.814,-0.826202
6.83833,266.831,-0.826229
6.84,266.847,-0.826263
6.84167,266.864,-0.826302
6.84333,266.881,-0.82633
6.845,266.897,-0.826362
6.84667,266.914,-0.826398
6.84833,266.931,-0.826429
6.85,266.947,-0.826458
6.85167,266.964,-0.826493
6.85333,266.981,-0.826525
6.855,266.997,-0.826552
6.85667,267.014,-0.826585
6.85833,267.031,-0.826621
6.86,267.047,-0.826654
6.86167,267.064,-0.826689
6.86333,267.08,-0.826728
6.865,267.097,-0.826763
6.86667,267.114,-0.826795
6.86833,267.13,-0.82683
6.87,267.147,-0.826864
6.87167,267.164,-0.826892
6.87333,267.18,-0.826918
6.875,267.197,-0.82694
6.87667,267.214,-0.826962
6.87833,267.23,-0.826986
6.88,267.247,-0.82701
6.88167,267.263,-0.82703
6.88333,267.28,-0.827057
6.885,267.297,-0.827088
6.88667,267.314,-0.827117
6.88833,267.33,-0.827148
6.89,267.347,-0.827182
6.89167,267.363,-0.82722
6.89333,267.38,-0.827254
6.895,267.397,-0.827285
6.89667,267.414,-0.827311
6.89833,267.43,-0.827333
6.9,267.447,-0.827348
6.90167,267.464,-0.827361
6.90333,267.48,-0.82737
6.905,267.497,-0.82738
6.90667,267.513,-0.827387
6.90833,267.53,-0.827399
6.91,267.547,-0.82741
6.91167,267.563,-0.827431
6.91333,267.58,-0.827461
6.915,267.596,-0.827497
6.91667,267.612,-0.827541
6.91833,267.629,-0.827584
6.92,267.646,-0.827629
6.92167,267.663,-0.827667
6.92333,267.68,-0.827705
6.925,267.696,-0.827733
6.92667,267.713,-0.827757
6.92833,267.73,-0.827776
6.93,267.746,-0.827785
6.93167,267.763,-0.827784
6.93333,267.78,-0.827781
6.935,267.796,-0.827794
6.93667,267.813,-0.827812
6.93833,267.829,-0.82784
6.94,267.846,-0.827868
6.94167,267.863,-0.827905
6.94333,267.879,-0.82794
6.945,267.896,-0.82797
6.94667,267.913,-0.828004
6.94833,267.93,-0.828048
6.95,267.946,-0.828081
6.95167,267.963,-0.828108
6.95333,267.979,-0.828149
6.955,267.996,-0.828191
6.95667,268.012,-0.828233
6.95833,268.029,-0.828273
6.96,268.046,-0.828322
6.96167,268.063,-0.828351
6.96333,268.079,-0.828374
6.965,268.096,-0.82839
6.96667,268.113,-0.828407
6.96833,268.129,-0.828419
6.97,268.146,-0.828431
6.97167,268.162,-0.828444
6.97333,268.179,-0.828459
6.975,268.195,-0.828481
6.97667,268.212,-0.828516
6.97833,268.229,-0.828562
6.98,268.245,-0.828612
6.98167,268.262,-0.828654
6.98333,268.278,-0.828698
6.985,268.295,-0.828747
6.98667,268.312,-0.828793
6.98833,268.329,-0.828843
6.99,268.345,-0.828892
6.99167,268.362,-0.828925
6.99333,268.378,-0.828954
6.995,268.395,-0.828974
6.99667,268.412,-0.82899
6.99833,268.429,-0.829008
7,268.445,-0.829016
7.00167,268.462,-0.829027
7.00333,268.479,-0.829036
7.005,268.495,-0.829049
7.00667,268.512,-0.829063
7.00833,268.529,-0.829075
7.01,268.546,-0.82909
7.01167,268.562,-0.82911
7.01333,268.579,-0.829134
7.015,268.595,-0.829164
7.01667,268.612,-0.829201
7.01833,268.629,-0.829237
7.02,268.645,-0.829274
7.02167,268.662,-0.829318
7.02333,268.679,-0.829363
7.025,268.695,-0.829405
7.02667,268.712,-0.829451
7.02833,268.729,-0.829494
7.03,268.745,-0.829532
7.03167,268.762,-0.82956
7.03333,268.779,-0.82959
7.035,268.796,-0.82962
7.03667,268.812,-0.829648
7.03833,268.828,-0.829675
7.04,268.845,-0.829703
7.04167,268.862,-0.829739
7.04333,268.878,-0.829773
7.045,268.895,-0.829799
7.04667,268.912,-0.829817
7.04833,268.928,-0.829834
7.05,268.945,-0.829857
7.05167,268.962,-0.82988
7.05333,268.978,-0.829897
7.055,268.995,-0.829913
7.05667,269.012,-0.829934
7.05833,269.028,-0.829963
7.06,269.045,-0.829994
7.06167,269.061,-0.830023
7.06333,269.078,-0.830051
7.065,269.094,-0.830082
7.06667,269.111,-0.830116
7.06833,269.128,-0.830152
7.07,269.145,-0.830186
7.07167,269.162,-0.830216
7.07333,269.178,-0.830239
7.075,269.195,-0.830258
7.07667,269.212,-0.830284
7.07833,269.229,-0.830307
7.08,269.246,-0.830337
7.08167,269.262,-0.830368
7.08333,269.279,-0.830403
7.085,269.295,-0.830436
7.08667,269.312,-0.830472
7.08833,269.328,-0.830506
7.09,269.345,-0.830535
7.09167,269.362,-0.830564
7.09333,269.378,-0.830591
7.095,269.395,-0.830611
7.09667,269.412,-0.83063
7.09833,269.429,-0.83065
7.1,269.445,-0.830676
7.10167,269.462,-0.830702
7.10333,269.478,-0.830731
7.105,269.495,-0.830759
7.10667,269.511,-0.830783
7.10833,269.528,-0.830804
7.11,269.545,-0.830825
7.11167,269.561,-0.830842
7.11333,269.578,-0.830849
7.115,269.595,-0.830858
7.11667,269.611,-0.830871
7.11833,269.628,-0.830897
7.12,269.645,-0.83093
7.12167,269.661,-0.830973
7.12333,269.678,-0.831022
7.125,269.695,-0.831083
7.12667,269.711,-0.831141
7.12833,269.728,-0.831216
7.13,269.745,-0.831274
7.13167,269.761,-0.831325
7.13333,269.778,-0.831367
7.135,269.795,-0.831398
7.13667,269.811,-0.831425
7.13833,269.828,-0.831448
7.14,269.845,-0.831461
7.14167,269.861,-0.83148
7.14333,269.878,-0.831501
7.145,269.894,-0.831519
7.14667,269.911,-0.831536
7.14833,269.928,-0.831552
7.15,269.944,-0.83158
7.15167,269.961,-0.831609
7.15333,269.978,-0.831643
7.155,269.994,-0.831679
7.15667,270.011,-0.831716
7.15833,270.028,-0.831755
7.16,270.044,-0.831792
7.16167,270.06,-0.831821
7.16333,270.077,-0.831848
7.165,270.094,-0.831875
7.16667,270.111,-0.831897
7.16833,270.127,-0.831911
7.17,270.144,-0.831919
7.17167,270.161,-0.831922
7.17333,270.177,-0.831932
7.175,270.194,-0.831934
7.17667,270.211,-0.831936
7.17833,270.227,-0.831941
7.18,270.244,-0.831947
7.18167,270.261,-0.831955
7.18333,270.277,-0.831961
7.185,270.294,-0.831967
7.18667,270.31,-0.83198
7.18833,270.327,-0.831993
7.19,270.343,-0.832005
7.19167,270.36,-0.832027
7.19333,270.377,-0.832046
7.195,270.393,-0.832063
7.19667,270.41,-0.832079
7.19833,270.426,-0.832096
7.2,270.443,-0.832119
7.20167,270.46,-0.832135
7.20333,270.477,-0.83215
7.205,270.493,-0.832164
7.20667,270.51,-0.832181
7.20833,270.527,-0.832199
7.21,270.543,-0.832213
7.21167,270.56,-0.832229
7.21333,270.576,-0.83225
7.215,270.593,-0.83227
7.21667,270.609,-0.832303
7.21833,270.626,-0.832339
7.22,270.643,-0.832384
7.22167,270.659,-0.832431
7.22333,270.676,-0.832483
7.225,270.693,-0.832536
7.22667,270.709,-0.832589
7.22833,270.726,-0.832642
7.23,270.743,-0.832691
7.23167,270.76,-0.832735
7.23333,270.776,-0.832772
7.235,270.793,-0.832809
7.23667,270.809,-0.832838
7.23833,270.826,-0.832857
7.24,270.843,-0.832868
7.24167,270.86,-0.832883
7.24333,270.876,-0.832889
7.245,270.893,-0.832892
7.24667,270.909,-0.832901
7.24833,270.926,-0.83292
7.25,270.942,-0.832944
7.25167,270.959,-0.832975
7.25333,270.976,-0.833013
7.255,270.992,-0.83305
7.25667,271.009,-0.833084
7.25833,271.026,-0.833113
7.26,271.043,-0.833139
7.26167,271.059,-0.83316
7.26333,271.076,-0.833175
7.265,271.093,-0.833191
7.26667,271.109,-0.833209
7.26833,271.126,-0.83323
7.27,271.142,-0.833251
7.27167,271.159,-0.833283
7.27333,271.176,-0.833315
7.275,271.193,-0.833348
7.27667,271.209,-0.833384
7.27833,271.226,-0.833426
7.28,271.242,-0.833462
7.28167,271.259,-0.8335
7.28333,271.276,-0.83354
7.285,271.293,-0.833573
7.28667,271.309,-0.833606
7.28833,271.326,-0.833631
7.29,271.342,-0.833664
7.29167,271.359,-0.833693
7.29333,271.376,-0.83373
7.295,271.393,-0.833768
7.29667,271.409,-0.833813
7.29833,271.426,-0.833856
7.3,271.442,-0.833887
7.30167,271.459,-0.833914
7.30333,271.476,-0.833932
7.305,271.492,-0.833944
7.30667,271.509,-0.833956
7.30833,271.525,-0.833971
7.31,271.542,-0.833986
7.31167,271.559,-0.834013
7.31333,271.576,-0.834047
7.315,271.592,-0.834079
7.31667,271.609,-0.834119
7.31833,271.625,-0.834158
7.32,271.642,-0.834196
7.32167,271.659,-0.83423
7.32333,271.676,-0.834255
7.325,271.692,-0.834282
7.32667,271.709,-0.834309
7.32833,271.726,-0.834333
7.33,271.742,-0.834352
7.33167,271.759,-0.834368
7.33333,271.775,-0.834385
7.335,271.792,-0.834394
7.33667,271.809,-0.834399
7.33833,271.825,-0.834417
7.34,271.842,-0.834438
7.34167,271.859,-0.834472
7.34333,271.875,-0.834513
7.345,271.892,-0.834559
7.34667,271.908,-0.83461
7.34833,271.925,-0.83466
7.35,271.942,-0.834701
7.35167,271.959,-0.83474
7.35333,271.975,-0.834774
7.355,271.992,-0.834798
7.35667,272.009,-0.834816
7.35833,272.025,-0.834832
7.36,272.041,-0.834841
7.36167,272.058,-0.834858
7.36333,272.075,-0.834876
7.365,272.092,-0.834907
7.36667,272.108,-0.834939
7.36833,272.125,-0.83497
7.37,272.142,-0.835001
7.37167,272.159,-0.835035
7.37333,272.175,-0.835078
7.375,272.192,-0.835125
7.37667,272.209,-0.835168
7.37833,272.225,-0.835206
7.38,272.242,-0.835243
7.38167,272.259,-0.835279
7.38333,272.275,-0.835313
7.385,272.292,-0.835344
7.38667,272.309,-0.835372
7.38833,272.325,-0.835397
7.39,272.342,-0.835421
7.39167,272.358,-0.83545
7.39333,272.375,-0.835482
7.395,272.392,-0.835505
7.39667,272.408,-0.835522
7.39833,272.425,-0.835543
7.4,272.442,-0.835568
7.40167,272.458,-0.835591
7.40333,272.475,-0.83561
7.405,272.492,-0.835624
7.40667,272.508,-0.835641
7.40833,272.525,-0.835654
7.41,272.542,-0.835667
7.41167,272.558,-0.835691
7.41333,272.575,-0.83572
7.415,272.591,-0.835744
7.41667,272.608,-0.835777
7.41833,272.624,-0.835811
7.42,272.641,-0.835846
7.42167,272.658,-0.835887
7.42333,272.674,-0.835932
7.425,272.691,-0.835979
7.42667,272.708,-0.836032
7.42833,272.725,-0.836084
7.43,272.741,-0.836136
7.43167,272.758,-0.836179
7.43333,272.775,-0.836214
7.435,272.792,-0.83624
7.43667,272.808,-0.836257
7.43833,272.825,-0.836266
7.44,272.841,-0.836276
7.44167,272.858,-0.836278
7.44333,272.875,-0.836276
7.445,272.891,-0.836277
7.44667,272.908,-0.836279
7.44833,272.925,-0.836286
7.45,272.941,-0.836294
7.45167,272.958,-0.836314
7.45333,272.974,-0.836341
7.455,272.991,-0.836375
7.45667,273.008,-0.836421
7.45833,273.024,-0.836475
7.46,273.041,-0.836526
7.46167,273.058,-0.836573
7.46333,273.074,-0.836622
7.465,273.091,-0.836674
7.46667,273.108,-0.836716
7.46833,273.125,-0.836754
7.47,273.141,-0.836788
7.47167,273.158,-0.836815
7.47333,273.174,-0.836844
7.475,273.191,-0.836881
7.47667,273.208,-0.836921
7.47833,273.224,-0.836962
7.48,273.241,-0.837006
7.48167,273.258,-0.837048
7.48333,273.274,-0.837096
7.485,273.291,-0.837135
7.48667,273.308,-0.837167
7.48833,273.324,-0.837201
7.49,273.341,-0.837231
7.49167,273.357,-0.83725
7.49333,273.374,-0.837263
7.495,273.391,-0.837278
7.49667,273.407,-0.837294
7.49833,273.424,-0.837309
7.5,273.44,-0.837322
7.50167,273.457,-0.837328
7.50333,273.474,-0.837331
7.505,273.49,-0.837338
7.50667,273.507,-0.837347
7.50833,273.524,-0.837364
7.51,273.541,-0.837388
7.51167,273.557,-0.837428
7.51333,273.574,-0.837475
7.515,273.591,-0.837525
7.51667,273.607,-0.837581
7.51833,273.624,-0.837657
7.52,273.641,-0.837717
7.52167,273.657,-0.837777
7.52333,273.674,-0.837828
7.525,273.691,-0.837876
7.52667,273.707,-0.837918
7.52833,273.724,-0.837955
7.53,273.74,-0.837988
7.53167,273.757,-0.83801
7.53333,273.774,-0.838019
7.535,273.791,-0.838031
7.53667,273.807,-0.838034
7.53833,273.824,-0.838034
7.54,273.84,-0.838044
7.54167,273.857,-0.83806
7.54333,273.874,-0.838081
7.545,273.891,-0.838093
7.54667,273.907,-0.838112
7.54833,273.924,-0.838127
7.55,273.94,-0.838139
7.55167,273.957,-0.838155
7.55333,273.974,-0.838177
7.555,273.99,-0.838203
7.55667,274.007,-0.838232
7.55833,274.024,-0.838275
7.56,274.04,-0.838316
7.56167,274.057,-0.838357
7.56333,274.074,-0.838392
7.565,274.09,-0.838438
7.56667,274.107,-0.838488
7.56833,274.123,-0.838531
7.57,274.14,-0.838567
7.57167,274.157,-0.838605
7.57333,274.174,-0.838641
7.575,274.191,-0.838676
7.57667,274.207,-0.838713
7.57833,274.224,-0.838745
7.58,274.241,-0.838774
7.58167,274.257,-0.838796
7.58333,274.274,-0.838815
7.585,274.291,-0.838841
7.58667,274.307,-0.838867
7.58833,274.324,-0.838896
7.59,274.341,-0.838922
7.59167,274.357,-0.838961
7.59333,274.374,-0.839002
7.595,274.391,-0.83904
7.59667,274.407,-0.83907
7.59833,274.423,-0.839095
7.6,274.439,-0.839117
7.60167,274.456,-0.839138
7.60333,274.473,-0.839156
7.605,274.49,-0.839171
7.60667,274.506,-0.83919
7.60833,274.523,-0.839201
7.61,274.54,-0.839221
7.61167,274.557,-0.839253
7.61333,274.573,-0.83929
7.615,274.59,-0.839323
7.61667,274.606,-0.839354
7.61833,274.623,-0.839394
7.62,274.64,-0.839441
7.62167,274.656,-0.839486
7.62333,274.673,-0.839532
7.625,274.69,-0.839576
7.62667,274.706,-0.839616
7.62833,274.723,-0.839648
7.63,274.739,-0.839678
7.63167,274.756,-0.839704
7.63333,274.773,-0.839726
7.635,274.789,-0.839745
7.63667,274.806,-0.839763
7.63833,274.823,-0.839788
7.64,274.84,-0.839819
7.64167,274.857,-0.839851
7.64333,274.873,-0.839888
7.645,274.89,-0.839922
7.64667,274.906,-0.839949
7.64833,274.923,-0.839975
7.65,274.94,-0.840006
7.65167,274.956,-0.84003
7.65333,274.973,-0.840054
7.655,274.99,-0.840075
7.65667,275.006,-0.840106
7.65833,275.023,-0.840133
7.66,275.04,-0.840158
7.66167,275.056,-0.840188
7.66333,275.073,-0.840219
7.665,275.09,-0.840242
7.66667,275.106,-0.840262
7.66833,275.123,-0.840275
7.67,275.14,-0.840277
7.67167,275.157,-0.840283
7.67333,275.173,-0.840281
7.675,275.19,-0.84029
7.67667,275.206,-0.840294
7.67833,275.223,-0.840297
7.68,275.24,-0.840304
7.68167,275.256,-0.840315
7.68333,275.273,-0.840337
7.685,275.289,-0.84037
7.68667,275.306,-0.840411
7.68833,275.323,-0.840452
7.69,275.34,-0.840497
7.69167,275.356,-0.840551
7.69333,275.373,-0.840632
7.695,275.39,-0.840689
7.69667,275.406,-0.840744
7.69833,275.423,-0.840794
7.7,275.44,-0.840839
7.70167,275.456,-0.840884
7.70333,275.473,-0.840927
7.705,275.489,-0.840963
7.70667,275.506,-0.840994
7.70833,275.522,-0.841022
7.71,275.539,-0.841049
7.71167,275.556,-0.841067
7.71333,275.572,-0.84108
7.715,275.589,-0.841098
7.71667,275.606,-0.841115
7.71833,275.623,-0.841134
7.72,275.639,-0.841155
7.72167,275.656,-0.841183
7.72333,275.673,-0.841208
7.725,275.689,-0.841236
7.72667,275.706,-0.841266
7.72833,275.722,-0.841296
7.73,275.739,-0.841334
7.73167,275.756,-0.841372
7.73333,275.772,-0.841413
7.735,275.789,-0.84145
7.73667,275.806,-0.841491
7.73833,275.822,-0.841526
7.74,275.839,-0.841561
7.74167,275.856,-0.841592
7.74333,275.872,-0.84162
7.745,275.889,-0.841651
7.74667,275.906,-0.84167
7.74833,275.922,-0.841688
7.75,275.939,-0.841702
7.75167,275.956,-0.841709
7.75333,275.972,-0.841719
7.755,275.989,-0.841735
7.75667,276.006,-0.841758
7.75833,276.022,-0.841785
7.76,276.039,-0.841811
7.76167,276.056,-0.841837
7.76333,276.072,-0.841863
7.765,276.089,-0.841885
7.76667,276.105,-0.841917
7.76833,276.122,-0.841944
7.77,276.138,-0.841982
7.77167,276.155,-0.842024
7.77333,276.172,-0.842068
7.775,276.189,-0.842117
7.77667,276.205,-0.84216
7.77833,276.222,-0.842201
7.78,276.239,-0.84224
7.78167,276.256,-0.842268
7.78333,276.272,-0.84229
7.785,276.289,-0.842315
7.78667,276.306,-0.842339
7.78833,276.322,-0.842364
7.79,276.339,-0.842383
7.79167,276.356,-0.842397
7.79333,276.372,-0.842417
7.795,276.389,-0.842428
7.79667,276.405,-0.842435
7.79833,276.422,-0.842451
7.8,276.439,-0.842475
7.80167,276.455,-0.842509
7.80333,276.472,-0.842544
7.805,276.489,-0.842586
7.80667,276.505,-0.842632
7.80833,276.522,-0.842674
7.81,276.539,-0.842714
7.81167,276.555,-0.84275
7.81333,276.572,-0.842774
7.815,276.588,-0.8428
7.81667,276.605,-0.842834
7.81833,276.622,-0.842879
7.82,276.638,-0.842938
7.82167,276.655,-0.843008
7.82333,276.672,-0.843092
7.825,276.689,-0.843156
7.82667,276.705,-0.84322
7.82833,276.722,-0.843279
7.83,276.739,-0.843325
7.83167,276.755,-0.843364
7.83333,276.772,-0.843391
7.835,276.789,-0.843411
7.83667,276.805,-0.84343
7.83833,276.822,-0.843457
7.84,276.839,-0.843485
7.84167,276.855,-0.843513
7.84333,276.872,-0.843543
7.845,276.888,-0.843583
7.84667,276.905,-0.843621
7.84833,276.922,-0.843656
7.85,276.938,-0.843694
7.85167,276.955,-0.843738
7.85333,276.972,-0.843782
7.855,276.988,-0.843815
7.85667,277.005,-0.843837
7.85833,277.021,-0.843847
7.86,277.038,-0.843844
7.86167,277.055,-0.843849
7.86333,277.071,-0.843852
7.865,277.088,-0.84386
7.86667,277.105,-0.843869
7.86833,277.121,-0.843885
7.87,277.138,-0.843919
7.87167,277.155,-0.843958
7.87333,277.171,-0.844
7.875,277.188,-0.844048
7.87667,277.205,-0.844095
7.87833,277.221,-0.844138
7.88,277.238,-0.844181
7.88167,277.254,-0.844221
7.88333,277.271,-0.844261
7.885,277.288,-0.844306
7.88667,277.305,-0.844348
7.88833,277.322,-0.844396
7.89,277.338,-0.844442
7.89167,277.355,-0.844484
7.89333,277.372,-0.844529
7.895,277.388,-0.844563
7.89667,277.405,-0.844596
7.89833,277.421,-0.844625
7.9,277.438,-0.844655
7.90167,277.454,-0.844687
7.90333,277.471,-0.844715
7.905,277.488,-0.844744
7.90667,277.505,-0.844775
7.90833,277.521,-0.844805
7.91,277.538,-0.844838
7.91167,277.555,-0.844873
7.91333,277.571,-0.844902
7.915,277.588,-0.844933
7.91667,277.604,-0.84496
7.91833,277.621,-0.844987
7.92,277.637,-0.845007
7.92167,277.654,-0.845028
7.92333,277.67,-0.845044
7.925,277.687,-0.845056
7.92667,277.704,-0.845061
7.92833,277.721,-0.845072
7.93,277.737,-0.845086
7.93167,277.754,-0.845099
7.93333,277.771,-0.845119
7.935,277.787,-0.845145
7.93667,277.804,-0.845171
7.93833,277.821,-0.845194
7.94,277.838,-0.845217
7.94167,277.854,-0.845242
7.94333,277.87,-0.845266
7.945,277.887,-0.845291
7.94667,277.904,-0.84532
7.94833,277.921,-0.845349
7.95,277.937,-0.845383
7.95167,277.954,-0.845416
7.95333,277.971,-0.845457
7.955,277.987,-0.845511
7.95667,278.004,-0.845566
7.95833,278.021,-0.845646
7.96,278.038,-0.845706
7.96167,278.054,-0.845763
7.96333,278.07,-0.845816
7.965,278.087,-0.845865
7.96667,278.104,-0.845913
7.96833,278.12,-0.845958
7.97,278.137,-0.846002
7.97167,278.154,-0.846037
7.97333,278.171,-0.846065
7.975,278.187,-0.846092
7.97667,278.204,-0.846119
7.97833,278.221,-0.846143
7.98,278.237,-0.84616
7.98167,278.254,-0.846173
7.98333,278.27,-0.846181
7.985,278.287,-0.846193
7.98667,278.304,-0.846206
7.98833,278.32,-0.846226
7.99,278.337,-0.846256
7.99167,278.354,-0.84628
7.99333,278.37,-0.846306
7.995,278.387,-0.846339
7.99667,278.403,-0.846381
7.99833,278.42,-0.846417
8,278.437,-0.846448
8.00167,278.453,-0.846478
8.00333,278.47,-0.846513
8.005,278.487,-0.846552
8.00667,278.503,-0.846589
8.00833,278.52,-0.846625
8.01,278.537,-0.846662
8.01167,278.553,-0.846697
8.01333,278.57,-0.846737
8.015,278.587,-0.846782
8.01667,278.604,-0.846823
8.01833,278.62,-0.846858
8.02,278.637,-0.846893
8.02167,278.654,-0.846922
8.02333,278.67,-0.846948
8.025,278.687,-0.846964
8.02667,278.703,-0.846978
8.02833,278.72,-0.84699
8.03,278.737,-0.847005
8.03167,278.754,-0.847024
8.03333,278.77,-0.847045
8.035,278.787,-0.84707
8.03667,278.804,-0.847098
8.03833,278.82,-0.847129
8.04,278.837,-0.847164
8.04167,278.853,-0.847203
8.04333,278.87,-0.847232
8.045,278.887,-0.847255
8.04667,278.903,-0.847274
8.04833,278.92,-0.847299
8.05,278.937,-0.847322
8.05167,278.953,-0.847347
8.05333,278.97,-0.847375
8.055,278.987,-0.847398
8.05667,279.003,-0.847421
8.05833,279.02,-0.847443
8.06,279.036,-0.84746
8.06167,279.053,-0.847479
8.06333,279.07,-0.847507
8.065,279.086,-0.847537
8.06667,279.103,-0.847565
8.06833,279.119,-0.847588
8.07,279.136,-0.847619
8.07167,279.153,-0.847654
8.07333,279.17,-0.84769
8.075,279.186,-0.847728
8.07667,279.203,-0.847765
8.07833,279.219,-0.847804
8.08,279.236,-0.847836
8.08167,279.253,-0.847862
8.08333,279.27,-0.847884
8.085,279.286,-0.847902
8.08667,279.303,-0.847927
8.08833,279.319,-0.847956
8.09,279.336,-0.847989
8.09167,279.352,-0.848031
8.09333,279.369,-0.848077
8.095,279.386,-0.848123
8.09667,279.403,-0.848169
8.09833,279.419,-0.84821
8.1,279.436,-0.848243
8.10167,279.453,-0.848267
8.10333,279.469,-0.848288
8.105,279.486,-0.848304
8.10667,279.503,-0.848324
8.10833,279.519,-0.848336
8.11,279.536,-0.848348
8.11167,279.552,-0.848357
8.11333,279.569,-0.848369
8.115,279.586,-0.848393
8.11667,279.602,-0.848423
8.11833,279.619,-0.848464
8.12,279.636,-0.848509
8.12167,279.653,-0.84857
8.12333,279.669,-0.84863
8.125,279.686,-0.848688
8.12667,279.703,-0.848743
8.12833,279.719,-0.848788
8.13,279.736,-0.848824
8.13167,279.753,-0.848846
8.13333,279.769,-0.848852
8.135,279.786,-0.848853
8.13667,279.802,-0.848857
8.13833,279.819,-0.848864
8.14,279.836,-0.84888
8.14167,279.852,-0.848899
8.14333,279.869,-0.848927
8.145,279.886,-0.848961
8.14667,279.902,-0.849002
8.14833,279.919,-0.84905
8.15,279.935,-0.849096
8.15167,279.952,-0.84914
8.15333,279.969,-0.849175
8.155,279.985,-0.849207
8.15667,280.002,-0.849243
8.15833,280.018,-0.849275
8.16,280.035,-0.8493
8.16167,280.052,-0.849337
8.16333,280.068,-0.849369
8.165,280.085,-0.849392
8.16667,280.101,-0.849424
8.16833,280.118,-0.849451
8.17,280.135,-0.84948
8.17167,280.152,-0.849518
8.17333,280.168,-0.849556
8.175,280.185,-0.849592
8.17667,280.202,-0.849624
8.17833,280.218,-0.849659
8.18,280.235,-0.849695
8.18167,280.252,-0.849731
8.18333,280.268,-0.849758
8.185,280.285,-0.849782
8.18667,280.301,-0.849802
8.18833,280.318,-0.849822
8.19,280.335,-0.849841
8.19167,280.351,-0.849861
8.19333,280.368,-0.849874
8.195,280.384,-0.849882
8.19667,280.401,-0.849887
8.19833,280.417,-0.849898
8.2,280.434,-0.849909
8.20167,280.451,-0.849928
8.20333,280.468,-0.849952
8.205,280.484,-0.84998
8.20667,280.501,-0.85001
8.20833,280.518,-0.850042
8.21,280.534,-0.850073
8.21167,280.551,-0.850103
8.21333,280.567,-0.850136
8.215,280.585,-0.85016
8.21667,280.601,-0.850181
8.21833,280.618,-0.850198
8.22,280.634,-0.850211
8.22167,280.651,-0.850226
8.22333,280.668,-0.850238
8.225,280.684,-0.850256
8.22667,280.701,-0.850274
8.22833,280.718,-0.850295
8.23,280.734,-0.850322
8.23167,280.751,-0.850348
8.23333,280.768,-0.850369
8.235,280.784,-0.850385
8.23667,280.801,-0.850403
8.23833,280.817,-0.850424
8.24,280.834,-0.85044
8.24167,280.851,-0.850456
8.24333,280.867,-0.850483
8.245,280.884,-0.850508
8.24667,280.901,-0.85054
8.24833,280.917,-0.850568
8.25,280.934,-0.850591
8.25167,280.95,-0.850603
8.25333,280.967,-0.850615
8.255,280.984,-0.850628
8.25667,281,-0.850636
8.25833,281.017,-0.850641
8.26,281.034,-0.850659
8.26167,281.05,-0.85068
8.26333,281.067,-0.85071
8.265,281.084,-0.850741
8.26667,281.1,-0.850786
8.26833,281.117,-0.850859
8.27,281.134,-0.850942
8.27167,281.15,-0.851024
8.27333,281.167,-0.851096
8.275,281.183,-0.851154
8.27667,281.2,-0.851199
8.27833,281.217,-0.851243
8.28,281.234,-0.851277
8.28167,281.25,-0.851296
8.28333,281.267,-0.851311
8.285,281.284,-0.85132
8.28667,281.3,-0.851327
8.28833,281.317,-0.851337
8.29,281.333,-0.851346
8.29167,281.35,-0.851356
8.29333,281.367,-0.851366
8.295,281.384,-0.851375
8.29667,281.4,-0.851391
8.29833,281.417,-0.851414
8.3,281.434,-0.851449
8.30167,281.45,-0.851484
8.30333,281.467,-0.85152
8.305,281.483,-0.851565
8.30667,281.5,-0.851602
8.30833,281.516,-0.851633
8.31,281.533,-0.851662
8.31167,281.55,-0.85169
8.31333,281.567,-0.851721
8.315,281.584,-0.851758
8.31667,281.6,-0.851797
8.31833,281.616,-0.85184
8.32,281.634,-0.851892
8.32167,281.65,-0.851947
8.32333,281.667,-0.852008
8.325,281.683,-0.852068
8.32667,281.7,-0.852114
8.32833,281.717,-0.852152
8.33,281.733,-0.852184
8.33167,281.75,-0.85221
8.33333,281.766,-0.852227
8.335,281.783,-0.852237
8.33667,281.799,-0.852257
8.33833,281.816,-0.852274
8.34,281.833,-0.852303
8.34167,281.85,-0.852338
8.34333,281.867,-0.852377
8.345,281.884,-0.852427
8.34667,281.9,-0.852476
8.34833,281.917,-0.85252
8.35,281.933,-0.852561
8.35167,281.95,-0.852603
8.35333,281.967,-0.852647
8.355,281.983,-0.85269
8.35667,282,-0.852723
8.35833,282.016,-0.852754
8.36,282.033,-0.852778
8.36167,282.05,-0.852801
8.36333,282.066,-0.852828
8.365,282.083,-0.852863
8.36667,282.1,-0.852902
8.36833,282.116,-0.852937
8.37,282.133,-0.852976
8.37167,282.15,-0.853017
8.37333,282.166,-0.853058
8.375,282.183,-0.853102
8.37667,282.2,-0.853145
8.37833,282.216,-0.853183
8.38,282.233,-0.853218
8.38167,282.249,-0.853244
8.38333,282.266,-0.853273
8.385,282.283,-0.853298
8.38667,282.299,-0.853327
8.38833,282.316,-0.853365
8.39,282.333,-0.853411
8.39167,282.349,-0.853458
8.39333,282.366,-0.853505
8.395,282.383,-0.853559
8.39667,282.399,-0.853611
8.39833,282.416,-0.853654
8.4,282.432,-0.853688
8.40167,282.449,-0.853712
8.40333,282.466,-0.853738
8.405,282.483,-0.853753
8.40667,282.499,-0.853768
8.40833,282.516,-0.853781
8.41,282.533,-0.853793
8.41167,282.549,-0.85381
8.41333,282.566,-0.853831
8.415,282.583,-0.853853
8.41667,282.599,-0.85388
8.41833,282.616,-0.853907
8.42,282.633,-0.853946
8.42167,282.649,-0.853982
8.42333,282.666,-0.854013
8.425,282.683,-0.854039
8.42667,282.699,-0.854065
8.42833,282.716,-0.854085
8.43,282.733,-0.854098
8.43167,282.749,-0.854103
8.43333,282.766,-0.854108
8.435,282.783,-0.854115
8.43667,282.799,-0.854125
8.43833,282.816,-0.854152
8.44,282.832,-0.854177
8.44167,282.849,-0.854211
8.44333,282.865,-0.854254
8.445,282.882,-0.854306
8.44667,282.899,-0.854362
8.44833,282.916,-0.854413
8.45,282.933,-0.854466
8.45167,282.949,-0.854514
8.45333,282.966,-0.854565
8.455,282.983,-0.854605
8.45667,282.999,-0.854641
8.45833,283.016,-0.854666
8.46,283.033,-0.854687
8.46167,283.049,-0.85471
8.46333,283.066,-0.854731
8.465,283.083,-0.85475
8.46667,283.099,-0.854768
8.46833,283.116,-0.854791
8.47,283.133,-0.854826
8.47167,283.149,-0.854877
8.47333,283.166,-0.854935
8.475,283.182,-0.854992
8.47667,283.199,-0.855044
8.47833,283.216,-0.855093
8.48,283.233,-0.855139
8.48167,283.249,-0.855175
8.48333,283.266,-0.855196
8.485,283.283,-0.855214
8.48667,283.299,-0.855227
8.48833,283.316,-0.855232
8.49,283.333,-0.855243
8.49167,283.349,-0.855252
8.49333,283.365,-0.855269
8.495,283.382,-0.855293
8.49667,283.399,-0.855318
8.49833,283.416,-0.855344
8.5,283.432,-0.855365
8.50167,283.449,-0.855392
8.50333,283.466,-0.855419
8.505,283.482,-0.855448
8.50667,283.499,-0.855481
8.50833,283.516,-0.855513
8.51,283.533,-0.855552
8.51167,283.549,-0.8556
8.51333,283.566,-0.855652
8.515,283.582,-0.855706
8.51667,283.599,-0.855766
8.51833,283.616,-0.855829
8.52,283.632,-0.855891
8.52167,283.649,-0.855942
8.52333,283.666,-0.855979
8.525,283.682,-0.856014
8.52667,283.699,-0.856043
8.52833,283.716,-0.856067
8.53,283.732,-0.856083
8.53167,283.749,-0.856094
8.53333,283.766,-0.856102
8.535,283.783,-0.856122
8.53667,283.799,-0.856149
8.53833,283.816,-0.856184
8.54,283.833,-0.85622
8.54167,283.849,-0.856261
8.54333,283.866,-0.856303
8.545,283.882,-0.856343
8.54667,283.899,-0.856381
8.54833,283.916,-0.856412
8.55,283.933,-0.856441
8.55167,283.949,-0.856473
8.55333,283.966,-0.856509
8.555,283.983,-0.856541
8.55667,284,-0.856572
8.55833,284.016,-0.856605
8.56,284.033,-0.856646
8.56167,284.049,-0.85669
8.56333,284.066,-0.856732
8.565,284.083,-0.85678
8.56667,284.099,-0.856824
8.56833,284.116,-0.856872
8.57,284.133,-0.856919
8.57167,284.149,-0.856963
8.57333,284.166,-0.857005
8.575,284.183,-0.857036
8.57667,284.199,-0.857066
8.57833,284.216,-0.857096
8.58,284.233,-0.857124
8.58167,284.249,-0.85715
8.58333,284.266,-0.857178
8.585,284.283,-0.85721
8.58667,284.299,-0.857253
8.58833,284.316,-0.857297
8.59,284.333,-0.857341
8.59167,284.349,-0.857394
8.59333,284.366,-0.857454
8.595,284.382,-0.857506
8.59667,284.399,-0.857555
8.59833,284.416,-0.857602
8.6,284.433,-0.857646
8.60167,284.449,-0.857699
8.60333,284.466,-0.857739
8.605,284.483,-0.857784
8.60667,284.5,-0.857826
8.60833,284.516,-0.857872
8.61,284.533,-0.857913
8.61167,284.55,-0.857955
8.61333,284.567,-0.857995
8.615,284.583,-0.858023
8.61667,284.599,-0.858052
8.61833,284.616,-0.858079
8.62,284.633,-0.858107
8.62167,284.65,-0.858138
8.62333,284.666,-0.858173
8.625,284.683,-0.858215
8.62667,284.699,-0.858257
8.62833,284.716,-0.858291
8.63,284.733,-0.858321
8.63167,284.75,-0.858341
8.63333,284.766,-0.858355
8.635,284.783,-0.858363
8.63667,284.8,-0.858362
8.63833,284.816,-0.858366
8.64,284.833,-0.858379
8.64167,284.85,-0.858408
8.64333,284.867,-0.858449
8.645,284.883,-0.8585
8.64667,284.9,-0.858558
8.64833,284.917,-0.85862
8.65,284.933,-0.858683
8.65167,284.95,-0.858746
8.65333,284.966,-0.858803
8.655,284.983,-0.858843
8.65667,285,-0.858869
8.65833,285.017,-0.858883
8.66,285.033,-0.858896
8.66167,285.049,-0.858907
8.66333,285.066,-0.858918
8.665,285.083,-0.858931
8.66667,285.1,-0.858946
8.66833,285.116,-0.858978
8.67,285.133,-0.859017
8.67167,285.15,-0.859058
8.67333,285.166,-0.859104
8.675,285.183,-0.859152
8.67667,285.2,-0.859194
8.67833,285.217,-0.859232
8.68,285.233,-0.859267
8.68167,285.25,-0.859296
8.68333,285.267,-0.859324
8.685,285.283,-0.859344
8.68667,285.3,-0.859371
8.68833,285.317,-0.8594
8.69,285.334,-0.859424
8.69167,285.35,-0.859453
8.69333,285.367,-0.859484
8.695,285.383,-0.859511
8.69667,285.4,-0.85954
8.69833,285.416,-0.859576
8.7,285.433,-0.859609
8.70167,285.45,-0.859639
8.70333,285.466,-0.859667
8.705,285.483,-0.859701
8.70667,285.5,-0.859737
8.70833,285.516,-0.859775
8.71,285.533,-0.859812
8.71167,285.549,-0.859851
8.71333,285.566,-0.859885
8.715,285.582,-0.859923
8.71667,285.6,-0.859964
8.71833,285.616,-0.860007
8.72,285.633,-0.860038
8.72167,285.65,-0.860064
8.72333,285.666,-0.86009
8.725,285.683,-0.860115
8.72667,285.699,-0.86014
8.72833,285.716,-0.860166
8.73,285.733,-0.86019
8.73167,285.75,-0.860215
8.73333,285.766,-0.860239
8.735,285.783,-0.860268
8.73667,285.8,-0.860299
8.73833,285.817,-0.860335
8.74,285.833,-0.860376
8.74167,285.85,-0.860424
8.74333,285.866,-0.860477
8.745,285.883,-0.860538
8.74667,285.9,-0.860625
8.74833,285.916,-0.860691
8.75,285.933,-0.86074
8.75167,285.949,-0.860772
8.75333,285.966,-0.860792
8.755,285.983,-0.860795
8.75667,286,-0.860791
8.75833,286.017,-0.860789
8.76,286.033,-0.860788
8.76167,286.05,-0.860791
8.76333,286.066,-0.860808
8.765,286.083,-0.860836
8.76667,286.1,-0.860867
8.76833,286.116,-0.860916
8.77,286.133,-0.860967
8.77167,286.15,-0.86103
8.77333,286.166,-0.861112
8.775,286.183,-0.861196
8.77667,286.2,-0.86129
8.77833,286.216,-0.861429
8.78,286.233,-0.86152
8.78167,286.25,-0.861603
8.78333,286.266,-0.861669
8.785,286.283,-0.86172
8.78667,286.299,-0.861765
8.78833,286.316,-0.861799
8.79,286.333,-0.86183
8.79167,286.35,-0.861856
8.79333,286.366,-0.861878
8.795,286.383,-0.861907
8.79667,286.4,-0.861935
8.79833,286.417,-0.861965
8.8,286.433,-0.861997
8.80167,286.449,-0.862038
8.80333,286.466,-0.862076
8.805,286.483,-0.862105
8.80667,286.5,-0.862133
8.80833,286.516,-0.86216
8.81,286.533,-0.862176
8.81167,286.549,-0.862191
8.81333,286.566,-0.86221
8.815,286.582,-0.862243
8.81667,286.599,-0.862282
8.81833,286.616,-0.862322
8.82,286.633,-0.86237
8.82167,286.65,-0.862424
8.82333,286.666,-0.862478
8.825,286.683,-0.862532
8.82667,286.699,-0.862587
8.82833,286.716,-0.862635
8.83,286.732,-0.862679
8.83167,286.749,-0.862722
8.83333,286.766,-0.862768
8.835,286.782,-0.862804
8.83667,286.799,-0.862837
8.83833,286.816,-0.862877
8.84,286.833,-0.862917
8.84167,286.849,-0.862962
8.84333,286.866,-0.863007
8.845,286.882,-0.863056
8.84667,286.899,-0.863103
8.84833,286.916,-0.863149
8.85,286.932,-0.863193
8.85167,286.949,-0.863237
8.85333,286.965,-0.863274
8.855,286.982,-0.863313
8.85667,286.999,-0.863355
8.85833,287.015,-0.863397
8.86,287.032,-0.863444
8.86167,287.049,-0.863498
8.86333,287.066,-0.863546
8.865,287.082,-0.86359
8.86667,287.099,-0.863634
8.86833,287.116,-0.863679
8.87,287.132,-0.863724
8.87167,287.149,-0.863764
8.87333,287.166,-0.863802
8.875,287.182,-0.863843
8.87667,287.199,-0.863881
8.87833,287.215,-0.863924
8.88,287.232,-0.863971
8.88167,287.248,-0.864008
8.88333,287.265,-0.864039
8.885,287.282,-0.864072
8.88667,287.298,-0.864111
8.88833,287.315,-0.864152
8.89,287.332,-0.864192
8.89167,287.349,-0.864232
8.89333,287.365,-0.864269
8.895,287.382,-0.864307
8.89667,287.398,-0.864344
8.89833,287.415,-0.864374
8.9,287.432,-0.864395
8.90167,287.449,-0.864408
8.90333,287.465,-0.864423
8.905,287.482,-0.864445
8.90667,287.499,-0.864463
8.90833,287.515,-0.864487
8.91,287.532,-0.86452
8.91167,287.548,-0.864564
8.91333,287.565,-0.864607
8.915,287.582,-0.864657
8.91667,287.598,-0.864715
8.91833,287.615,-0.864776
8.92,287.631,-0.864827
8.92167,287.648,-0.86488
8.92333,287.665,-0.864928
8.925,287.682,-0.864977
8.92667,287.698,-0.865029
8.92833,287.715,-0.865072
8.93,287.731,-0.865122
8.93167,287.748,-0.865165
8.93333,287.765,-0.865202
8.935,287.781,-0.865244
8.93667,287.798,-0.865279
8.93833,287.814,-0.86531
8.94,287.831,-0.86533
8.94167,287.848,-0.865354
8.94333,287.865,-0.865383
8.945,287.881,-0.865418
8.94667,287.898,-0.865454
8.94833,287.915,-0.865494
8.95,287.931,-0.865547
8.95167,287.948,-0.865611
8.95333,287.965,-0.865677
8.955,287.981,-0.865757
8.95667,287.997,-0.865825
8.95833,288.014,-0.865885
8.96,288.03,-0.865933
8.96167,288.047,-0.865973
8.96333,288.064,-0.866009
8.965,288.08,-0.866033
8.96667,288.097,-0.866059
8.96833,288.114,-0.86608
8.97,288.13,-0.866106
8.97167,288.147,-0.866134
8.97333,288.164,-0.866174
8.975,288.18,-0.866218
8.97667,288.197,-0.866273
8.97833,288.214,-0.86633
8.98,288.23,-0.866384
8.98167,288.247,-0.866433
8.98333,288.264,-0.866486
8.985,288.281,-0.866541
8.98667,288.297,-0.866596
8.98833,288.314,-0.866644
8.99,288.331,-0.866689
8.99167,288.347,-0.866725
8.99333,288.364,-0.866757
8.995,288.381,-0.866789
8.99667,288.398,-0.86682
8.99833,288.414,-0.866849
9,288.431,-0.866877
9.00167,288.447,-0.866906
9.00333,288.463,-0.866933
9.005,288.48,-0.866958
9.00667,288.497,-0.866987
9.00833,288.514,-0.867018
9.01,288.531,-0.867045
9.01167,288.547,-0.867076
9.01333,288.564,-0.867107
9.015,288.58,-0.867132
9.01667,288.597,-0.867164
9.01833,288.614,-0.867198
9.02,288.63,-0.867242
9.02167,288.646,-0.867283
9.02333,288.663,-0.867323
9.025,288.68,-0.867371
9.02667,288.696,-0.867421
9.02833,288.714,-0.867474
9.03,288.73,-0.867531
9.03167,288.747,-0.867585
9.03333,288.763,-0.867637
9.035,288.78,-0.867694
9.03667,288.797,-0.867755
9.03833,288.813,-0.867818
9.04,288.83,-0.867905
9.04167,288.847,-0.868005
9.04333,288.863,-0.868093
9.045,288.88,-0.868207
9.04667,288.896,-0.868326
9.04833,288.913,-0.868452
9.05,288.929,-0.868528
9.05167,288.946,-0.86859
9.05333,288.963,-0.868649
9.055,288.98,-0.868711
9.05667,288.996,-0.868772
9.05833,289.013,-0.868826
9.06,289.03,-0.868878
9.06167,289.046,-0.868933
9.06333,289.063,-0.868989
9.065,289.08,-0.869043
9.06667,289.096,-0.869091
9.06833,289.113,-0.869134
9.07,289.129,-0.86917
9.07167,289.146,-0.869202
9.07333,289.163,-0.869229
9.075,289.179,-0.869263
9.07667,289.195,-0.869298
9.07833,289.212,-0.869329
9.08,289.229,-0.869358
9.08167,289.246,-0.869392
9.08333,289.263,-0.86943
9.085,289.279,-0.869472
9.08667,289.296,-0.869514
9.08833,289.312,-0.869551
9.09,289.329,-0.869593
9.09167,289.346,-0.869636
9.09333,289.362,-0.869683
9.095,289.379,-0.86974
9.09667,289.396,-0.869793
9.09833,289.412,-0.869848
9.1,289.429,-0.869902
9.10167,289.446,-0.869965
9.10333,289.462,-0.870031
9.105,289.479,-0.870097
9.10667,289.496,-0.870162
9.10833,289.512,-0.870218
9.11,289.529,-0.870269
9.11167,289.545,-0.870309
9.11333,289.562,-0.870349
9.115,289.579,-0.870384
9.11667,289.595,-0.870421
9.11833,289.612,-0.870453
9.12,289.628,-0.870483
9.12167,289.645,-0.870525
9.12333,289.661,-0.870568
9.125,289.678,-0.870612
9.12667,289.695,-0.870661
9.12833,289.711,-0.870717
9.13,289.728,-0.870785
9.13167,289.745,-0.870843
9.13333,289.761,-0.870898
9.135,289.778,-0.870948
9.13667,289.795,-0.870992
9.13833,289.811,-0.871032
9.14,289.828,-0.87107
9.14167,289.845,-0.871106
9.14333,289.861,-0.871144
9.145,289.878,-0.871189
9.14667,289.895,-0.871232
9.14833,289.911,-0.871279
9.15,289.927,-0.871326
9.15167,289.944,-0.87137
9.15333,289.961,-0.871414
9.155,289.978,-0.871461
9.15667,289.994,-0.871506
9.15833,290.011,-0.871545
9.16,290.027,-0.871587
9.16167,290.044,-0.87162
9.16333,290.061,-0.871658
9.165,290.077,-0.8717
9.16667,290.094,-0.871745
9.16833,290.111,-0.871791
9.17,290.128,-0.87184
9.17167,290.144,-0.871882
9.17333,290.161,-0.871935
9.175,290.177,-0.871986
9.17667,290.194,-0.872034
9.17833,290.21,-0.87208
9.18,290.227,-0.872127
9.18167,290.244,-0.872178
9.18333,290.26,-0.872229
9.185,290.277,-0.87228
9.18667,290.294,-0.872336
9.18833,290.31,-0.872395
9.19,290.327,-0.872448
9.19167,290.344,-0.872516
9.19333,290.36,-0.872578
9.195,290.377,-0.872641
9.19667,290.393,-0.872706
9.19833,290.41,-0.872773
9.2,290.427,-0.872846
9.20167,290.443,-0.872922
9.20333,290.46,-0.873
9.205,290.477,-0.873077
9.20667,290.493,-0.873154
9.20833,290.51,-0.873227
9.21,290.527,-0.873303
9.21167,290.543,-0.873366
9.21333,290.56,-0.873429
9.215,290.576,-0.873492
9.21667,290.593,-0.873555
9.21833,290.61,-0.873619
9.22,290.626,-0.873673
9.22167,290.643,-0.873724
9.22333,290.659,-0.873775
9.225,290.676,-0.873827
9.22667,290.693,-0.87388
9.22833,290.709,-0.873931
9.23,290.726,-0.873975
9.23167,290.743,-0.874022
9.23333,290.759,-0.874076
9.235,290.776,-0.87414
9.23667,290.793,-0.874203
9.23833,290.81,-0.874253
9.24,290.826,-0.874303
9.24167,290.843,-0.874361
9.24333,290.859,-0.874422
9.245,290.876,-0.874481
9.24667,290.893,-0.874536
9.24833,290.909,-0.874594
9.25,290.926,-0.874647
9.25167,290.942,-0.874696
9.25333,290.959,-0.874742
9.255,290.975,-0.874778
9.25667,290.992,-0.874813
9.25833,291.009,-0.874849
9.26,291.026,-0.874895
9.26167,291.042,-0.874945
9.26333,291.059,-0.875
9.265,291.075,-0.875056
9.26667,291.092,-0.875121
9.26833,291.109,-0.875181
9.27,291.125,-0.875229
9.27167,291.142,-0.875282
9.27333,291.159,-0.875341
9.275,291.175,-0.8754
9.27667,291.192,-0.875452
9.27833,291.208,-0.875511
9.28,291.225,-0.875567
9.28167,291.242,-0.875612
9.28333,291.258,-0.875657
9.285,291.275,-0.875712
9.28667,291.292,-0.875769
9.28833,291.308,-0.875822
9.29,291.325,-0.875878
9.29167,291.341,-0.875934
9.29333,291.358,-0.875989
9.295,291.375,-0.876043
9.29667,291.392,-0.876093
9.29833,291.408,-0.876137
9.3,291.425,-0.876187
9.30167,291.442,-0.876243
9.30333,291.458,-0.876306
9.305,291.475,-0.876366
9.30667,291.492,-0.876426
9.30833,291.508,-0.876494
9.31,291.525,-0.87656
9.31167,291.541,-0.876626
9.31333,291.558,-0.876679
9.315,291.574,-0.876721
9.31667,291.591,-0.876759
9.31833,291.608,-0.876787
9.32,291.625,-0.876816
9.32167,291.641,-0.876844
9.32333,291.657,-0.876881
9.325,291.674,-0.876929
9.32667,291.691,-0.876981
9.32833,291.707,-0.877051
9.33,291.724,-0.877121
9.33167,291.741,-0.877187
9.33333,291.758,-0.87726
9.335,291.774,-0.877332
9.33667,291.791,-0.877406
9.33833,291.808,-0.877486
9.34,291.824,-0.877571
9.34167,291.841,-0.877652
9.34333,291.857,-0.877728
9.345,291.874,-0.877789
9.34667,291.891,-0.877852
9.34833,291.908,-0.877914
9.35,291.924,-0.877979
9.35167,291.94,-0.878039
9.35333,291.957,-0.8781
9.355,291.974,-0.878166
9.35667,291.991,-0.878229
9.35833,292.007,-0.878289
9.36,292.024,-0.878351
9.36167,292.041,-0.878418
9.36333,292.057,-0.87848
9.365,292.074,-0.878545
9.36667,292.091,-0.878611
9.36833,292.108,-0.878672
9.37,292.124,-0.878721
9.37167,292.141,-0.87876
9.37333,292.158,-0.878797
9.375,292.174,-0.878831
9.37667,292.19,-0.878867
9.37833,292.207,-0.878896
9.38,292.224,-0.87893
9.38167,292.241,-0.878972
9.38333,292.257,-0.879031
9.385,292.274,-0.8791
9.38667,292.291,-0.879172
9.38833,292.307,-0.879239
9.39,292.324,-0.879307
9.39167,292.34,-0.879365
9.39333,292.357,-0.87942
9.395,292.374,-0.879471
9.39667,292.39,-0.879512
9.39833,292.407,-0.879552
9.4,292.423,-0.879584
9.40167,292.44,-0.879625
9.40333,292.457,-0.879672
9.405,292.473,-0.879721
9.40667,292.49,-0.879781
9.40833,292.507,-0.879835
9.41,292.523,-0.879891
9.41167,292.54,-0.879943
9.41333,292.557,-0.879993
9.415,292.573,-0.880049
9.41667,292.59,-0.880109
9.41833,292.607,-0.880173
9.42,292.623,-0.880237
9.42167,292.64,-0.880299
9.42333,292.657,-0.880363
9.425,292.673,-0.880427
9.42667,292.69,-0.8805
9.42833,292.706,-0.880578
9.43,292.723,-0.880661
9.43167,292.74,-0.880737
9.43333,292.756,-0.880807
9.435,292.773,-0.880887
9.43667,292.79,-0.880967
9.43833,292.807,-0.881035
9.44,292.823,-0.881088
9.44167,292.84,-0.881127
9.44333,292.857,-0.881157
9.445,292.873,-0.881189
9.44667,292.89,-0.881225
9.44833,292.907,-0.88125
9.45,292.923,-0.881281
9.45167,292.94,-0.881318
9.45333,292.957,-0.881367
9.455,292.973,-0.881418
9.45667,292.99,-0.881475
9.45833,293.007,-0.881542
9.46,293.023,-0.881607
9.46167,293.04,-0.881667
9.46333,293.057,-0.881725
9.465,293.073,-0.881779
9.46667,293.09,-0.881824
9.46833,293.106,-0.881875
9.47,293.123,-0.881932
9.47167,293.14,-0.881997
9.47333,293.156,-0.88207
9.475,293.173,-0.88215
9.47667,293.19,-0.882244
9.47833,293.207,-0.882325
9.48,293.223,-0.8824
9.48167,293.239,-0.882466
9.48333,293.256,-0.882523
9.485,293.272,-0.882572
9.48667,293.289,-0.882613
9.48833,293.306,-0.88265
9.49,293.323,-0.882684
9.49167,293.339,-0.882729
9.49333,293.356,-0.882787
9.495,293.373,-0.882852
9.49667,293.389,-0.882925
9.49833,293.406,-0.883003
9.5,293.423,-0.883083
9.50167,293.44,-0.883168
9.50333,293.456,-0.883251
9.505,293.473,-0.883325
9.50667,293.489,-0.883398
9.50833,293.506,-0.883467
9.51,293.522,-0.883531
9.51167,293.539,-0.883598
9.51333,293.556,-0.883667
9.515,293.573,-0.883738
9.51667,293.589,-0.883812
9.51833,293.606,-0.883886
9.52,293.623,-0.883957
9.52167,293.639,-0.884031
9.52333,293.656,-0.8841
9.525,293.673,-0.884159
9.52667,293.689,-0.884209
9.52833,293.706,-0.884256
9.53,293.723,-0.884298
9.53167,293.739,-0.884333
9.53333,293.756,-0.884363
9.535,293.772,-0.884389
9.53667,293.789,-0.884421
9.53833,293.806,-0.884462
9.54,293.822,-0.884515
9.54167,293.839,-0.884585
9.54333,293.855,-0.884656
9.545,293.872,-0.884734
9.54667,293.889,-0.884816
9.54833,293.906,-0.884897
9.55,293.923,-0.884976
9.55167,293.939,-0.885041
9.55333,293.956,-0.885097
9.555,293.972,-0.885152
9.55667,293.989,-0.88521
9.55833,294.006,-0.885256
9.56,294.022,-0.885308
9.56167,294.039,-0.885357
9.56333,294.055,-0.885408
9.565,294.072,-0.885457
9.56667,294.089,-0.885505
9.56833,294.105,-0.885548
9.57,294.122,-0.885582
9.57167,294.138,-0.885623
9.57333,294.155,-0.88567
9.575,294.172,-0.885723
9.57667,294.189,-0.885778
9.57833,294.205,-0.885834
9.58,294.222,-0.88589
9.58167,294.238,-0.885946
9.58333,294.255,-0.885999
9.585,294.272,-0.886049
9.58667,294.289,-0.886102
9.58833,294.305,-0.886149
9.59,294.322,-0.8862
9.59167,294.339,-0.886246
9.59333,294.355,-0.886286
9.595,294.372,-0.886331
9.59667,294.389,-0.886382
9.59833,294.406,-0.886439
9.6,294.422,-0.8865
9.60167,294.439,-0.886566
9.60333,294.455,-0.886625
9.605,294.472,-0.886685
9.60667,294.489,-0.886736
9.60833,294.505,-0.886776
9.61,294.522,-0.886811
9.61167,294.538,-0.886833
9.61333,294.555,-0.886857
9.615,294.572,-0.886886
9.61667,294.589,-0.886921
9.61833,294.605,-0.886957
9.62,294.622,-0.887002
9.62167,294.639,-0.887045
9.62333,294.655,-0.887094
9.625,294.672,-0.88715
9.62667,294.688,-0.887212
9.62833,294.705,-0.88731
9.63,294.722,-0.887407
9.63167,294.738,-0.887522
9.63333,294.755,-0.887612
9.635,294.772,-0.887688
9.63667,294.789,-0.887759
9.63833,294.805,-0.887821
9.64,294.822,-0.887874
9.64167,294.839,-0.887918
9.64333,294.855,-0.887964
9.645,294.872,-0.888008
9.64667,294.888,-0.888057
9.64833,294.905,-0.888106
9.65,294.922,-0.888147
9.65167,294.938,-0.888188
9.65333,294.955,-0.88823
9.655,294.972,-0.888278
9.65667,294.989,-0.888336
9.65833,295.005,-0.888399
9.66,295.021,-0.888471
9.66167,295.038,-0.88854
9.66333,295.055,-0.888611
9.665,295.072,-0.888684
9.66667,295.089,-0.888752
9.66833,295.105,-0.888815
9.67,295.122,-0.888872
9.67167,295.139,-0.888917
9.67333,295.156,-0.888966
9.675,295.172,-0.889017
9.67667,295.189,-0.889057
9.67833,295.206,-0.889099
9.68,295.222,-0.88914
9.68167,295.239,-0.88919
9.68333,295.255,-0.889245
9.685,295.272,-0.889294
9.68667,295.288,-0.889347
9.68833,295.305,-0.889402
9.69,295.322,-0.889455
9.69167,295.338,-0.889505
9.69333,295.355,-0.889563
9.695,295.371,-0.889626
9.69667,295.388,-0.889676
9.69833,295.405,-0.889718
9.7,295.422,-0.889758
9.70167,295.438,-0.889806
9.70333,295.455,-0.88985
9.705,295.472,-0.889893
9.70667,295.488,-0.889937
9.70833,295.505,-0.88998
9.71,295.522,-0.89003
9.71167,295.539,-0.890085
9.71333,295.555,-0.890147
9.715,295.572,-0.890203
9.71667,295.588,-0.890256
9.71833,295.605,-0.890307
9.72,295.622,-0.890353
9.72167,295.639,-0.890399
9.72333,295.655,-0.890445
9.725,295.672,-0.890486
9.72667,295.688,-0.890526
9.72833,295.705,-0.890571
9.73,295.722,-0.890615
9.73167,295.739,-0.890657
9.73333,295.756,-0.890697
9.735,295.772,-0.890737
9.73667,295.789,-0.890791
9.73833,295.805,-0.890842
9.74,295.822,-0.890897
9.74167,295.838,-0.89095
9.74333,295.855,-0.890999
9.745,295.871,-0.891046
9.74667,295.888,-0.891098
9.74833,295.905,-0.891145
9.75,295.921,-0.89118
9.75167,295.938,-0.891223
9.75333,295.955,-0.891267
9.755,295.972,-0.891323
9.75667,295.989,-0.891376
9.75833,296.005,-0.89142
9.76,296.022,-0.891454
9.76167,296.038,-0.891492
9.76333,296.055,-0.891524
9.765,296.072,-0.891561
9.76667,296.089,-0.891601
9.76833,296.105,-0.891643
9.77,296.122,-0.891698
9.77167,296.138,-0.891762
9.77333,296.155,-0.891827
9.775,296.171,-0.891892
9.77667,296.188,-0.891952
9.77833,296.205,-0.892016
9.78,296.221,-0.892076
9.78167,296.238,-0.892136
9.78333,296.255,-0.89219
9.785,296.272,-0.892241
9.78667,296.288,-0.892294
9.78833,296.305,-0.892348
9.79,296.322,-0.892413
9.79167,296.338,-0.892484
9.79333,296.355,-0.892554
9.795,296.372,-0.892616
9.79667,296.388,-0.89267
9.79833,296.405,-0.892718
9.8,296.421,-0.892765
9.80167,296.438,-0.892804
9.80333,296.455,-0.892845
9.805,296.471,-0.892881
9.80667,296.488,-0.892906
9.80833,296.505,-0.892935
9.81,296.521,-0.89297
9.81167,296.538,-0.893007
9.81333,296.555,-0.893052
9.815,296.572,-0.893109
9.81667,296.589,-0.893168
9.81833,296.606,-0.893229
9.82,296.622,-0.893283
9.82167,296.638,-0.893341
9.82333,296.655,-0.893398
9.825,296.671,-0.893446
9.82667,296.688,-0.893491
9.82833,296.704,-0.893528
9.83,296.721,-0.893566
9.83167,296.738,-0.893612
9.83333,296.755,-0.89366
9.835,296.772,-0.893703
9.83667,296.788,-0.893746
9.83833,296.805,-0.893785
9.84,296.822,-0.893819
9.84167,296.838,-0.893856
9.84333,296.855,-0.893884
9.845,296.872,-0.893906
9.84667,296.888,-0.893923
9.84833,296.905,-0.893942
9.85,296.922,-0.893966
9.85167,296.938,-0.893995
9.85333,296.955,-0.894028
9.855,296.972,-0.89406
9.85667,296.988,-0.894096
9.85833,297.004,-0.894142
9.86,297.021,-0.894181
9.86167,297.038,-0.894216
9.86333,297.055,-0.894248
9.865,297.071,-0.89428
9.86667,297.088,-0.894312
9.86833,297.105,-0.894338
9.87,297.122,-0.894356
9.87167,297.138,-0.894379
9.87333,297.155,-0.894408
9.875,297.172,-0.894445
9.87667,297.188,-0.8945
9.87833,297.205,-0.894557
9.88,297.222,-0.894615
9.88167,297.238,-0.89467
9.88333,297.255,-0.894718
9.885,297.271,-0.894773
9.88667,297.288,-0.894826
9.88833,297.305,-0.89488
9.89,297.321,-0.89493
9.89167,297.338,-0.894979
9.89333,297.355,-0.895035
9.895,297.372,-0.895098
9.89667,297.388,-0.895167
9.89833,297.405,-0.895226
9.9,297.421,-0.895279
9.90167,297.438,-0.89532
9.90333,297.455,-0.895352
9.905,297.471,-0.89538
9.90667,297.488,-0.89541
9.90833,297.504,-0.895434
9.91,297.521,-0.895456
9.91167,297.538,-0.89548
9.91333,297.555,-0.895517
9.915,297.571,-0.895552
9.91667,297.588,-0.895587
9.91833,297.604,-0.895625
9.92,297.621,-0.895657
9.92167,297.638,-0.895685
9.92333,297.654,-0.895712
9.925,297.671,-0.895733
9.92667,297.688,-0.895756
9.92833,297.705,-0.895779
9.93,297.721,-0.895798
9.93167,297.738,-0.895817
9.93333,297.754,-0.895845
9.935,297.771,-0.895883
9.93667,297.788,-0.89593
9.93833,297.804,-0.895995
9.94,297.821,-0.896093
9.94167,297.838,-0.896215
9.94333,297.855,-0.896365
9.945,297.871,-0.896517
9.94667,297.888,-0.896636
9.94833,297.904,-0.89674
9.95,297.921,-0.896806
9.95167,297.938,-0.89686
9.95333,297.954,-0.896907
9.955,297.971,-0.896943
9.95667,297.987,-0.896974
9.95833,298.004,-0.897006
9.96,298.02,-0.897031
9.96167,298.037,-0.897062
9.96333,298.054,-0.897098
9.965,298.071,-0.897142
9.96667,298.087,-0.897191
9.96833,298.104,-0.89724
9.97,298.121,-0.897288
9.97167,298.137,-0.897332
9.97333,298.154,-0.897375
9.975,298.171,-0.897418
9.97667,298.187,-0.897461
9.97833,298.204,-0.897503
9.98,298.22,-0.897535
9.98167,298.237,-0.897566
9.98333,298.254,-0.897593
9.985,298.27,-0.897613
9.98667,298.287,-0.897638
9.98833,298.304,-0.897664
9.99,298.32,-0.897693
9.99167,298.337,-0.897727
9.99333,298.354,-0.897764
9.995,298.37,-0.897805
9.99667,298.387,-0.897851
9.99833,298.403,-0.897896
10,298.42,-0.897942
10.0017,298.437,-0.897971
10.0033,298.454,-0.897999
10.005,298.471,-0.89802
10.0067,298.487,-0.898043
10.0083,298.504,-0.898064
10.01,298.52,-0.898084
10.0117,298.537,-0.898102
10.0133,298.554,-0.898124
10.015,298.57,-0.898144
10.0167,298.587,-0.898165
10.0183,298.604,-0.898185
10.02,298.62,-0.898215
10.0217,298.637,-0.898256
10.0233,298.654,-0.898298
10.025,298.671,-0.898342
10.0267,298.687,-0.898393
10.0283,298.704,-0.898439
10.03,298.721,-0.898476
10.0317,298.737,-0.898512
10.0333,298.754,-0.898554
10.035,298.77,-0.898593
10.0367,298.787,-0.898627
10.0383,298.804,-0.898664
10.04,298.82,-0.898703
10.0417,298.837,-0.898738
10.0433,298.854,-0.89878
10.045,298.87,-0.898824
10.0467,298.887,-0.898871
10.0483,298.904,-0.898916
10.05,298.92,-0.898959
10.0517,298.937,-0.899014
10.0533,298.953,-0.899076
10.055,298.97,-0.899143
10.0567,298.987,-0.899211
10.0583,299.004,-0.899283
10.06,299.02,-0.899347
10.0617,299.037,-0.899398
10.0633,299.053,-0.899445
10.065,299.07,-0.899487
10.0667,299.087,-0.899517
10.0683,299.104,-0.899539
10.07,299.12,-0.899557
10.0717,299.137,-0.899581
10.0733,299.153,-0.89961
10.075,299.17,-0.89964
10.0767,299.186,-0.899676
10.0783,299.203,-0.899716
10.08,299.22,-0.899753
10.0817,299.236,-0.899793
10.0833,299.253,-0.899837
10.085,299.269,-0.899883
10.0867,299.286,-0.89992
10.0883,299.303,-0.899957
10.09,299.32,-0.899993
10.0917,299.336,-0.900026
10.0933,299.353,-0.900062
10.095,299.37,-0.900091
10.0967,299.386,-0.900132
10.0983,299.403,-0.90017
10.1,299.419,-0.900215
10.1017,299.436,-0.90026
10.1033,299.453,-0.900307
10.105,299.47,-0.900346
10.1067,299.486,-0.900387
10.1083,299.503,-0.90043
10.11,299.52,-0.900473
10.1117,299.536,-0.900516
10.1133,299.553,-0.900558
10.115,299.569,-0.900599
10.1167,299.586,-0.900644
10.1183,299.603,-0.900692
10.12,299.62,-0.900742
10.1217,299.636,-0.900799
10.1233,299.653,-0.900843
10.125,299.669,-0.90088
10.1267,299.686,-0.900912
10.1283,299.702,-0.900947
10.13,299.719,-0.900979
10.1317,299.736,-0.901005
10.1333,299.753,-0.90103
10.135,299.769,-0.901056
10.1367,299.786,-0.901085
10.1383,299.803,-0.90111
10.14,299.819,-0.901135
10.1417,299.836,-0.901161
10.1433,299.853,-0.901199
10.145,299.869,-0.901241
10.1467,299.886,-0.901285
10.1483,299.902,-0.90133
10.15,299.919,-0.901374
10.1517,299.936,-0.901407
10.1533,299.952,-0.901443
10.155,299.969,-0.901486
10.1567,299.985,-0.901527
10.1583,300.002,-0.901564
10.16,300.019,-0.901602
10.1617,300.035,-0.901644
10.1633,300.052,-0.901695
10.165,300.069,-0.901754
10.1667,300.085,-0.901819
10.1683,300.102,-0.901881
10.17,300.119,-0.901932
10.1717,300.135,-0.901984
10.1733,300.152,-0.902041
10.175,300.169,-0.902091
10.1767,300.185,-0.902142
10.1783,300.203,-0.902193
10.18,300.219,-0.902243
10.1817,300.236,-0.902288
10.1833,300.252,-0.90234
10.185,300.269,-0.902391
10.1867,300.286,-0.902445
10.1883,300.302,-0.902497
10.19,300.319,-0.90255
10.1917,300.335,-0.902598
10.1933,300.352,-0.90264
10.195,300.369,-0.902675
10.1967,300.386,-0.902703
10.1983,300.402,-0.90273
10.2,300.419,-0.902751
10.2017,300.436,-0.902762
10.2033,300.452,-0.902771
10.205,300.469,-0.902781
10.2067,300.486,-0.902791
10.2083,300.502,-0.902803
10.21,300.519,-0.902818
10.2117,300.535,-0.902839
10.2133,300.552,-0.902864
10.215,300.569,-0.902896
10.2167,300.585,-0.902928
10.2183,300.602,-0.902967
10.22,300.619,-0.903014
10.2217,300.636,-0.903062
10.2233,300.652,-0.903103
10.225,300.669,-0.903148
10.2267,300.686,-0.903199
10.2283,300.702,-0.903249
10.23,300.719,-0.903308
10.2317,300.735,-0.903368
10.2333,300.752,-0.903426
10.235,300.768,-0.903489
10.2367,300.784,-0.90355
10.2383,300.802,-0.903616
10.24,300.818,-0.903669
10.2417,300.835,-0.903712
10.2433,300.851,-0.90375
10.245,300.868,-0.903792
10.2467,300.885,-0.903826
10.2483,300.901,-0.903872
10.25,300.918,-0.903923
10.2517,300.935,-0.90397
10.2533,300.952,-0.904016
10.255,300.968,-0.90406
10.2567,300.985,-0.904103
10.2583,301.001,-0.904141
10.26,301.018,-0.90419
10.2617,301.035,-0.904239
10.2633,301.052,-0.904281
10.265,301.069,-0.904319
10.2667,301.085,-0.904354
10.2683,301.102,-0.90439
10.27,301.119,-0.904428
10.2717,301.135,-0.904464
10.2733,301.152,-0.904504
10.275,301.168,-0.904541
10.2767,301.185,-0.904581
10.2783,301.202,-0.904625
10.28,301.218,-0.904669
10.2817,301.235,-0.904712
10.2833,301.251,-0.904754
10.285,301.268,-0.904794
10.2867,301.285,-0.90484
10.2883,301.301,-0.904888
10.29,301.318,-0.904943
10.2917,301.335,-0.904989
10.2933,301.351,-0.90503
10.295,301.368,-0.905073
10.2967,301.385,-0.905114
10.2983,301.401,-0.905143
10.3,301.418,-0.90516
10.3017,301.435,-0.905176
10.3033,301.451,-0.905195
10.305,301.468,-0.905223
10.3067,301.485,-0.905255
10.3083,301.501,-0.905285
10.31,301.518,-0.905322
10.3117,301.534,-0.905369
10.3133,301.551,-0.905423
10.315,301.568,-0.905484
10.3167,301.585,-0.905538
10.3183,301.601,-0.90559
10.32,301.618,-0.905634
10.3217,301.635,-0.905671
10.3233,301.651,-0.905705
10.325,301.667,-0.905733
10.3267,301.684,-0.90576
10.3283,301.701,-0.905791
10.33,301.717,-0.905827
10.3317,301.734,-0.905868
10.3333,301.751,-0.905916
10.335,301.767,-0.905967
10.3367,301.784,-0.906021
10.3383,301.801,-0.906081
10.34,301.818,-0.906142
10.3417,301.834,-0.906203
10.3433,301.851,-0.906263
10.345,301.867,-0.906323
10.3467,301.884,-0.906379
10.3483,301.901,-0.906437
10.35,301.918,-0.906496
10.3517,301.934,-0.906548
10.3533,301.951,-0.906596
10.355,301.968,-0.906644
10.3567,301.984,-0.906689
10.3583,302.001,-0.906727
10.36,302.018,-0.906751
10.3617,302.035,-0.906775
10.3633,302.051,-0.906794
10.365,302.068,-0.90681
10.3667,302.085,-0.906836
10.3683,302.101,-0.906861
10.37,302.117,-0.906894
10.3717,302.134,-0.906931
10.3733,302.15,-0.90696
10.375,302.167,-0.906995
10.3767,302.184,-0.907033
10.3783,302.2,-0.907075
10.38,302.218,-0.907111
10.3817,302.234,-0.907147
10.3833,302.251,-0.907185
10.385,302.267,-0.907218
10.3867,302.284,-0.907248
10.3883,302.301,-0.907279
10.39,302.317,-0.907317
10.3917,302.334,-0.90736
10.3933,302.351,-0.907409
10.395,302.367,-0.907463
10.3967,302.384,-0.907521
10.3983,302.401,-0.907586
10.4,302.418,-0.907649
10.4017,302.434,-0.907723
10.4033,302.451,-0.907789
10.405,302.467,-0.907856
10.4067,302.484,-0.907944
10.4083,302.501,-0.908009
10.41,302.518,-0.908069
10.4117,302.534,-0.908122
10.4133,302.551,-0.908175
10.415,302.568,-0.908221
10.4167,302.584,-0.908271
10.4183,302.601,-0.908317
10.42,302.617,-0.908358
10.4217,302.634,-0.908396
10.4233,302.651,-0.908428
10.425,302.667,-0.908458
10.4267,302.684,-0.908493
10.4283,302.7,-0.90853
10.43,302.717,-0.908567
10.4317,302.734,-0.908609
10.4333,302.75,-0.908658
10.435,302.767,-0.908722
10.4367,302.784,-0.908782
10.4383,302.801,-0.908833
10.44,302.817,-0.90888
10.4417,302.834,-0.908923
10.4433,302.85,-0.908964
10.445,302.867,-0.908991
10.4467,302.884,-0.909012
10.4483,302.901,-0.909035
10.45,302.918,-0.909063
10.4517,302.934,-0.909098
10.4533,302.95,-0.909144
10.455,302.967,-0.90919
10.4567,302.984,-0.909233
10.4583,303.001,-0.909276
10.46,303.017,-0.909313
10.4617,303.034,-0.909342
10.4633,303.05,-0.909368
10.465,303.067,-0.9094
10.4667,303.084,-0.909429
10.4683,303.1,-0.909465
10.47,303.117,-0.909506
10.4717,303.133,-0.909562
10.4733,303.15,-0.909636
10.475,303.167,-0.9097
10.4767,303.184,-0.909767
10.4783,303.2,-0.909844
10.48,303.217,-0.909934
10.4817,303.233,-0.910003
10.4833,303.25,-0.910055
10.485,303.266,-0.910106
10.4867,303.283,-0.910143
10.4883,303.3,-0.910182
10.49,303.316,-0.910217
10.4917,303.333,-0.910249
10.4933,303.35,-0.910273
10.495,303.367,-0.910293
10.4967,303.384,-0.910313
10.4983,303.4,-0.910336
10.5,303.417,-0.910362
10.5017,303.433,-0.910394
10.5033,303.45,-0.910426
10.505,303.467,-0.910459
10.5067,303.483,-0.9105
10.5083,303.5,-0.910539
10.51,303.516,-0.910579
10.5117,303.533,-0.91062
10.5133,303.55,-0.910666
10.515,303.566,-0.910708
10.5167,303.583,-0.910744
10.5183,303.6,-0.910778
10.52,303.617,-0.910814
10.5217,303.633,-0.910855
10.5233,303.65,-0.910895
10.525,303.667,-0.910931
10.5267,303.684,-0.910961
10.5283,303.7,-0.911
10.53,303.716,-0.911043
10.5317,303.733,-0.911095
10.5333,303.75,-0.91115
10.535,303.766,-0.911218
10.5367,303.783,-0.911312
10.5383,303.8,-0.911467
10.54,303.817,-0.911588
10.5417,303.833,-0.911699
10.5433,303.85,-0.911769
10.545,303.866,-0.911825
10.5467,303.883,-0.911876
10.5483,303.9,-0.911925
10.55,303.916,-0.91197
10.5517,303.933,-0.912003
10.5533,303.949,-0.912033
10.555,303.966,-0.912066
10.5567,303.983,-0.912103
10.5583,304,-0.912142
10.56,304.016,-0.91218
10.5617,304.033,-0.912215
10.5633,304.05,-0.912251
10.565,304.066,-0.912286
10.5667,304.083,-0.912321
10.5683,304.1,-0.912358
10.57,304.116,-0.91239
10.5717,304.132,-0.912424
10.5733,304.149,-0.91246
10.575,304.166,-0.912502
10.5767,304.183,-0.912546
10.5783,304.199,-0.912582
10.58,304.216,-0.91262
10.5817,304.233,-0.912654
10.5833,304.249,-0.912692
10.585,304.266,-0.912725
10.5867,304.282,-0.912751
10.5883,304.299,-0.912774
10.59,304.316,-0.912801
10.5917,304.332,-0.912824
10.5933,304.349,-0.912841
10.595,304.366,-0.91286
10.5967,304.382,-0.912889
10.5983,304.399,-0.912926
10.6,304.416,-0.912962
10.6017,304.432,-0.913004
10.6033,304.449,-0.913051
10.605,304.465,-0.913112
10.6067,304.482,-0.913174
10.6083,304.499,-0.913235
10.61,304.515,-0.913293
10.6117,304.532,-0.913343
10.6133,304.549,-0.91338
10.615,304.565,-0.913414
10.6167,304.582,-0.91345
10.6183,304.599,-0.913485
10.62,304.615,-0.913519
10.6217,304.632,-0.913548
10.6233,304.649,-0.913577
10.625,304.665,-0.913603
10.6267,304.682,-0.913632
10.6283,304.698,-0.913661
10.63,304.715,-0.913694
10.6317,304.732,-0.913726
10.6333,304.748,-0.913761
10.635,304.765,-0.913801
10.6367,304.782,-0.91384
10.6383,304.798,-0.913881
10.64,304.815,-0.913922
10.6417,304.832,-0.913963
10.6433,304.848,-0.914007
10.645,304.865,-0.914051
10.6467,304.882,-0.914092
10.6483,304.898,-0.914131
10.65,304.915,-0.91418
10.6517,304.932,-0.914241
10.6533,304.948,-0.914303
10.655,304.965,-0.91436
10.6567,304.982,-0.914413
10.6583,304.999,-0.914457
10.66,305.015,-0.914496
10.6617,305.032,-0.914531
10.6633,305.049,-0.91456
10.665,305.065,-0.914582
10.6667,305.082,-0.914603
10.6683,305.099,-0.914637
10.67,305.115,-0.914673
10.6717,305.132,-0.914713
10.6733,305.148,-0.914756
10.675,305.165,-0.914807
10.6767,305.182,-0.914861
10.6783,305.198,-0.914916
10.68,305.215,-0.914975
10.6817,305.232,-0.91503
10.6833,305.248,-0.915078
10.685,305.265,-0.915126
10.6867,305.282,-0.915168
10.6883,305.298,-0.915208
10.69,305.314,-0.915237
10.6917,305.331,-0.915258
10.6933,305.348,-0.915272
10.695,305.365,-0.915285
10.6967,305.381,-0.915307
10.6983,305.398,-0.915341
10.7,305.414,-0.915383
10.7017,305.431,-0.915421
10.7033,305.448,-0.915469
10.705,305.465,-0.915518
10.7067,305.481,-0.915564
10.7083,305.498,-0.915616
10.71,305.514,-0.915664
10.7117,305.531,-0.915717
10.7133,305.547,-0.915761
10.715,305.564,-0.915797
10.7167,305.581,-0.91584
10.7183,305.597,-0.915884
10.72,305.614,-0.915924
10.7217,305.631,-0.915955
10.7233,305.647,-0.915992
10.725,305.664,-0.916036
10.7267,305.681,-0.916073
10.7283,305.697,-0.916104
10.73,305.713,-0.916144
10.7317,305.73,-0.916176
10.7333,305.747,-0.916209
10.735,305.764,-0.916239
10.7367,305.78,-0.916266
10.7383,305.797,-0.916298
10.74,305.814,-0.916323
10.7417,305.831,-0.916354
10.7433,305.847,-0.91639
10.745,305.864,-0.916422
10.7467,305.881,-0.916467
10.7483,305.897,-0.916511
10.75,305.914,-0.916556
10.7517,305.931,-0.916605
10.7533,305.947,-0.916661
10.755,305.964,-0.916717
10.7567,305.98,-0.91678
10.7583,305.997,-0.916837
10.76,306.013,-0.91689
10.7617,306.03,-0.916942
10.7633,306.047,-0.916998
10.765,306.063,-0.917051
10.7667,306.08,-0.917098
10.7683,306.097,-0.917141
10.77,306.114,-0.917177
10.7717,306.13,-0.917218
10.7733,306.147,-0.917256
10.775,306.164,-0.917294
10.7767,306.18,-0.917332
10.7783,306.197,-0.917369
10.78,306.214,-0.91741
10.7817,306.23,-0.917458
10.7833,306.247,-0.917508
10.785,306.263,-0.917562
10.7867,306.28,-0.917615
10.7883,306.297,-0.917665
10.79,306.313,-0.917718
10.7917,306.33,-0.917773
10.7933,306.347,-0.917822
10.795,306.363,-0.917868
10.7967,306.38,-0.917919
10.7983,306.396,-0.917962
10.8,306.413,-0.918001
10.8017,306.43,-0.918038
10.8033,306.446,-0.91807
10.805,306.463,-0.918104
10.8067,306.479,-0.91813
10.8083,306.496,-0.918148
10.81,306.513,-0.918165
10.8117,306.529,-0.918175
10.8133,306.546,-0.918187
10.815,306.563,-0.918205
10.8167,306.579,-0.918232
10.8183,306.596,-0.918264
10.82,306.613,-0.918304
10.8217,306.63,-0.918351
10.8233,306.646,-0.918408
10.825,306.663,-0.918468
10.8267,306.679,-0.918521
10.8283,306.696,-0.91857
10.83,306.713,-0.918622
10.8317,306.729,-0.918665
10.8333,306.746,-0.918709
10.835,306.763,-0.918754
10.8367,306.78,-0.918803
10.8383,306.797,-0.918856
10.84,306.813,-0.918916
10.8417,306.83,-0.91897
10.8433,306.847,-0.919026
10.845,306.863,-0.91908
10.8467,306.88,-0.919135
10.8483,306.896,-0.919185
10.85,306.913,-0.919225
10.8517,306.93,-0.919257
10.8533,306.946,-0.919282
10.855,306.963,-0.919313
10.8567,306.98,-0.919345
10.8583,306.996,-0.919379
10.86,307.013,-0.919412
10.8617,307.03,-0.919454
10.8633,307.046,-0.919508
10.865,307.063,-0.919567
10.8667,307.079,-0.919626
10.8683,307.096,-0.91969
10.87,307.113,-0.919753
10.8717,307.13,-0.919814
10.8733,307.146,-0.919873
10.875,307.162,-0.919932
10.8767,307.179,-0.919982
10.8783,307.196,-0.920025
10.88,307.212,-0.920074
10.8817,307.229,-0.920119
10.8833,307.246,-0.920163
10.885,307.262,-0.92021
10.8867,307.279,-0.920255
10.8883,307.296,-0.920312
10.89,307.312,-0.920372
10.8917,307.329,-0.920434
10.8933,307.346,-0.920492
10.895,307.363,-0.920544
10.8967,307.379,-0.920586
10.8983,307.396,-0.92062
10.9,307.412,-0.920653
10.9017,307.429,-0.920685
10.9033,307.446,-0.92072
10.905,307.462,-0.920758
10.9067,307.479,-0.920802
10.9083,307.496,-0.920845
10.91,307.512,-0.920902
10.9117,307.529,-0.920966
10.9133,307.546,-0.921038
10.915,307.562,-0.921104
10.9167,307.579,-0.921161
10.9183,307.595,-0.92122
10.92,307.612,-0.921281
10.9217,307.629,-0.92134
10.9233,307.645,-0.921393
10.925,307.662,-0.921444
10.9267,307.679,-0.921489
10.9283,307.695,-0.92154
10.93,307.712,-0.921581
10.9317,307.729,-0.921619
10.9333,307.745,-0.921655
10.935,307.762,-0.921685
10.9367,307.779,-0.921723
10.9383,307.796,-0.921759
10.94,307.812,-0.9218
10.9417,307.829,-0.921844
10.9433,307.845,-0.921887
10.945,307.862,-0.921935
10.9467,307.879,-0.92198
10.9483,307.895,-0.922032
10.95,307.912,-0.922094
10.9517,307.929,-0.922151
10.9533,307.945,-0.922204
10.955,307.962,-0.922251
10.9567,307.978,-0.922297
10.9583,307.995,-0.922344
10.96,308.012,-0.922394
10.9617,308.028,-0.922446
10.9633,308.045,-0.922487
10.965,308.062,-0.922526
10.9667,308.079,-0.922564
10.9683,308.095,-0.922605
10.97,308.112,-0.922641
10.9717,308.128,-0.922681
10.9733,308.145,-0.922719
10.975,308.162,-0.922762
10.9767,308.179,-0.922795
10.9783,308.195,-0.922837
10.98,308.212,-0.922888
10.9817,308.228,-0.922945
10.9833,308.245,-0.923
10.985,308.262,-0.923064
10.9867,308.278,-0.923123
10.9883,308.295,-0.923178
10.99,308.312,-0.923228
10.9917,308.328,-0.92327
10.9933,308.345,-0.923307
10.995,308.362,-0.923343
10.9967,308.378,-0.923379
10.9983,308.395,-0.923427
11,308.412,-0.923472
11.0017,308.429,-0.923522
11.0033,308.445,-0.923571
11.005,308.462,-0.923628
11.0067,308.478,-0.923693
11.0083,308.495,-0.923754
11.01,308.512,-0.923802
11.0117,308.528,-0.92385
11.0133,308.545,-0.923894
11.015,308.562,-0.923942
11.0167,308.578,-0.923987
11.0183,308.595,-0.924025
11.02,308.612,-0.924065
11.0217,308.629,-0.924101
11.0233,308.645,-0.92414
11.025,308.662,-0.924188
11.0267,308.679,-0.924252
11.0283,308.695,-0.924317
11.03,308.712,-0.924383
11.0317,308.728,-0.924457
11.0333,308.745,-0.924563
11.035,308.761,-0.924687
11.0367,308.778,-0.924763
11.0383,308.795,-0.924843
11.04,308.811,-0.924921
11.0417,308.828,-0.924987
11.0433,308.845,-0.925041
11.045,308.862,-0.925093
11.0467,308.878,-0.925144
11.0483,308.895,-0.925192
11.05,308.912,-0.925238
11.0517,308.929,-0.925282
11.0533,308.945,-0.925326
11.055,308.962,-0.925359
11.0567,308.979,-0.925401
11.0583,308.995,-0.925445
11.06,309.012,-0.925482
11.0617,309.029,-0.925517
11.0633,309.045,-0.925553
11.065,309.061,-0.925591
11.0667,309.078,-0.925635
11.0683,309.094,-0.92569
11.07,309.111,-0.925741
11.0717,309.128,-0.925789
11.0733,309.145,-0.925836
11.075,309.161,-0.925893
11.0767,309.178,-0.925949
11.0783,309.195,-0.926007
11.08,309.212,-0.926061
11.0817,309.228,-0.926112
11.0833,309.245,-0.926158
11.085,309.262,-0.926207
11.0867,309.278,-0.926252
11.0883,309.295,-0.926296
11.09,309.311,-0.926337
11.0917,309.328,-0.926373
11.0933,309.345,-0.926408
11.095,309.361,-0.926448
11.0967,309.378,-0.92649
11.0983,309.394,-0.926537
11.1,309.411,-0.926586
11.1017,309.427,-0.926637
11.1033,309.444,-0.926687
11.105,309.461,-0.926734
11.1067,309.478,-0.92679
11.1083,309.494,-0.926841
11.11,309.511,-0.926895
11.1117,309.528,-0.926945
11.1133,309.544,-0.927001
11.115,309.561,-0.92706
11.1167,309.578,-0.927123
11.1183,309.595,-0.927187
11.12,309.611,-0.927253
11.1217,309.628,-0.927321
11.1233,309.645,-0.92738
11.125,309.661,-0.927446
11.1267,309.678,-0.927505
11.1283,309.695,-0.927554
11.13,309.711,-0.927592
11.1317,309.728,-0.927631
11.1333,309.745,-0.927664
11.135,309.761,-0.927706
11.1367,309.778,-0.927746
11.1383,309.794,-0.927791
11.14,309.811,-0.927839
11.1417,309.828,-0.92789
11.1433,309.844,-0.927951
11.145,309.861,-0.928015
11.1467,309.878,-0.928069
11.1483,309.894,-0.928117
11.15,309.911,-0.928166
11.1517,309.928,-0.928213
11.1533,309.944,-0.928261
11.155,309.961,-0.928306
11.1567,309.978,-0.928351
11.1583,309.994,-0.928405
11.16,310.011,-0.928454
11.1617,310.028,-0.9285
11.1633,310.045,-0.928543
11.165,310.061,-0.928573
11.1667,310.078,-0.928605
11.1683,310.094,-0.928642
11.17,310.111,-0.928683
11.1717,310.128,-0.928728
11.1733,310.144,-0.928774
11.175,310.161,-0.928818
11.1767,310.178,-0.928867
11.1783,310.194,-0.928917
11.18,310.211,-0.928956
11.1817,310.228,-0.928985
11.1833,310.244,-0.929011
11.185,310.261,-0.929048
11.1867,310.278,-0.929079
11.1883,310.294,-0.929106
11.19,310.311,-0.929131
11.1917,310.328,-0.929163
11.1933,310.344,-0.929194
11.195,310.361,-0.92923
11.1967,310.377,-0.929273
11.1983,310.394,-0.929315
11.2,310.411,-0.929359
11.2017,310.426,-0.92941
11.2033,310.443,-0.929457
11.205,310.46,-0.929505
11.2067,310.476,-0.929555
11.2083,310.494,-0.929604
11.21,310.51,-0.929654
11.2117,310.527,-0.929699
11.2133,310.543,-0.929743
11.215,310.56,-0.92979
11.2167,310.576,-0.929844
11.2183,310.593,-0.929904
11.22,310.61,-0.929972
11.2217,310.626,-0.930043
11.2233,310.643,-0.930117
11.225,310.66,-0.930183
11.2267,310.677,-0.930256
11.2283,310.693,-0.930324
11.23,310.71,-0.930388
11.2317,310.727,-0.930442
11.2333,310.743,-0.930485
11.235,310.76,-0.930528
11.2367,310.776,-0.93057
11.2383,310.793,-0.930609
11.24,310.81,-0.930639
11.2417,310.826,-0.93066
11.2433,310.843,-0.930678
11.245,310.86,-0.930701
11.2467,310.876,-0.93073
11.2483,310.893,-0.930769
11.25,310.91,-0.930807
11.2517,310.927,-0.930848
11.2533,310.943,-0.930887
11.255,310.96,-0.930937
11.2567,310.977,-0.930978
11.2583,310.993,-0.931015
11.26,311.01,-0.931053
11.2617,311.027,-0.931092
11.2633,311.043,-0.931137
11.265,311.06,-0.93119
11.2667,311.076,-0.93125
11.2683,311.093,-0.931319
11.27,311.11,-0.931388
11.2717,311.127,-0.931465
11.2733,311.144,-0.931536
11.275,311.16,-0.931599
11.2767,311.177,-0.931656
11.2783,311.193,-0.931707
11.28,311.21,-0.931747
11.2817,311.227,-0.931783
11.2833,311.243,-0.93182
11.285,311.26,-0.931854
11.2867,311.276,-0.931891
11.2883,311.293,-0.93193
11.29,311.31,-0.931972
11.2917,311.326,-0.932024
11.2933,311.343,-0.932078
11.295,311.36,-0.932129
11.2967,311.377,-0.932184
11.2983,311.393,-0.932249
11.3,311.41,-0.932315
11.3017,311.427,-0.932382
11.3033,311.444,-0.932454
11.305,311.46,-0.932526
11.3067,311.476,-0.932598
11.3083,311.493,-0.932668
11.31,311.51,-0.932741
11.3117,311.527,-0.932799
11.3133,311.543,-0.93286
11.315,311.56,-0.932911
11.3167,311.577,-0.932954
11.3183,311.593,-0.933
11.32,311.61,-0.933054
11.3217,311.627,-0.933104
11.3233,311.643,-0.933148
11.325,311.66,-0.933187
11.3267,311.676,-0.933216
11.3283,311.693,-0.933249
11.33,311.709,-0.93328
11.3317,311.726,-0.933311
11.3333,311.743,-0.933346
11.335,311.759,-0.933376
11.3367,311.776,-0.933407
11.3383,311.793,-0.933451
11.34,311.809,-0.933505
11.3417,311.826,-0.933561
11.3433,311.843,-0.933617
11.345,311.859,-0.933673
11.3467,311.876,-0.933743
11.3483,311.893,-0.933816
11.35,311.909,-0.933888
11.3517,311.926,-0.933954
11.3533,311.943,-0.934014
11.355,311.959,-0.934073
11.3567,311.976,-0.934123
11.3583,311.993,-0.934168
11.36,312.009,-0.934214
11.3617,312.026,-0.934255
11.3633,312.043,-0.934298
11.365,312.059,-0.934343
11.3667,312.076,-0.934394
11.3683,312.093,-0.934446
11.37,312.109,-0.934509
11.3717,312.126,-0.934585
11.3733,312.143,-0.934659
11.375,312.159,-0.934727
11.3767,312.176,-0.934802
11.3783,312.193,-0.934866
11.38,312.21,-0.934926
11.3817,312.226,-0.934982
11.3833,312.243,-0.935032
11.385,312.26,-0.935078
11.3867,312.276,-0.935123
11.3883,312.293,-0.935167
11.39,312.31,-0.935205
11.3917,312.326,-0.935244
11.3933,312.343,-0.935285
11.395,312.36,-0.935324
11.3967,312.376,-0.93536
11.3983,312.393,-0.9354
11.4,312.409,-0.935438
11.4017,312.426,-0.935462
11.4033,312.443,-0.935498
11.405,312.459,-0.935544
11.4067,312.476,-0.935593
11.4083,312.493,-0.935651
11.41,312.509,-0.935713
11.4117,312.526,-0.935779
11.4133,312.542,-0.935839
11.415,312.559,-0.935899
11.4167,312.576,-0.935959
11.4183,312.592,-0.936018
11.42,312.609,-0.936075
11.4217,312.626,-0.936133
11.4233,312.642,-0.936191
11.425,312.659,-0.936259
11.4267,312.675,-0.936328
11.4283,312.692,-0.936409
11.43,312.709,-0.936488
11.4317,312.725,-0.936575
11.4333,312.742,-0.936657
11.435,312.759,-0.936739
11.4367,312.775,-0.936816
11.4383,312.792,-0.936895
11.44,312.809,-0.936967
11.4417,312.826,-0.937039
11.4433,312.843,-0.937109
11.445,312.859,-0.937179
11.4467,312.875,-0.937251
11.4483,312.892,-0.937323
11.45,312.909,-0.937391
11.4517,312.925,-0.937448
11.4533,312.942,-0.937498
11.455,312.959,-0.937546
11.4567,312.975,-0.937594
11.4583,312.992,-0.937635
11.46,313.009,-0.937678
11.4617,313.025,-0.937722
11.4633,313.042,-0.937776
11.465,313.059,-0.937833
11.4667,313.076,-0.937908
11.4683,313.092,-0.937987
11.47,313.109,-0.938066
11.4717,313.126,-0.938136
11.4733,313.142,-0.938199
11.475,313.159,-0.938248
11.4767,313.176,-0.938292
11.4783,313.193,-0.938334
11.48,313.209,-0.938374
11.4817,313.226,-0.93841
11.4833,313.242,-0.938447
11.485,313.259,-0.938484
11.4867,313.276,-0.938519
11.4883,313.292,-0.938566
11.49,313.309,-0.938629
11.4917,313.326,-0.93869
11.4933,313.342,-0.938766
11.495,313.359,-0.938844
11.4967,313.375,-0.938923
11.4983,313.392,-0.939003
11.5,313.409,-0.939079
11.5017,313.426,-0.939156
11.5033,313.442,-0.939227
11.505,313.459,-0.939294
11.5067,313.476,-0.939373
11.5083,313.493,-0.939451
11.51,313.509,-0.939521
11.5117,313.526,-0.939589
11.5133,313.542,-0.93966
11.515,313.559,-0.939715
11.5167,313.575,-0.939763
11.5183,313.592,-0.939813
11.52,313.608,-0.939857
11.5217,313.625,-0.939896
11.5233,313.641,-0.939938
11.525,313.658,-0.939986
11.5267,313.675,-0.940043
11.5283,313.692,-0.940103
11.53,313.708,-0.940166
11.5317,313.725,-0.94023
11.5333,313.742,-0.940297
11.535,313.758,-0.94037
11.5367,313.775,-0.940448
11.5383,313.792,-0.940527
11.54,313.808,-0.940598
11.5417,313.825,-0.940671
11.5433,313.842,-0.940748
11.545,313.858,-0.940826
11.5467,313.875,-0.940901
11.5483,313.891,-0.940973
11.55,313.908,-0.941044
11.5517,313.925,-0.941106
11.5533,313.941,-0.941162
11.555,313.958,-0.941216
11.5567,313.975,-0.941256
11.5583,313.991,-0.941289
11.56,314.008,-0.941322
11.5617,314.025,-0.941354
11.5633,314.041,-0.941401
11.565,314.058,-0.941451
11.5667,314.075,-0.941494
11.5683,314.091,-0.941538
11.57,314.108,-0.941584
11.5717,314.124,-0.941628
11.5733,314.141,-0.941667
11.575,314.158,-0.941709
11.5767,314.175,-0.941748
11.5783,314.192,-0.941788
11.58,314.208,-0.941835
11.5817,314.225,-0.941881
11.5833,314.241,-0.941934
11.585,314.258,-0.941997
11.5867,314.275,-0.942065
11.5883,314.291,-0.94214
11.59,314.308,-0.942217
11.5917,314.324,-0.942288
11.5933,314.341,-0.942357
11.595,314.357,-0.942417
11.5967,314.374,-0.942473
11.5983,314.391,-0.94253
11.6,314.408,-0.942583
11.6017,314.424,-0.942636
11.6033,314.441,-0.942694
11.605,314.457,-0.942753
11.6067,314.474,-0.942815
11.6083,314.491,-0.942889
11.61,314.508,-0.942971
11.6117,314.524,-0.943051
11.6133,314.541,-0.943128
11.615,314.557,-0.943206
11.6167,314.574,-0.943291
11.6183,314.591,-0.943376
11.62,314.608,-0.943456
11.6217,314.624,-0.943531
11.6233,314.641,-0.943601
11.625,314.658,-0.943662
11.6267,314.674,-0.943718
11.6283,314.691,-0.943775
11.63,314.707,-0.943837
11.6317,314.724,-0.943895
11.6333,314.741,-0.943954
11.635,314.757,-0.944018
11.6367,314.774,-0.94408
11.6383,314.791,-0.944142
11.64,314.807,-0.9442
11.6417,314.824,-0.944264
11.6433,314.841,-0.944335
11.645,314.858,-0.9444
11.6467,314.874,-0.944469
11.6483,314.891,-0.944542
11.65,314.908,-0.944602
11.6517,314.924,-0.944653
11.6533,314.941,-0.9447
11.655,314.957,-0.944742
11.6567,314.974,-0.944786
11.6583,314.991,-0.944828
11.66,315.008,-0.944877
11.6617,315.024,-0.944939
11.6633,315.041,-0.94501
11.665,315.057,-0.945082
11.6667,315.074,-0.945161
11.6683,315.09,-0.945242
11.67,315.107,-0.94532
11.6717,315.124,-0.945397
11.6733,315.14,-0.945473
11.675,315.157,-0.945536
11.6767,315.174,-0.945588
11.6783,315.19,-0.945639
11.68,315.207,-0.945692
11.6817,315.224,-0.94575
11.6833,315.241,-0.945812
11.685,315.258,-0.945879
11.6867,315.274,-0.945944
11.6883,315.291,-0.946015
11.69,315.307,-0.946087
11.6917,315.324,-0.946169
11.6933,315.341,-0.946249
11.695,315.357,-0.946333
11.6967,315.374,-0.94641
11.6983,315.39,-0.946483
11.7,315.407,-0.946562
11.7017,315.424,-0.94663
11.7033,315.44,-0.946696
11.705,315.457,-0.946761
11.7067,315.474,-0.94682
11.7083,315.491,-0.94688
11.71,315.508,-0.946939
11.7117,315.524,-0.946999
11.7133,315.541,-0.94706
11.715,315.558,-0.947128
11.7167,315.574,-0.947196
11.7183,315.591,-0.947258
11.72,315.607,-0.947325
11.7217,315.624,-0.947395
11.7233,315.64,-0.947471
11.725,315.657,-0.947544
11.7267,315.674,-0.947612
11.7283,315.69,-0.947693
11.73,315.707,-0.94778
11.7317,315.724,-0.947871
11.7333,315.74,-0.947965
11.735,315.757,-0.948058
11.7367,315.774,-0.948138
11.7383,315.79,-0.948228
11.74,315.807,-0.948317
11.7417,315.824,-0.948401
11.7433,315.84,-0.948475
11.745,315.857,-0.948548
11.7467,315.874,-0.948618
11.7483,315.89,-0.948684
11.75,315.907,-0.94875
11.7517,315.923,-0.948814
11.7533,315.94,-0.948872
11.755,315.957,-0.948933
11.7567,315.973,-0.949012
11.7583,315.991,-0.949091
11.76,316.007,-0.949172
11.7617,316.024,-0.949247
11.7633,316.04,-0.949326
11.765,316.057,-0.949403
11.7667,316.074,-0.949474
11.7683,316.09,-0.94955
11.77,316.107,-0.949625
11.7717,316.124,-0.949693
11.7733,316.14,-0.949767
11.775,316.157,-0.949848
11.7767,316.174,-0.949929
11.7783,316.19,-0.950002
11.78,316.206,-0.950069
11.7817,316.223,-0.950138
11.7833,316.24,-0.950209
11.785,316.256,-0.950276
11.7867,316.273,-0.950353
11.7883,316.29,-0.950424
11.79,316.306,-0.950481
11.7917,316.323,-0.950533
11.7933,316.34,-0.950595
11.795,316.356,-0.950664
11.7967,316.373,-0.95073
11.7983,316.39,-0.950792
11.8,316.407,-0.95086
11.8017,316.423,-0.950925
11.8033,316.44,-0.950987
11.805,316.457,-0.951048
11.8067,316.473,-0.951113
11.8083,316.49,-0.951177
11.81,316.506,-0.951246
11.8117,316.523,-0.95131
11.8133,316.54,-0.951365
11.815,316.556,-0.951426
11.8167,316.572,-0.951496
11.8183,316.589,-0.951569
11.82,316.606,-0.951637
11.8217,316.623,-0.951705
11.8233,316.639,-0.951779
11.825,316.656,-0.951858
11.8267,316.673,-0.951934
11.8283,316.69,-0.952019
11.83,316.706,-0.952099
11.8317,316.722,-0.952169
11.8333,316.739,-0.952238
11.835,316.756,-0.952309
11.8367,316.773,-0.952382
11.8383,316.789,-0.952445
11.84,316.806,-0.952513
11.8417,316.822,-0.952582
11.8433,316.839,-0.95265
11.845,316.856,-0.952714
11.8467,316.872,-0.95278
11.8483,316.889,-0.952848
11.85,316.906,-0.952923
11.8517,316.922,-0.952994
11.8533,316.939,-0.953056
11.855,316.956,-0.953118
11.8567,316.973,-0.953176
11.8583,316.989,-0.953242
11.86,317.005,-0.953302
11.8617,317.022,-0.953361
11.8633,317.039,-0.953415
11.865,317.055,-0.95348
11.8667,317.072,-0.953552
11.8683,317.089,-0.953633
11.87,317.105,-0.95372
11.8717,317.122,-0.953824
11.8733,317.139,-0.953907
11.875,317.155,-0.953986
11.8767,317.172,-0.954066
11.8783,317.188,-0.954131
11.88,317.205,-0.954195
11.8817,317.222,-0.95426
11.8833,317.239,-0.954325
11.885,317.255,-0.954392
11.8867,317.272,-0.954459
11.8883,317.289,-0.954542
11.89,317.305,-0.954629
11.8917,317.322,-0.954717
11.8933,317.338,-0.954808
11.895,317.355,-0.954896
11.8967,317.371,-0.954977
11.8983,317.388,-0.955047
11.9,317.405,-0.955114
11.9017,317.422,-0.955177
11.9033,317.439,-0.95523
11.905,317.455,-0.955282
11.9067,317.471,-0.955341
11.9083,317.488,-0.955399
11.91,317.505,-0.955463
11.9117,317.522,-0.955526
11.9133,317.538,-0.955597
11.915,317.555,-0.955679
11.9167,317.571,-0.955765
11.9183,317.588,-0.955856
11.92,317.605,-0.955951
11.9217,317.621,-0.956046
11.9233,317.638,-0.956139
11.925,317.655,-0.956232
11.9267,317.671,-0.956318
11.9283,317.688,-0.956405
11.93,317.705,-0.956498
11.9317,317.722,-0.956592
11.9333,317.738,-0.95668
11.935,317.755,-0.956764
11.9367,317.772,-0.956847
11.9383,317.788,-0.956923
11.94,317.804,-0.957001
11.9417,317.821,-0.957073
11.9433,317.838,-0.957151
11.945,317.854,-0.957231
11.9467,317.871,-0.957308
11.9483,317.888,-0.957382
11.95,317.904,-0.957466
11.9517,317.921,-0.957555
11.9533,317.938,-0.957647
11.955,317.954,-0.957731
11.9567,317.971,-0.957813
11.9583,317.987,-0.957899
11.96,318.004,-0.957978
11.9617,318.021,-0.958059
11.9633,318.038,-0.958138
11.965,318.054,-0.958219
11.9667,318.071,-0.958296
11.9683,318.087,-0.958373
11.97,318.104,-0.958456
11.9717,318.121,-0.958538
11.9733,318.137,-0.958613
11.975,318.154,-0.958698
11.9767,318.171,-0.958782
11.9783,318.188,-0.958874
11.98,318.204,-0.958964
11.9817,318.221,-0.959054
11.9833,318.238,-0.959152
11.985,318.254,-0.959256
11.9867,318.271,-0.959355
11.9883,318.288,-0.959447
11.99,318.304,-0.959525
11.9917,318.321,-0.959599
11.9933,318.338,-0.959657
11.995,318.354,-0.959709
11.9967,318.371,-0.959751
11.9983,318.387,-0.959792
12,318.404,-0.959841
12.0017,318.421,-0.959896
12.0033,318.437,-0.959961
12.005,318.454,-0.960043
12.0067,318.47,-0.960128
12.0083,318.487,-0.960224
12.01,318.504,-0.960337
12.0117,318.52,-0.960453
12.0133,318.537,-0.960588
12.015,318.554,-0.960693
12.0167,318.57,-0.960792
12.0183,318.587,-0.960886
12.02,318.603,-0.960968
12.0217,318.62,-0.961036
12.0233,318.637,-0.961096
12.025,318.654,-0.961157
12.0267,318.67,-0.961217
12.0283,318.687,-0.961279
12.03,318.703,-0.961343
12.0317,318.72,-0.961414
12.0333,318.737,-0.961491
12.035,318.753,-0.961572
12.0367,318.77,-0.961662
12.0383,318.787,-0.961758
12.04,318.803,-0.961857
12.0417,318.82,-0.961952
12.0433,318.837,-0.962047
12.045,318.853,-0.962147
12.0467,318.87,-0.962251
12.0483,318.886,-0.962356
12.05,318.903,-0.962464
12.0517,318.92,-0.962567
12.0533,318.936,-0.962667
12.055,318.953,-0.962756
12.0567,318.969,-0.962836
12.0583,318.986,-0.962919
12.06,319.003,-0.963
12.0617,319.019,-0.963076
12.0633,319.036,-0.963139
12.065,319.053,-0.963209
12.0667,319.07,-0.963277
12.0683,319.086,-0.963353
12.07,319.103,-0.963441
12.0717,319.12,-0.963539
12.0733,319.136,-0.963643
12.075,319.153,-0.963744
12.0767,319.169,-0.963848
12.0783,319.186,-0.963951
12.08,319.203,-0.964046
12.0817,319.219,-0.964143
12.0833,319.236,-0.964231
12.085,319.252,-0.964317
12.0867,319.269,-0.964403
12.0883,319.286,-0.964477
12.09,319.303,-0.964552
12.0917,319.319,-0.964628
12.0933,319.336,-0.9647
12.095,319.352,-0.964771
12.0967,319.369,-0.964852
12.0983,319.386,-0.96493
12.1,319.402,-0.965019
12.1017,319.419,-0.96512
12.1033,319.436,-0.965221
12.105,319.453,-0.965325
12.1067,319.469,-0.96543
12.1083,319.486,-0.965545
12.11,319.502,-0.96565
12.1117,319.519,-0.965752
12.1133,319.536,-0.965852
12.115,319.552,-0.965955
12.1167,319.569,-0.966069
12.1183,319.586,-0.966182
12.12,319.602,-0.96629
12.1217,319.619,-0.966395
12.1233,319.635,-0.966503
12.125,319.652,-0.966607
12.1267,319.669,-0.966705
12.1283,319.685,-0.9668
12.13,319.702,-0.966899
12.1317,319.719,-0.967003
12.1333,319.735,-0.967099
12.135,319.752,-0.967187
12.1367,319.769,-0.967277
12.1383,319.785,-0.967365
12.14,319.802,-0.967459
12.1417,319.819,-0.967558
12.1433,319.836,-0.967654
12.145,319.852,-0.967749
12.1467,319.869,-0.967845
12.1483,319.886,-0.967947
12.15,319.902,-0.968063
12.1517,319.919,-0.968208
12.1533,319.935,-0.968372
12.155,319.952,-0.968521
12.1567,319.969,-0.968696
12.1583,319.985,-0.968884
12.16,320.002,-0.969107
12.1617,320.018,-0.969289
12.1633,320.035,-0.96941
12.165,320.052,-0.969529
12.1667,320.069,-0.969645
12.1683,320.085,-0.969756
12.17,320.102,-0.969864
12.1717,320.119,-0.969975
12.1733,320.135,-0.970084
12.175,320.152,-0.970185
12.1767,320.168,-0.970282
12.1783,320.185,-0.97038
12.18,320.202,-0.97047
12.1817,320.218,-0.970559
12.1833,320.235,-0.970652
12.185,320.252,-0.970745
12.1867,320.268,-0.97084
12.1883,320.285,-0.970929
12.19,320.302,-0.971024
12.1917,320.318,-0.971125
12.1933,320.335,-0.971231
12.195,320.352,-0.971332
12.1967,320.368,-0.971437
12.1983,320.384,-0.971551
12.2,320.402,-0.971667
12.2017,320.418,-0.971784
12.2033,320.434,-0.9719
12.205,320.451,-0.972012
12.2067,320.468,-0.972127
12.2083,320.485,-0.972239
12.21,320.501,-0.972361
12.2117,320.518,-0.972527
12.2133,320.535,-0.972701
12.215,320.551,-0.972825
12.2167,320.568,-0.972947
12.2183,320.585,-0.973067
12.22,320.602,-0.973187
12.2217,320.619,-0.973306
12.2233,320.636,-0.973424
12.225,320.652,-0.973533
12.2267,320.669,-0.973641
12.2283,320.685,-0.973747
12.23,320.702,-0.973853
12.2317,320.718,-0.973959
12.2333,320.735,-0.974062
12.235,320.752,-0.974166
12.2367,320.768,-0.974268
12.2383,320.785,-0.97437
12.24,320.802,-0.974483
12.2417,320.819,-0.974593
12.2433,320.835,-0.974709
12.245,320.852,-0.974828
12.2467,320.868,-0.974965
12.2483,320.885,-0.975091
12.25,320.901,-0.975208
12.2517,320.918,-0.975332
12.2533,320.934,-0.975457
12.255,320.951,-0.975582
12.2567,320.968,-0.975705
12.2583,320.985,-0.975832
12.26,321.001,-0.975983
12.2617,321.018,-0.976122
12.2633,321.034,-0.976276
12.265,321.051,-0.976405
12.2667,321.068,-0.976532
12.2683,321.084,-0.976652
12.27,321.101,-0.976772
12.2717,321.117,-0.976891
12.2733,321.134,-0.977016
12.275,321.151,-0.977143
12.2767,321.167,-0.977276
12.2783,321.185,-0.977425
12.28,321.201,-0.977584
12.2817,321.218,-0.977728
12.2833,321.234,-0.977863
12.285,321.251,-0.977988
12.2867,321.268,-0.978095
12.2883,321.284,-0.978189
12.29,321.301,-0.978276
12.2917,321.317,-0.978367
12.2933,321.334,-0.978462
12.295,321.351,-0.978563
12.2967,321.367,-0.978672
12.2983,321.383,-0.978794
12.3,321.4,-0.978951
12.3017,321.417,-0.979266
12.3033,321.433,-0.979736
12.305,321.45,-0.980164
12.3067,321.466,-0.980543
12.3083,321.483,-0.980827
12.31,321.5,-0.981075
12.3117,321.517,-0.981205
12.3133,321.533,-0.981347
12.315,321.55,-0.981477
12.3167,321.567,-0.981599
12.3183,321.583,-0.981714
12.32,321.6,-0.981828
12.3217,321.617,-0.981936
12.3233,321.633,-0.982035
12.325,321.649,-0.98214
12.3267,321.666,-0.982255
12.3283,321.683,-0.982372
12.33,321.699,-0.982494
12.3317,321.716,-0.982625
12.3333,321.733,-0.982763
12.335,321.75,-0.982895
12.3367,321.766,-0.983026
12.3383,321.783,-0.98315
12.34,321.799,-0.983276
12.3417,321.816,-0.983402
12.3433,321.832,-0.983537
12.345,321.849,-0.9837
12.3467,321.866,-0.983881
12.3483,321.882,-0.984191
12.35,321.899,-0.984587
12.3517,321.916,-0.985129
12.3533,321.933,-0.985498
12.355,321.949,-0.985738
12.3567,321.966,-0.985917
12.3583,321.983,-0.986052
12.36,321.999,-0.986185
12.3617,322.016,-0.986315
12.3633,322.032,-0.98644
12.365,322.049,-0.986571
12.3667,322.066,-0.986709
12.3683,322.082,-0.986848
12.37,322.099,-0.986987
12.3717,322.115,-0.987123
12.3733,322.132,-0.987253
12.375,322.149,-0.98738
12.3767,322.165,-0.987503
12.3783,322.182,-0.987631
12.38,322.198,-0.987755
12.3817,322.215,-0.987884
12.3833,322.232,-0.988022
12.385,322.248,-0.988175
12.3867,322.265,-0.988345
12.3883,322.281,-0.988632
12.39,322.298,-0.989198
12.3917,322.315,-0.989783
12.3933,322.331,-0.990197
12.395,322.348,-0.990654
12.3967,322.365,-0.991048
12.3983,322.381,-0.991317
12.4,322.398,-0.991496
12.4017,322.415,-0.991637
12.4033,322.431,-0.991768
12.405,322.448,-0.991907
12.4067,322.464,-0.992045
12.4083,322.481,-0.992185
12.41,322.497,-0.992349
12.4117,322.514,-0.992491
12.4133,322.53,-0.992662
12.415,322.547,-0.992808
12.4167,322.564,-0.992977
12.4183,322.581,-0.993136
12.42,322.598,-0.993272
12.4217,322.614,-0.993403
12.4233,322.631,-0.993541
12.425,322.647,-0.993676
12.4267,322.664,-0.993807
12.4283,322.68,-0.993961
12.43,322.697,-0.9941
12.4317,322.714,-0.994218
12.4333,322.73,-0.994344
12.435,322.747,-0.994484
12.4367,322.763,-0.994669
12.4383,322.78,-0.994853
12.44,322.797,-0.995186
12.4417,322.813,-0.995579
12.4433,322.83,-0.996101
12.445,322.846,-0.996549
12.4467,322.863,-0.99692
12.4483,322.88,-0.997349
12.45,322.896,-0.997668
12.4517,322.913,-0.997939
12.4533,322.929,-0.99833
12.455,322.946,-0.998742
12.4567,322.963,-0.99922
12.4583,322.98,-0.999731
12.46,322.996,-1.00034
12.4617,323.013,-1.00095
12.4633,323.03,-1.00145
12.465,323.046,-1.00181
12.4667,323.063,-1.00211
12.4683,323.079,-1.00234
12.47,323.096,-1.00258
12.4717,323.113,-1.00282
12.4733,323.13,-1.00311
12.475,323.146,-1.00343
12.4767,323.162,-1.00386
12.4783,323.179,-1.00427
12.48,323.196,-1.00481
12.4817,323.212,-1.00539
12.4833,323.229,-1.00582
12.485,323.246,-1.00618
12.4867,323.262,-1.00639
12.4883,323.279,-1.00666
12.49,323.296,-1.00687
12.4917,323.312,-1.00706
12.4933,323.329,-1.0072
12.495,323.345,-1.00736
12.4967,323.362,-1.0075
12.4983,323.378,-1.00765
12.5,323.395,-1.00786
12.5017,323.412,-1.00806
12.5033,323.428,-1.00834
12.505,323.445,-1.00864
12.5067,323.462,-1.00904
12.5083,323.478,-1.00938
12.51,323.494,-1.00976
12.5117,323.511,-1.01034
12.5133,323.528,-1.01088
12.515,323.545,-1.01129
12.5167,323.561,-1.01178
12.5183,323.578,-1.01224
12.52,323.595,-1.01262
12.5217,323.611,-1.01307
12.5233,323.628,-1.01351
12.525,323.645,-1.01404
12.5267,323.661,-1.01445
12.5283,323.678,-1.01473
12.53,323.694,-1.01508
12.5317,323.711,-1.01554
12.5333,323.727,-1.01597
12.535,323.744,-1.01673
12.5367,323.761,-1.0174
12.5383,323.778,-1.01791
12.54,323.794,-1.01852
12.5417,323.811,-1.0194
12.5433,323.828,-1.02017
12.545,323.844,-1.02076
12.5467,323.861,-1.02139
12.5483,323.877,-1.0221
12.55,323.894,-1.02265
12.5517,323.911,-1.02332
12.5533,323.927,-1.02398
12.555,323.944,-1.02469
12.5567,323.961,-1.02537
12.5583,323.977,-1.02612
12.56,323.994,-1.0268
12.5617,324.011,-1.02728
12.5633,324.027,-1.02771
12.565,324.044,-1.02838
12.5667,324.06,-1.02918
12.5683,324.077,-1.02979
12.57,324.093,-1.03026
12.5717,324.11,-1.03064
12.5733,324.127,-1.031
12.575,324.143,-1.03147
12.5767,324.159,-1.03196
12.5783,324.176,-1.03261
12.58,324.193,-1.03355
12.5817,324.209,-1.03455
12.5833,324.226,-1.03553
12.585,324.243,-1.03686
12.5867,324.259,-1.03802
12.5883,324.276,-1.03891
12.59,324.293,-1.03961
12.5917,324.31,-1.04006
12.5933,324.326,-1.04048
12.595,324.342,-1.04095
12.5967,324.359,-1.0416
12.5983,324.376,-1.04226
12.6,324.393,-1.0432
12.6017,324.409,-1.04399
12.6033,324.426,-1.04468
12.605,324.443,-1.04535
12.6067,324.459,-1.04605
12.6083,324.476,-1.04651
12.61,324.492,-1.0468
12.6117,324.509,-1.04703
12.6133,324.525,-1.0472
12.615,324.542,-1.04737
12.6167,324.559,-1.04765
12.6183,324.575,-1.04797
12.62,324.592,-1.0482
12.6217,324.608,-1.04856
12.6233,324.625,-1.0491
12.625,324.641,-1.04968
12.6267,324.658,-1.05045
12.6283,324.674,-1.05127
12.63,324.691,-1.05245
12.6317,324.708,-1.0538
12.6333,324.724,-1.05525
12.635,324.741,-1.05685
12.6367,324.758,-1.05826
12.6383,324.774,-1.05954
12.64,324.791,-1.06067
12.6417,324.808,-1.06156
12.6433,324.824,-1.06243
12.645,324.841,-1.06322
12.6467,324.858,-1.06391
12.6483,324.874,-1.06476
12.65,324.891,-1.06552
12.6517,324.907,-1.06629
12.6533,324.924,-1.06695
12.655,324.94,-1.06757
12.6567,324.957,-1.06843
12.6583,324.974,-1.06936
12.66,324.99,-1.07035
12.6617,325.007,-1.07142
12.6633,325.024,-1.07244
12.665,325.04,-1.07329
12.6667,325.057,-1.07424
12.6683,325.073,-1.07505
12.67,325.09,-1.07581
12.6717,325.107,-1.07654
12.6733,325.123,-1.07728
12.675,325.14,-1.07786
12.6767,325.157,-1.07859
12.6783,325.173,-1.07979
12.68,325.19,-1.0815
12.6817,325.206,-1.0836
12.6833,325.223,-1.0856
12.685,325.24,-1.08759
12.6867,325.257,-1.08928
12.6883,325.273,-1.09099
12.69,325.29,-1.0922
12.6917,325.306,-1.09317
12.6933,325.323,-1.09394
12.695,325.339,-1.09436
12.6967,325.356,-1.09473
12.6983,325.372,-1.09507
12.7,325.389,-1.09541
12.7017,325.406,-1.09581
12.7033,325.422,-1.09631
12.705,325.439,-1.0967
12.7067,325.455,-1.09727
12.7083,325.472,-1.09819
12.71,325.488,-1.09929
12.7117,325.505,-1.10064
12.7133,325.522,-1.10196
12.715,325.538,-1.10354
12.7167,325.555,-1.1049
12.7183,325.572,-1.10635
12.72,325.588,-1.10781
12.7217,325.605,-1.10925
12.7233,325.621,-1.1107
12.725,325.638,-1.11181
12.7267,325.654,-1.11275
12.7283,325.67,-1.11348
12.73,325.686,-1.11396
12.7317,325.702,-1.11465
12.7333,325.719,-1.11575
12.735,325.736,-1.11696
12.7367,325.752,-1.1184
12.7383,325.769,-1.11996
12.74,325.786,-1.12183
12.7417,325.803,-1.12371
12.7433,325.819,-1.12568
12.745,325.836,-1.12775
12.7467,325.853,-1.12966
12.7483,325.869,-1.13139
12.75,325.886,-1.13261
12.7517,325.902,-1.13369
12.7533,325.919,-1.13464
12.755,325.935,-1.13564
12.7567,325.952,-1.13668
12.7583,325.969,-1.13761
12.76,325.985,-1.13874
12.7617,326.002,-1.13996
12.7633,326.018,-1.141
12.765,326.035,-1.14216
12.7667,326.052,-1.14346
12.7683,326.068,-1.14495
12.77,326.085,-1.14634
12.7717,326.102,-1.14793
12.7733,326.118,-1.14949
12.775,326.134,-1.15085
12.7767,326.151,-1.15177
12.7783,326.168,-1.15254
12.78,326.184,-1.15338
12.7817,326.201,-1.15429
12.7833,326.217,-1.15523
12.785,326.234,-1.15613
12.7867,326.25,-1.1571
12.7883,326.267,-1.15856
12.79,326.284,-1.16055
12.7917,326.3,-1.16269
12.7933,326.317,-1.16492
12.795,326.333,-1.16743
12.7967,326.349,-1.17025
12.7983,326.366,-1.17345
12.8,326.383,-1.17665
12.8017,326.399,-1.17933
12.8033,326.416,-1.182
12.805,326.433,-1.18403
12.8067,326.449,-1.18573
12.8083,326.466,-1.18673
12.81,326.483,-1.18797
12.8117,326.499,-1.18896
12.8133,326.516,-1.18985
12.815,326.532,-1.19139
12.8167,326.549,-1.193
12.8183,326.565,-1.1945
12.82,326.582,-1.19639
12.8217,326.598,-1.19871
12.8233,326.615,-1.20113
12.825,326.632,-1.20377
12.8267,326.648,-1.20555
12.8283,326.665,-1.20762
12.83,326.682,-1.20957
12.8317,326.698,-1.21208
12.8333,326.715,-1.21452
12.835,326.731,-1.2161
12.8367,326.748,-1.2177
12.8383,326.764,-1.21955
12.84,326.78,-1.22108
12.8417,326.797,-1.22322
12.8433,326.814,-1.2249
12.845,326.83,-1.2266
12.8467,326.847,-1.22867
12.8483,326.863,-1.23043
12.85,326.88,-1.23232
12.8517,326.896,-1.23374
12.8533,326.913,-1.23445
12.855,326.93,-1.23547
12.8567,326.946,-1.23695
12.8583,326.963,-1.23898
12.86,326.98,-1.24127
12.8617,326.996,-1.24376
12.8633,327.012,-1.24615
12.865,327.029,-1.24905
12.8667,327.046,-1.25221
12.8683,327.062,-1.25557
12.87,327.079,-1.25917
12.8717,327.095,-1.26223
12.8733,327.112,-1.26416
12.875,327.128,-1.26734
12.8767,327.145,-1.26982
12.8783,327.161,-1.27159
12.88,327.177,-1.27354
12.8817,327.194,-1.27548
12.8833,327.211,-1.27723
12.885,327.227,-1.2799
12.8867,327.244,-1.2822
12.8883,327.26,-1.28541
12.89,327.276,-1.28904
12.8917,327.293,-1.29234
12.8933,327.31,-1.29416
12.895,327.326,-1.29609
12.8967,327.343,-1.29896
12.8983,327.359,-1.30139
12.9,327.375,-1.30377
12.9017,327.392,-1.30678
12.9033,327.408,-1.31001
12.905,327.425,-1.31321
12.9067,327.442,-1.31853
12.9083,327.458,-1.32165
12.91,327.475,-1.32499
12.9117,327.491,-1.32783
12.9133,327.507,-1.33037
12.915,327.524,-1.33168
12.9167,327.54,-1.33318
12.9183,327.557,-1.33304
12.92,327.574,-1.3344
12.9217,327.59,-1.33559
12.9233,327.606,-1.33791
12.925,327.623,-1.34208
12.9267,327.639,-1.34573
12.9283,327.656,-1.35063
12.93,327.673,-1.35606
12.9317,327.689,-1.3605
12.9333,327.706,-1.36435
12.935,327.722,-1.36756
12.9367,327.738,-1.37069
12.9383,327.755,-1.37229
12.94,327.771,-1.37481
12.9417,327.788,-1.37691
12.9433,327.804,-1.37943
12.945,327.821,-1.38221
12.9467,327.837,-1.38394
12.9483,327.854,-1.38753
12.95,327.87,-1.39107
12.9517,327.886,-1.39416
12.9533,327.903,-1.3967
12.955,327.919,-1.40065
12.9567,327.936,-1.40371
12.9583,327.953,-1.40746
12.96,327.969,-1.41208
12.9617,327.986,-1.41535
12.9633,328.002,-1.41975
12.965,328.019,-1.42208
12.9667,328.035,-1.42529
12.9683,328.051,-1.42845
12.97,328.068,-1.43148
12.9717,328.084,-1.43507
12.9733,328.1,-1.43805
12.975,328.117,-1.44033
12.9767,328.133,-1.44417
12.9783,328.15,-1.44757
12.98,328.166,-1.45091
12.9817,328.183,-1.45503
12.9833,328.199,-1.45854
12.985,328.216,-1.46205
12.9867,328.232,-1.4662
12.9883,328.248,-1.4714
12.99,328.265,-1.47436
12.9917,328.281,-1.47839
12.9933,328.297,-1.48102
12.995,328.314,-1.4844
12.9967,328.331,-1.48699
12.9983,328.347,-1.49043
13,328.363,-1.49332
13.0017,328.38,-1.49533
13.0033,328.396,-1.49906
13.005,328.412,-1.50315
13.0067,328.429,-1.5064
13.0083,328.445,-1.51081
13.01,328.462,-1.51582
13.0117,328.478,-1.51992
13.0133,328.495,-1.52461
13.015,328.511,-1.52839
13.0167,328.528,-1.53162
13.0183,328.544,-1.53564
13.02,328.56,-1.53939
13.0217,328.577,-1.54224
13.0233,328.593,-1.54475
13.025,328.61,-1.54704
13.0267,328.627,-1.55003
13.0283,328.643,-1.55437
13.03,328.659,-1.55744
13.0317,328.675,-1.56079
13.0333,328.692,-1.56295
13.035,328.708,-1.56567
13.0367,328.724,-1.57049
13.0383,328.741,-1.57499
13.04,328.757,-1.57844
13.0417,328.774,-1.58132
13.0433,328.79,-1.5849
13.045,328.807,-1.58956
13.0467,328.823,-1.59224
13.0483,328.84,-1.59509
13.05,328.856,-1.59776
13.0517,328.872,-1.60104
13.0533,328.889,-1.60334
13.055,328.905,-1.60589
13.0567,328.922,-1.60855
13.0583,328.938,-1.61222
13.06,328.955,-1.6132
13.0617,328.971,-1.61557
13.0633,328.988,-1.6195
13.065,329.004,-1.62119
13.0667,329.02,-1.62284
13.0683,329.037,-1.62585
13.07,329.053,-1.62896
13.0717,329.07,-1.63314
13.0733,329.086,-1.6352
13.075,329.102,-1.63733
13.0767,329.119,-1.63913
13.0783,329.135,-1.6414
13.08,329.151,-1.64405
13.0817,329.168,-1.64627
13.0833,329.184,-1.64905
13.085,329.201,-1.65089
13.0867,329.217,-1.65299
13.0883,329.234,-1.65567
13.09,329.25,-1.65813
13.0917,329.267,-1.66016
13.0933,329.283,-1.66167
13.095,329.3,-1.66348
13.0967,329.316,-1.6661
13.0983,329.332,-1.66752
13.1,329.349,-1.66779
13.1017,329.366,-1.66853
13.1033,329.382,-1.66951
13.105,329.398,-1.67091
13.1067,329.415,-1.67207
13.1083,329.431,-1.67248
13.11,329.448,-1.67268
13.1117,329.465,-1.67251
13.1133,329.481,-1.67229
13.115,329.498,-1.6721
13.1167,329.514,-1.672
13.1183,329.53,-1.67157
13.12,329.547,-1.67133
13.1217,329.564,-1.67117
13.1233,329.58,-1.6711
13.125,329.597,-1.67109
13.1267,329.613,-1.67124
13.1283,329.629,-1.67141
13.13,329.646,-1.67162
13.1317,329.662,-1.67194
13.1333,329.679,-1.67198
13.135,329.695,-1.67192
13.1367,329.712,-1.67176
13.1383,329.729,-1.66957
13.14,329.745,-1.66838
13.1417,329.762,-1.66741
13.1433,329.778,-1.66644
13.145,329.795,-1.66544
13.1467,329.811,-1.66434
13.1483,329.828,-1.66339
13.15,329.845,-1.66255
13.1517,329.861,-1.66167
13.1533,329.878,-1.66029
13.155,329.894,-1.65873
13.1567,329.911,-1.65678
13.1583,329.928,-1.65469
13.16,329.945,-1.65237
13.1617,329.961,-1.65006
13.1633,329.978,-1.6476
13.165,329.995,-1.64476
13.1667,330.011,-1.64183
13.1683,330.028,-1.63881
13.17,330.044,-1.63567
13.1717,330.061,-1.6315
13.1733,330.078,-1.62653
13.175,330.095,-1.62149
13.1767,330.111,-1.61752
13.1783,330.128,-1.61199
13.18,330.145,-1.60653
13.1817,330.161,-1.60208
13.1833,330.178,-1.59744
13.185,330.194,-1.593
13.1867,330.211,-1.58817
13.1883,330.228,-1.58459
13.19,330.245,-1.58021
13.1917,330.262,-1.57631
13.1933,330.279,-1.57182
13.195,330.296,-1.56652
13.1967,330.312,-1.56175
13.1983,330.329,-1.55777
13.2,330.346,-1.55508
13.2017,330.362,-1.55067
13.2033,330.379,-1.54692
13.205,330.396,-1.54268
13.2067,330.413,-1.53797
13.2083,330.43,-1.53244
13.21,330.447,-1.52583
13.2117,330.463,-1.51893
13.2133,330.48,-1.51351
13.215,330.497,-1.50771
13.2167,330.514,-1.50248
13.2183,330.531,-1.49721
13.22,330.547,-1.49153
13.2217,330.564,-1.48501
13.2233,330.581,-1.47877
13.225,330.598,-1.47474
13.2267,330.614,-1.46878
13.2283,330.631,-1.4635
13.23,330.648,-1.4584
13.2317,330.665,-1.45469
13.2333,330.682,-1.44977
13.235,330.699,-1.44564
13.2367,330.716,-1.44058
13.2383,330.733,-1.43437
13.24,330.75,-1.42932
13.2417,330.767,-1.42376
13.2433,330.784,-1.4169
13.245,330.801,-1.41106
13.2467,330.818,-1.40481
13.2483,330.835,-1.39685
13.25,330.852,-1.39022
13.2517,330.869,-1.38423
13.2533,330.886,-1.37813
13.255,330.902,-1.37202
13.2567,330.919,-1.36654
13.2583,330.936,-1.36193
13.26,330.953,-1.35646
13.2617,330.97,-1.35109
13.2633,330.987,-1.34556
13.265,331.004,-1.3407
13.2667,331.021,-1.33679
13.2683,331.038,-1.33215
13.27,331.055,-1.32733
13.2717,331.072,-1.32194
13.2733,331.089,-1.31677
13.275,331.106,-1.31303
13.2767,331.123,-1.30691
13.2783,331.14,-1.3014
13.28,331.157,-1.29575
13.2817,331.174,-1.2891
13.2833,331.191,-1.28303
13.285,331.208,-1.27741
13.2867,331.225,-1.27153
13.2883,331.242,-1.26494
13.29,331.259,-1.25933
13.2917,331.275,-1.25354
13.2933,331.293,-1.24869
13.295,331.31,-1.24241
13.2967,331.327,-1.23732
13.2983,331.343,-1.23297
13.3,331.361,-1.22984
13.3017,331.377,-1.22549
13.3033,331.395,-1.22191
13.305,331.411,-1.21758
13.3067,331.429,-1.2126
13.3083,331.445,-1.20784
13.31,331.462,-1.20453
13.3117,331.48,-1.19938
13.3133,331.497,-1.19505
13.315,331.514,-1.19111
13.3167,331.531,-1.18769
13.3183,331.548,-1.18347
13.32,331.565,-1.17861
13.3217,331.582,-1.17297
13.3233,331.599,-1.16819
13.325,331.616,-1.16387
13.3267,331.633,-1.15862
13.3283,331.65,-1.15387
13.33,331.666,-1.14693
13.3317,331.683,-1.144
13.3333,331.7,-1.14054
13.335,331.717,-1.13817
13.3367,331.734,-1.13536
13.3383,331.751,-1.13118
13.34,331.768,-1.12919
13.3417,331.785,-1.12615
13.3433,331.802,-1.12387
13.345,331.819,-1.1216
13.3467,331.836,-1.11686
13.3483,331.853,-1.11277
13.35,331.87,-1.10905
13.3517,331.887,-1.10508
13.3533,331.904,-1.10102
13.355,331.921,-1.09582
13.3567,331.938,-1.09192
13.3583,331.955,-1.08778
13.36,331.972,-1.08515
13.3617,331.989,-1.08203
13.3633,332.006,-1.07969
13.365,332.022,-1.07771
13.3667,332.04,-1.07457
13.3683,332.057,-1.07279
13.37,332.074,-1.06864
13.3717,332.09,-1.06539
13.3733,332.107,-1.06298
13.375,332.124,-1.0598
13.3767,332.141,-1.0576
13.3783,332.158,-1.05575
13.38,332.175,-1.05306
13.3817,332.192,-1.05053
13.3833,332.209,-1.04932
13.385,332.226,-1.04761
13.3867,332.243,-1.0452
13.3883,332.26,-1.04154
13.39,332.276,-1.03933
13.3917,332.293,-1.03596
13.3933,332.31,-1.03443
13.395,332.327,-1.03224
13.3967,332.344,-1.02966
13.3983,332.361,-1.02699
13.4,332.378,-1.02453
13.4017,332.395,-1.02203
13.4033,332.412,-1.01918
13.405,332.429,-1.01739
13.4067,332.446,-1.01413
13.4083,332.462,-1.01291
13.41,332.479,-1.01054
13.4117,332.496,-1.00852
13.4133,332.513,-1.00705
13.415,332.53,-1.00644
13.4167,332.547,-1.00534
13.4183,332.564,-1.00449
13.42,332.581,-1.00372
13.4217,332.598,-1.00309
13.4233,332.614,-1.00234
13.425,332.631,-1.00119
13.4267,332.648,-0.99983
13.4283,332.665,-0.998177
13.43,332.682,-0.99596
13.4317,332.699,-0.992549
13.4333,332.716,-0.990307
13.435,332.732,-0.987786
13.4367,332.749,-0.984888
13.4383,332.767,-0.982334
13.44,332.783,-0.981084
13.4417,332.8,-0.980553
13.4433,332.817,-0.980135
13.445,332.834,-0.979326
13.4467,332.85,-0.97848
13.4483,332.867,-0.977703
13.45,332.884,-0.977039
13.4517,332.901,-0.976716
13.4533,332.918,-0.976301
13.455,332.934,-0.975562
13.4567,332.951,-0.974625
13.4583,332.968,-0.973798
13.46,332.985,-0.97209
13.4617,333.002,-0.969938
13.4633,333.019,-0.967762
13.465,333.035,-0.96576
13.4667,333.052,-0.964667
13.4683,333.069,-0.963449
13.47,333.085,-0.961951
13.4717,333.102,-0.960717
13.4733,333.119,-0.959484
13.475,333.136,-0.957932
13.4767,333.153,-0.956637
13.4783,333.169,-0.955272
13.48,333.186,-0.953889
13.4817,333.203,-0.952297
13.4833,333.219,-0.95099
13.485,333.236,-0.95015
13.4867,333.253,-0.949499
13.4883,333.27,-0.9489
13.49,333.287,-0.948192
13.4917,333.303,-0.947574
13.4933,333.32,-0.946776
13.495,333.337,-0.946006
13.4967,333.354,-0.945479
13.4983,333.371,-0.944398
13.5,333.388,-0.943265
13.5017,333.404,-0.942559
13.5033,333.421,-0.942193
13.505,333.438,-0.941823
13.5067,333.454,-0.941297
13.5083,333.471,-0.940914
13.51,333.488,-0.940565
13.5117,333.504,-0.940155
13.5133,333.522,-0.939748
13.515,333.538,-0.939345
13.5167,333.555,-0.938771
13.5183,333.571,-0.937869
13.52,333.589,-0.936606
13.5217,333.605,-0.935186
13.5233,333.622,-0.933988
13.525,333.639,-0.933101
13.5267,333.655,-0.932431
13.5283,333.672,-0.932
13.53,333.689,-0.9315
13.5317,333.706,-0.930958
13.5333,333.723,-0.930267
13.535,333.739,-0.929698
13.5367,333.756,-0.929165
13.5383,333.773,-0.928511
13.54,333.789,-0.927986
13.5417,333.806,-0.927536
13.5433,333.824,-0.92726
13.545,333.84,-0.927027
13.5467,333.857,-0.926859
13.5483,333.873,-0.926689
13.55,333.89,-0.92653
13.5517,333.907,-0.926308
13.5533,333.923,-0.926004
13.555,333.94,-0.925687
13.5567,333.957,-0.925274
13.5583,333.974,-0.924883
13.56,333.99,-0.924315
13.5617,334.007,-0.923693
13.5633,334.024,-0.923113
13.565,334.041,-0.922568
13.5667,334.058,-0.921886
13.5683,334.074,-0.921385
13.57,334.091,-0.920823
13.5717,334.107,-0.920226
13.5733,334.124,-0.919542
13.575,334.141,-0.91908
13.5767,334.158,-0.91862
13.5783,334.174,-0.918232
13.58,334.191,-0.917871
13.5817,334.208,-0.917491
13.5833,334.225,-0.917111
13.585,334.241,-0.91676
13.5867,334.258,-0.916544
13.5883,334.275,-0.91643
13.59,334.291,-0.916347
13.5917,334.308,-0.916259
13.5933,334.325,-0.91612
13.595,334.341,-0.915966
13.5967,334.358,-0.915712
13.5983,334.375,-0.915416
13.6,334.392,-0.914998
13.6017,334.408,-0.914557
13.6033,334.425,-0.914185
13.605,334.442,-0.913936
13.6067,334.458,-0.913694
13.6083,334.475,-0.913492
13.61,334.492,-0.913268
13.6117,334.508,-0.913122
13.6133,334.525,-0.912971
13.615,334.542,-0.912813
13.6167,334.558,-0.912646
13.6183,334.575,-0.912466
13.62,334.592,-0.912345
13.6217,334.609,-0.912256
13.6233,334.626,-0.912194
13.625,334.642,-0.912117
13.6267,334.659,-0.912051
13.6283,334.676,-0.911967
13.63,334.692,-0.911859
13.6317,334.709,-0.911742
13.6333,334.726,-0.911571
13.635,334.742,-0.911363
13.6367,334.759,-0.911176
13.6383,334.776,-0.910974
13.64,334.792,-0.910741
13.6417,334.809,-0.910617
13.6433,334.825,-0.910435
13.645,334.842,-0.910173
13.6467,334.859,-0.909974
13.6483,334.876,-0.90978
13.65,334.893,-0.909575
13.6517,334.909,-0.909325
13.6533,334.926,-0.909043
13.655,334.942,-0.908743
13.6567,334.959,-0.908466
13.6583,334.976,-0.9083
13.66,334.992,-0.908153
13.6617,335.009,-0.908066
13.6633,335.026,-0.907987
13.665,335.042,-0.907628
13.6667,335.059,-0.907353
13.6683,335.076,-0.907053
13.67,335.093,-0.906989
13.6717,335.109,-0.906923
13.6733,335.126,-0.906853
13.675,335.142,-0.906785
13.6767,335.159,-0.906716
13.6783,335.176,-0.906643
13.68,335.193,-0.906571
13.6817,335.21,-0.906506
13.6833,335.226,-0.906442
13.685,335.243,-0.906376
13.6867,335.26,-0.906307
13.6883,335.276,-0.906238
13.69,335.293,-0.906168
13.6917,335.31,-0.90609
13.6933,335.326,-0.906017
13.695,335.343,-0.905942
13.6967,335.36,-0.905865
13.6983,335.377,-0.905793
13.7,335.393,-0.905717
13.7017,335.41,-0.905651
13.7033,335.426,-0.905584
13.705,335.443,-0.905502
13.7067,335.46,-0.905417
13.7083,335.476,-0.905297
13.71,335.493,-0.905149
13.7117,335.51,-0.904947
13.7133,335.527,-0.904691
13.715,335.543,-0.90436
13.7167,335.56,-0.904172
13.7183,335.577,-0.904015
13.72,335.593,-0.903926
13.7217,335.61,-0.90384
13.7233,335.627,-0.903751
13.725,335.644,-0.903668
13.7267,335.66,-0.903589
13.7283,335.676,-0.903486
13.73,335.693,-0.903379
13.7317,335.71,-0.903246
13.7333,335.726,-0.903169
13.735,335.743,-0.903064
13.7367,335.76,-0.902984
13.7383,335.777,-0.902898
13.74,335.793,-0.902817
13.7417,335.81,-0.902726
13.7433,335.827,-0.902628
13.745,335.843,-0.902531
13.7467,335.86,-0.902436
13.7483,335.877,-0.90234
13.75,335.893,-0.902251
13.7517,335.91,-0.902163
13.7533,335.926,-0.902074
13.755,335.943,-0.901977
13.7567,335.96,-0.901894
13.7583,335.977,-0.901818
13.76,335.993,-0.901742
13.7617,336.01,-0.901667
13.7633,336.027,-0.901592
13.765,336.044,-0.901527
13.7667,336.06,-0.901464
13.7683,336.077,-0.9014
13.77,336.093,-0.901327
13.7717,336.11,-0.90125
13.7733,336.127,-0.901162
13.775,336.143,-0.901075
13.7767,336.16,-0.90098
13.7783,336.177,-0.900883
13.78,336.193,-0.900784
13.7817,336.21,-0.900698
13.7833,336.227,-0.900607
13.785,336.243,-0.900521
13.7867,336.26,-0.900436
13.7883,336.276,-0.900358
13.79,336.293,-0.900289
13.7917,336.309,-0.900226
13.7933,336.326,-0.900173
13.795,336.343,-0.900125
13.7967,336.36,-0.900082
13.7983,336.377,-0.90004
13.8,336.393,-0.899996
13.8017,336.41,-0.899938
13.8033,336.427,-0.899872
13.805,336.443,-0.899793
13.8067,336.46,-0.899705
13.8083,336.477,-0.899605
13.81,336.493,-0.89947
13.8117,336.51,-0.899315
13.8133,336.527,-0.899192
13.815,336.543,-0.899083
13.8167,336.56,-0.898992
13.8183,336.577,-0.898911
13.82,336.593,-0.898841
13.8217,336.609,-0.898782
13.8233,336.626,-0.898726
13.825,336.643,-0.898673
13.8267,336.66,-0.898627
13.8283,336.677,-0.898581
13.83,336.693,-0.898539
13.8317,336.71,-0.898484
13.8333,336.727,-0.898431
13.835,336.743,-0.898382
13.8367,336.76,-0.898322
13.8383,336.777,-0.898253
13.84,336.793,-0.898185
13.8417,336.81,-0.898112
13.8433,336.827,-0.898036
13.845,336.844,-0.897963
13.8467,336.86,-0.897892
13.8483,336.877,-0.897816
13.85,336.893,-0.897733
13.8517,336.91,-0.897651
13.8533,336.927,-0.897579
13.855,336.943,-0.89751
13.8567,336.96,-0.897446
13.8583,336.976,-0.897389
13.86,336.993,-0.897336
13.8617,337.01,-0.897283
13.8633,337.026,-0.897233
13.865,337.043,-0.89719
13.8667,337.06,-0.897151
13.8683,337.076,-0.897115
13.87,337.093,-0.897079
13.8717,337.11,-0.897038
13.8733,337.127,-0.896992
13.875,337.143,-0.896942
13.8767,337.16,-0.896893
13.8783,337.177,-0.896843
13.88,337.193,-0.896797
13.8817,337.21,-0.896749
13.8833,337.227,-0.896706
13.885,337.243,-0.896664
13.8867,337.26,-0.896622
13.8883,337.276,-0.896577
13.89,337.293,-0.896528
13.8917,337.31,-0.896478
13.8933,337.326,-0.896417
13.895,337.343,-0.896357
13.8967,337.359,-0.896303
13.8983,337.376,-0.896242
13.9,337.393,-0.89618
13.9017,337.409,-0.896125
13.9033,337.426,-0.89607
13.905,337.443,-0.896011
13.9067,337.46,-0.895947
13.9083,337.476,-0.895885
13.91,337.493,-0.895823
13.9117,337.509,-0.895747
13.9133,337.526,-0.895668
13.915,337.543,-0.895569
13.9167,337.559,-0.895487
13.9183,337.576,-0.895408
13.92,337.592,-0.895335
13.9217,337.609,-0.895274
13.9233,337.626,-0.895222
13.925,337.642,-0.895183
13.9267,337.659,-0.895154
13.9283,337.676,-0.895131
13.93,337.693,-0.895116
13.9317,337.709,-0.895094
13.9333,337.726,-0.895075
13.935,337.743,-0.895061
13.9367,337.759,-0.895045
13.9383,337.776,-0.895021
13.94,337.792,-0.894996
13.9417,337.809,-0.894966
13.9433,337.826,-0.894938
13.945,337.843,-0.894909
13.9467,337.859,-0.894879
13.9483,337.876,-0.894841
13.95,337.893,-0.8948
13.9517,337.909,-0.894751
13.9533,337.926,-0.894699
13.955,337.943,-0.894657
13.9567,337.959,-0.894612
13.9583,337.976,-0.894562
13.96,337.992,-0.894513
13.9617,338.009,-0.894462
13.9633,338.026,-0.894408
13.965,338.042,-0.894351
13.9667,338.059,-0.894315
13.9683,338.076,-0.894287
13.97,338.093,-0.89426
13.9717,338.109,-0.894233
13.9733,338.126,-0.894218
13.975,338.142,-0.894206
13.9767,338.159,-0.894194
13.9783,338.176,-0.894178
13.98,338.193,-0.894157
13.9817,338.209,-0.894129
13.9833,338.226,-0.894089
13.985,338.242,-0.894044
13.9867,338.259,-0.894001
13.9883,338.276,-0.893954
13.99,338.293,-0.89391
13.9917,338.309,-0.893865
13.9933,338.326,-0.893824
13.995,338.342,-0.893784
13.9967,338.359,-0.89375
13.9983,338.376,-0.893726
14,338.393,-0.893709
14.0017,338.409,-0.89369
14.0033,338.426,-0.893667
14.005,338.442,-0.89364
14.0067,338.459,-0.893623
14.0083,338.476,-0.893609
14.01,338.492,-0.893593
14.0117,338.509,-0.893581
14.0133,338.525,-0.893571
14.015,338.542,-0.893559
14.0167,338.558,-0.893548
14.0183,338.575,-0.893535
14.02,338.592,-0.893517
14.0217,338.609,-0.893498
14.0233,338.625,-0.893475
14.025,338.642,-0.89345
14.0267,338.658,-0.89342
14.0283,338.675,-0.893386
14.03,338.692,-0.893347
14.0317,338.709,-0.893319
14.0333,338.726,-0.893295
14.035,338.742,-0.893261
14.0367,338.759,-0.89323
14.0383,338.776,-0.893199
14.04,338.793,-0.893169
14.0417,338.809,-0.89313
14.0433,338.826,-0.893095
14.045,338.842,-0.893065
14.0467,338.859,-0.893031
14.0483,338.876,-0.892989
14.05,338.892,-0.89295
14.0517,338.909,-0.892914
14.0533,338.926,-0.892886
14.055,338.942,-0.892865
14.0567,338.959,-0.892847
14.0583,338.976,-0.892837
14.06,338.992,-0.892829
14.0617,339.009,-0.892818
14.0633,339.026,-0.892811
14.065,339.042,-0.892807
14.0667,339.059,-0.892801
14.0683,339.075,-0.892791
14.07,339.092,-0.892779
14.0717,339.109,-0.892777
14.0733,339.125,-0.892782
14.075,339.142,-0.892779
14.0767,339.159,-0.89277
14.0783,339.176,-0.892772
14.08,339.192,-0.892771
14.0817,339.209,-0.892755
14.0833,339.226,-0.892728
14.085,339.242,-0.892695
14.0867,339.259,-0.892655
14.0883,339.275,-0.892619
14.09,339.292,-0.892589
14.0917,339.309,-0.892569
14.0933,339.325,-0.892557
14.095,339.342,-0.892542
14.0967,339.359,-0.892525
14.0983,339.376,-0.892509
14.1,339.392,-0.8925
14.1017,339.409,-0.892491
14.1033,339.425,-0.892485
14.105,339.442,-0.892479
14.1067,339.459,-0.892474
14.1083,339.475,-0.89248
14.11,339.492,-0.892489
14.1117,339.508,-0.892503
14.1133,339.525,-0.892512
14.115,339.542,-0.892513
14.1167,339.558,-0.892511
14.1183,339.575,-0.892509
14.12,339.592,-0.892506
14.1217,339.609,-0.892502
14.1233,339.625,-0.8925
14.125,339.642,-0.892495
14.1267,339.658,-0.8925
14.1283,339.675,-0.892503
14.13,339.692,-0.892508
14.1317,339.708,-0.892518
14.1333,339.725,-0.892512
14.135,339.742,-0.892511
14.1367,339.758,-0.892508
14.1383,339.775,-0.892509
14.14,339.792,-0.89251
14.1417,339.809,-0.892506
14.1433,339.825,-0.892504
14.145,339.842,-0.892506
14.1467,339.859,-0.892498
14.1483,339.875,-0.892484
14.15,339.892,-0.892466
14.1517,339.909,-0.892458
14.1533,339.925,-0.892451
14.155,339.942,-0.892441
14.1567,339.958,-0.892433
14.1583,339.975,-0.892438
14.16,339.992,-0.892441
14.1617,340.009,-0.892451
14.1633,340.025,-0.892457
14.165,340.042,-0.89246
14.1667,340.059,-0.892463
14.1683,340.076,-0.89246
14.17,340.092,-0.892452
14.1717,340.109,-0.892454
14.1733,340.126,-0.892461
14.175,340.143,-0.892473
14.1767,340.159,-0.892483
14.1783,340.176,-0.892499
14.18,340.192,-0.892519
14.1817,340.209,-0.892522
14.1833,340.226,-0.892514
14.185,340.243,-0.892506
14.1867,340.259,-0.892498
14.1883,340.276,-0.892495
14.19,340.293,-0.892488
14.1917,340.309,-0.892478
14.1933,340.326,-0.892469
14.195,340.342,-0.89246
14.1967,340.359,-0.892456
14.1983,340.376,-0.892454
14.2,340.392,-0.892451
14.2017,340.409,-0.892445
14.2033,340.426,-0.892448
14.205,340.442,-0.892458
14.2067,340.459,-0.892469
14.2083,340.476,-0.892488
14.21,340.492,-0.892518
14.2117,340.509,-0.892551
14.2133,340.526,-0.892585
14.215,340.543,-0.892626
14.2167,340.559,-0.892656
14.2183,340.576,-0.89268
14.22,340.592,-0.892695
14.2217,340.609,-0.892708
14.2233,340.626,-0.892711
14.225,340.642,-0.892709
14.2267,340.659,-0.892704
14.2283,340.675,-0.892706
14.23,340.693,-0.892714
14.2317,340.709,-0.892724
14.2333,340.726,-0.892746
14.235,340.743,-0.892779
14.2367,340.759,-0.892823
14.2383,340.776,-0.892865
14.24,340.793,-0.89291
14.2417,340.809,-0.892959
14.2433,340.826,-0.893002
14.245,340.842,-0.893036
14.2467,340.86,-0.893066
14.2483,340.876,-0.893101
14.25,340.893,-0.893136
14.2517,340.909,-0.893169
14.2533,340.927,-0.893193
14.255,340.944,-0.89322
14.2567,340.96,-0.89324
14.2583,340.977,-0.893251
14.26,340.993,-0.89326
14.2617,341.01,-0.893263
14.2633,341.026,-0.893264
14.265,341.043,-0.893268
14.2667,341.06,-0.893263
14.2683,341.077,-0.893253
14.27,341.093,-0.893247
14.2717,341.11,-0.893238
14.2733,341.126,-0.893242
14.275,341.143,-0.893244
14.2767,341.16,-0.893243
14.2783,341.176,-0.893253
14.28,341.193,-0.893265
14.2817,341.21,-0.893274
14.2833,341.226,-0.893286
14.285,341.243,-0.8933
14.2867,341.259,-0.893316
14.2883,341.276,-0.893336
14.29,341.293,-0.893355
14.2917,341.31,-0.893386
14.2933,341.326,-0.893421
14.295,341.343,-0.893459
14.2967,341.359,-0.8935
14.2983,341.376,-0.893542
14.3,341.393,-0.893587
14.3017,341.41,-0.893619
14.3033,341.426,-0.893644
14.305,341.443,-0.893661
14.3067,341.46,-0.893672
14.3083,341.476,-0.893684
14.31,341.493,-0.893691
14.3117,341.51,-0.893692
14.3133,341.526,-0.893688
14.315,341.543,-0.893694
14.3167,341.56,-0.893701
14.3183,341.576,-0.893717
14.32,341.593,-0.89373
14.3217,341.609,-0.893745
14.3233,341.626,-0.893762
14.325,341.643,-0.893775
14.3267,341.66,-0.89379
14.3283,341.676,-0.893814
14.33,341.693,-0.893846
14.3317,341.71,-0.893883
14.3333,341.726,-0.893922
14.335,341.743,-0.893956
14.3367,341.759,-0.893987
14.3383,341.776,-0.894011
14.34,341.793,-0.894036
14.3417,341.809,-0.894051
14.3433,341.826,-0.894059
14.345,341.843,-0.894066
14.3467,341.859,-0.894074
14.3483,341.876,-0.894088
14.35,341.893,-0.894101
14.3517,341.91,-0.894112
14.3533,341.926,-0.894124
14.355,341.943,-0.894135
14.3567,341.96,-0.894142
14.3583,341.976,-0.894149
14.36,341.993,-0.894159
14.3617,342.01,-0.894168
14.3633,342.026,-0.894182
14.365,342.043,-0.8942
14.3667,342.06,-0.894218
14.3683,342.076,-0.894245
14.37,342.093,-0.894271
14.3717,342.11,-0.894306
14.3733,342.127,-0.894343
14.375,342.143,-0.894389
14.3767,342.16,-0.894437
14.3783,342.176,-0.894484
14.38,342.193,-0.894528
14.3817,342.21,-0.894566
14.3833,342.226,-0.894597
14.385,342.243,-0.894624
14.3867,342.259,-0.894641
14.3883,342.277,-0.89465
14.39,342.294,-0.894654
14.3917,342.31,-0.894658
14.3933,342.326,-0.894669
14.395,342.343,-0.894698
14.3967,342.36,-0.894734
14.3983,342.376,-0.89478
14.4,342.393,-0.894825
14.4017,342.41,-0.894872
14.4033,342.427,-0.894921
14.405,342.443,-0.894986
14.4067,342.46,-0.895034
14.4083,342.477,-0.895081
14.41,342.494,-0.895117
14.4117,342.51,-0.895141
14.4133,342.527,-0.895167
14.415,342.544,-0.895194
14.4167,342.56,-0.895227
14.4183,342.577,-0.895255
14.42,342.593,-0.895278
14.4217,342.61,-0.895299
14.4233,342.627,-0.895307
14.425,342.644,-0.895312
14.4267,342.66,-0.895315
14.4283,342.677,-0.895313
14.43,342.693,-0.895303
14.4317,342.71,-0.895263
14.4333,342.727,-0.895252
14.435,342.743,-0.895247
14.4367,342.76,-0.895251
14.4383,342.776,-0.89526
14.44,342.793,-0.895277
14.4417,342.81,-0.895299
14.4433,342.827,-0.895326
14.445,342.843,-0.895361
14.4467,342.86,-0.895402
14.4483,342.876,-0.895444
14.45,342.893,-0.895483
14.4517,342.91,-0.895516
14.4533,342.926,-0.895547
14.455,342.943,-0.895578
14.4567,342.96,-0.895604
14.4583,342.976,-0.895633
14.46,342.993,-0.895666
14.4617,343.01,-0.895693
14.4633,343.026,-0.895721
14.465,343.043,-0.895749
14.4667,343.06,-0.895784
14.4683,343.076,-0.895826
14.47,343.093,-0.895855
14.4717,343.11,-0.895885
14.4733,343.127,-0.89591
14.475,343.143,-0.895928
14.4767,343.16,-0.895945
14.4783,343.177,-0.895953
14.48,343.194,-0.895955
14.4817,343.21,-0.895959
14.4833,343.226,-0.895968
14.485,343.243,-0.895976
14.4867,343.26,-0.895991
14.4883,343.276,-0.896015
14.49,343.293,-0.89605
14.4917,343.31,-0.896081
14.4933,343.326,-0.896116
14.495,343.343,-0.896151
14.4967,343.36,-0.896188
14.4983,343.376,-0.89623
14.5,343.393,-0.896268
14.5017,343.409,-0.896295
14.5033,343.426,-0.896316
14.505,343.443,-0.896335
14.5067,343.459,-0.896352
14.5083,343.476,-0.896364
14.51,343.493,-0.896375
14.5117,343.509,-0.896373
14.5133,343.526,-0.896375
14.515,343.543,-0.896386
14.5167,343.559,-0.8964
14.5183,343.576,-0.896428
14.52,343.593,-0.896467
14.5217,343.609,-0.896509
14.5233,343.626,-0.896557
14.525,343.643,-0.896608
14.5267,343.66,-0.896651
14.5283,343.676,-0.896678
14.53,343.693,-0.89669
14.5317,343.709,-0.896697
14.5333,343.726,-0.896704
14.535,343.743,-0.896706
14.5367,343.759,-0.896699
14.5383,343.776,-0.896698
14.54,343.792,-0.896707
14.5417,343.809,-0.896722
14.5433,343.826,-0.896754
14.545,343.843,-0.896797
14.5467,343.859,-0.896847
14.5483,343.876,-0.896903
14.55,343.893,-0.896992
14.5517,343.909,-0.897074
14.5533,343.926,-0.897128
14.555,343.943,-0.897166
14.5567,343.959,-0.897193
14.5583,343.976,-0.897217
14.56,343.993,-0.897233
14.5617,344.009,-0.897249
14.5633,344.026,-0.897261
14.565,344.043,-0.897278
14.5667,344.059,-0.897295
14.5683,344.076,-0.897321
14.57,344.093,-0.897353
14.5717,344.109,-0.89738
14.5733,344.125,-0.897414
14.575,344.142,-0.897443
14.5767,344.159,-0.897469
14.5783,344.176,-0.897498
14.58,344.193,-0.897519
14.5817,344.209,-0.897543
14.5833,344.226,-0.897553
14.585,344.243,-0.897558
14.5867,344.259,-0.89757
14.5883,344.276,-0.897583
14.59,344.293,-0.897592
14.5917,344.309,-0.897606
14.5933,344.326,-0.897621
14.595,344.343,-0.897631
14.5967,344.359,-0.897648
14.5983,344.376,-0.897668
14.6,344.393,-0.8977
14.6017,344.409,-0.897735
14.6033,344.426,-0.897764
14.605,344.443,-0.897801
14.6067,344.459,-0.897837
14.6083,344.476,-0.897874
14.61,344.493,-0.897909
14.6117,344.509,-0.897942
14.6133,344.525,-0.897974
14.615,344.542,-0.898
14.6167,344.559,-0.898025
14.6183,344.576,-0.89805
14.62,344.593,-0.898077
14.6217,344.609,-0.898107
14.6233,344.625,-0.89814
14.625,344.642,-0.898167
14.6267,344.659,-0.898191
14.6283,344.676,-0.898226
14.63,344.692,-0.898264
14.6317,344.709,-0.898297
14.6333,344.725,-0.898321
14.635,344.742,-0.898339
14.6367,344.759,-0.89836
14.6383,344.775,-0.898384
14.64,344.792,-0.898413
14.6417,344.809,-0.89843
14.6433,344.825,-0.898441
14.645,344.842,-0.898453
14.6467,344.859,-0.898478
14.6483,344.876,-0.8985
14.65,344.892,-0.898522
14.6517,344.909,-0.898545
14.6533,344.926,-0.898567
14.655,344.943,-0.898595
14.6567,344.959,-0.898622
14.6583,344.976,-0.898657
14.66,344.992,-0.898703
14.6617,345.009,-0.898751
14.6633,345.026,-0.8988
14.665,345.042,-0.898843
14.6667,345.059,-0.898881
14.6683,345.075,-0.898916
14.67,345.092,-0.898949
14.6717,345.109,-0.898989
14.6733,345.126,-0.899025
14.675,345.142,-0.899048
14.6767,345.159,-0.899065
14.6783,345.176,-0.899089
14.68,345.192,-0.899121
14.6817,345.209,-0.899151
14.6833,345.226,-0.899175
14.685,345.242,-0.899201
14.6867,345.259,-0.899226
14.6883,345.276,-0.899237
14.69,345.292,-0.899251
14.6917,345.309,-0.899272
14.6933,345.326,-0.899292
14.695,345.342,-0.899311
14.6967,345.359,-0.899331
14.6983,345.375,-0.899353
14.7,345.392,-0.899379
14.7017,345.409,-0.899406
14.7033,345.426,-0.89943
14.705,345.442,-0.89946
14.7067,345.459,-0.899492
14.7083,345.476,-0.899523
14.71,345.492,-0.899557
14.7117,345.509,-0.899589
14.7133,345.526,-0.899616
14.715,345.542,-0.899636
14.7167,345.559,-0.899651
14.7183,345.576,-0.899665
14.72,345.592,-0.899676
14.7217,345.609,-0.899682
14.7233,345.625,-0.899694
14.725,345.642,-0.899725
14.7267,345.658,-0.89976
14.7283,345.675,-0.899792
14.73,345.692,-0.899834
14.7317,345.709,-0.899873
14.7333,345.725,-0.899903
14.735,345.742,-0.899932
14.7367,345.758,-0.899965
14.7383,345.775,-0.899992
14.74,345.792,-0.900011
14.7417,345.808,-0.900031
14.7433,345.825,-0.900057
14.745,345.842,-0.900082
14.7467,345.858,-0.900115
14.7483,345.875,-0.90015
14.75,345.892,-0.900193
14.7517,345.908,-0.900242
14.7533,345.925,-0.900288
14.755,345.941,-0.900333
14.7567,345.958,-0.900382
14.7583,345.975,-0.900442
14.76,345.991,-0.900496
14.7617,346.008,-0.900543
14.7633,346.025,-0.900578
14.765,346.041,-0.900606
14.7667,346.058,-0.900629
14.7683,346.075,-0.900654
14.77,346.092,-0.900672
14.7717,346.108,-0.900688
14.7733,346.125,-0.900706
14.775,346.141,-0.900724
14.7767,346.158,-0.900745
14.7783,346.175,-0.900776
14.78,346.191,-0.900811
14.7817,346.208,-0.900846
14.7833,346.225,-0.900887
14.785,346.242,-0.900929
14.7867,346.258,-0.900968
14.7883,346.275,-0.900997
14.79,346.291,-0.901013
14.7917,346.308,-0.901027
14.7933,346.325,-0.901047
14.795,346.341,-0.901057
14.7967,346.358,-0.901066
14.7983,346.375,-0.901072
14.8,346.391,-0.901082
14.8017,346.408,-0.901104
14.8033,346.425,-0.901131
14.805,346.442,-0.901158
14.8067,346.458,-0.90119
14.8083,346.475,-0.901214
14.81,346.491,-0.901242
14.8117,346.508,-0.901276
14.8133,346.524,-0.901319
14.815,346.541,-0.901355
14.8167,346.558,-0.901385
14.8183,346.574,-0.901414
14.82,346.591,-0.90144
14.8217,346.608,-0.901469
14.8233,346.624,-0.901505
14.825,346.641,-0.901547
14.8267,346.658,-0.901583
14.8283,346.674,-0.90162
14.83,346.691,-0.901653
14.8317,346.708,-0.901689
14.8333,346.724,-0.901715
14.835,346.741,-0.901732
14.8367,346.758,-0.901742
14.8383,346.775,-0.901746
14.84,346.791,-0.901756
14.8417,346.807,-0.901767
14.8433,346.824,-0.90178
14.845,346.841,-0.9018
14.8467,346.858,-0.901826
14.8483,346.874,-0.901853
14.85,346.891,-0.901885
14.8517,346.908,-0.90191
14.8533,346.924,-0.90193
14.855,346.941,-0.90195
14.8567,346.957,-0.90197
14.8583,346.974,-0.901988
14.86,346.991,-0.902007
14.8617,347.008,-0.902029
14.8633,347.024,-0.902064
14.865,347.041,-0.902092
14.8667,347.058,-0.902118
14.8683,347.075,-0.902135
14.87,347.091,-0.902149
14.8717,347.108,-0.902154
14.8733,347.125,-0.902145
14.875,347.141,-0.902139
14.8767,347.158,-0.902128
14.8783,347.174,-0.902111
14.88,347.191,-0.902091
14.8817,347.207,-0.902085
14.8833,347.224,-0.902087
14.885,347.24,-0.9021
14.8867,347.257,-0.90212
14.8883,347.274,-0.902162
14.89,347.291,-0.902203
14.8917,347.307,-0.902249
14.8933,347.324,-0.90232
14.895,347.341,-0.902409
14.8967,347.357,-0.902509
14.8983,347.374,-0.902568
14.9,347.391,-0.902614
14.9017,347.407,-0.902662
14.9033,347.424,-0.902703
14.905,347.44,-0.902739
14.9067,347.457,-0.902765
14.9083,347.473,-0.902779
14.91,347.49,-0.902787
14.9117,347.507,-0.902789
14.9133,347.523,-0.902797
14.915,347.54,-0.90281
14.9167,347.557,-0.902827
14.9183,347.573,-0.902847
14.92,347.59,-0.902872
14.9217,347.607,-0.902905
14.9233,347.624,-0.902936
14.925,347.64,-0.902968
14.9267,347.656,-0.903005
14.9283,347.673,-0.903047
14.93,347.69,-0.903094
14.9317,347.706,-0.903135
14.9333,347.723,-0.903172
14.935,347.74,-0.903201
14.9367,347.757,-0.903229
14.9383,347.773,-0.903252
14.94,347.79,-0.903274
14.9417,347.807,-0.903295
14.9433,347.823,-0.903321
14.945,347.84,-0.903362
14.9467,347.857,-0.903419
14.9483,347.874,-0.903516
14.95,347.89,-0.903575
14.9517,347.907,-0.903619
14.9533,347.923,-0.903661
14.955,347.94,-0.9037
14.9567,347.957,-0.903718
14.9583,347.973,-0.903731
14.96,347.99,-0.903737
14.9617,348.006,-0.903746
14.9633,348.023,-0.903759
14.965,348.04,-0.903776
14.9667,348.056,-0.903798
14.9683,348.073,-0.90382
14.97,348.089,-0.903845
14.9717,348.106,-0.903866
14.9733,348.123,-0.903881
14.975,348.139,-0.903897
14.9767,348.156,-0.903913
14.9783,348.173,-0.903931
14.98,348.19,-0.903948
14.9817,348.206,-0.903956
14.9833,348.223,-0.903957
14.985,348.239,-0.903962
14.9867,348.256,-0.90397
14.9883,348.272,-0.903982
14.99,348.289,-0.904003
14.9917,348.306,-0.904029
14.9933,348.322,-0.904054
14.995,348.339,-0.904095
14.9967,348.355,-0.904145
14.9983,348.372,-0.904222
15,348.389,-0.90433
15.0017,348.405,-0.90447
15.0033,348.422,-0.90459
15.005,348.439,-0.904695
15.0067,348.456,-0.904751
15.0083,348.472,-0.904793
15.01,348.489,-0.904826
15.0117,348.506,-0.904838
15.0133,348.522,-0.904844
15.015,348.539,-0.904846
15.0167,348.556,-0.904847
15.0183,348.572,-0.904853
15.02,348.589,-0.904868
15.0217,348.605,-0.904895
15.0233,348.622,-0.904927
15.025,348.639,-0.904965
15.0267,348.655,-0.905007
15.0283,348.672,-0.905051
15.03,348.688,-0.905093
15.0317,348.705,-0.905134
15.0333,348.722,-0.905181
15.035,348.739,-0.905222
15.0367,348.755,-0.905255
15.0383,348.772,-0.905286
15.04,348.789,-0.905311
15.0417,348.805,-0.90533
15.0433,348.822,-0.905346
15.045,348.839,-0.90536
15.0467,348.855,-0.905368
15.0483,348.872,-0.90538
15.05,348.888,-0.905402
15.0517,348.906,-0.905427
15.0533,348.922,-0.905452
15.055,348.939,-0.905482
15.0567,348.955,-0.905518
15.0583,348.972,-0.905564
15.06,348.989,-0.905618
15.0617,349.005,-0.905673
15.0633,349.022,-0.905733
15.065,349.039,-0.905792
15.0667,349.055,-0.905844
15.0683,349.072,-0.905891
15.07,349.088,-0.905935
15.0717,349.105,-0.905974
15.0733,349.122,-0.906016
15.075,349.138,-0.90606
15.0767,349.155,-0.906098
15.0783,349.172,-0.906134
15.08,349.188,-0.906169
15.0817,349.205,-0.906207
15.0833,349.222,-0.906246
15.085,349.238,-0.906288
15.0867,349.255,-0.90633
15.0883,349.271,-0.906363
15.09,349.288,-0.906388
15.0917,349.305,-0.906406
15.0933,349.321,-0.906422
15.095,349.338,-0.90644
15.0967,349.355,-0.90646
15.0983,349.371,-0.906479
15.1,349.388,-0.906497
15.1017,349.405,-0.906522
15.1033,349.422,-0.906545
15.105,349.438,-0.906571
15.1067,349.454,-0.906605
15.1083,349.471,-0.906643
15.11,349.488,-0.906686
15.1117,349.504,-0.906728
15.1133,349.521,-0.906767
15.115,349.537,-0.906809
15.1167,349.554,-0.906848
15.1183,349.571,-0.90688
15.12,349.588,-0.906903
15.1217,349.604,-0.906919
15.1233,349.621,-0.90693
15.125,349.638,-0.906946
15.1267,349.654,-0.906964
15.1283,349.671,-0.906982
15.13,349.687,-0.907011
15.1317,349.704,-0.907051
15.1333,349.721,-0.907091
15.135,349.737,-0.907133
15.1367,349.754,-0.907171
15.1383,349.771,-0.907199
15.14,349.787,-0.907226
15.1417,349.804,-0.907259
15.1433,349.821,-0.907286
15.145,349.837,-0.907311
15.1467,349.854,-0.907333
15.1483,349.871,-0.907361
15.15,349.887,-0.907401
15.1517,349.904,-0.907436
15.1533,349.92,-0.907475
15.155,349.937,-0.907525
15.1567,349.953,-0.907571
15.1583,349.97,-0.90762
15.16,349.987,-0.907672
15.1617,350.004,-0.907723
15.1633,350.02,-0.907761
15.165,350.037,-0.907797
15.1667,350.054,-0.907832
15.1683,350.07,-0.907862
15.17,350.087,-0.907889
15.1717,350.103,-0.907932
15.1733,350.12,-0.907976
15.175,350.137,-0.908021
15.1767,350.153,-0.908067
15.1783,350.17,-0.908108
15.18,350.187,-0.908154
15.1817,350.204,-0.908193
15.1833,350.22,-0.908222
15.185,350.237,-0.908251
15.1867,350.253,-0.908275
15.1883,350.27,-0.908311
15.19,350.287,-0.908355
15.1917,350.303,-0.908402
15.1933,350.32,-0.908455
15.195,350.337,-0.908508
15.1967,350.353,-0.908561
15.1983,350.369,-0.908608
15.2,350.386,-0.90865
15.2017,350.403,-0.908685
15.2033,350.42,-0.908711
15.205,350.436,-0.908722
15.2067,350.453,-0.908731
15.2083,350.47,-0.908728
15.21,350.486,-0.908714
15.2117,350.503,-0.908697
15.2133,350.52,-0.908688
15.215,350.536,-0.908688
15.2167,350.553,-0.908695
15.2183,350.569,-0.908704
15.22,350.586,-0.908719
15.2217,350.603,-0.90873
15.2233,350.62,-0.908743
15.225,350.636,-0.908765
15.2267,350.653,-0.908794
15.2283,350.669,-0.90882
15.23,350.686,-0.908849
15.2317,350.703,-0.908892
15.2333,350.719,-0.90894
15.235,350.736,-0.908987
15.2367,350.753,-0.909032
15.2383,350.77,-0.909067
15.24,350.786,-0.909096
15.2417,350.803,-0.909123
15.2433,350.819,-0.909148
15.245,350.836,-0.909168
15.2467,350.853,-0.909189
15.2483,350.869,-0.909217
15.25,350.886,-0.909254
15.2517,350.903,-0.909304
15.2533,350.919,-0.90936
15.255,350.936,-0.909445
15.2567,350.953,-0.909549
15.2583,350.969,-0.909631
15.26,350.986,-0.909717
15.2617,351.002,-0.909776
15.2633,351.019,-0.909824
15.265,351.036,-0.909865
15.2667,351.052,-0.90991
15.2683,351.069,-0.909948
15.27,351.085,-0.909978
15.2717,351.102,-0.91001
15.2733,351.119,-0.910034
15.275,351.136,-0.910063
15.2767,351.153,-0.910097
15.2783,351.169,-0.910139
15.28,351.186,-0.910178
15.2817,351.203,-0.910216
15.2833,351.219,-0.91025
15.285,351.236,-0.910278
15.2867,351.253,-0.910309
15.2883,351.269,-0.910343
15.29,351.286,-0.910364
15.2917,351.302,-0.910386
15.2933,351.319,-0.910409
15.295,351.336,-0.910432
15.2967,351.352,-0.910457
15.2983,351.369,-0.910481
15.3,351.385,-0.910506
15.3017,351.402,-0.910529
15.3033,351.419,-0.910539
15.305,351.436,-0.910549
15.3067,351.452,-0.910557
15.3083,351.469,-0.910572
15.31,351.485,-0.910596
15.3117,351.502,-0.910629
15.3133,351.518,-0.910668
15.315,351.535,-0.910725
15.3167,351.552,-0.910799
15.3183,351.568,-0.910859
15.32,351.585,-0.91092
15.3217,351.602,-0.910987
15.3233,351.619,-0.911035
15.325,351.635,-0.911075
15.3267,351.652,-0.911121
15.3283,351.668,-0.911169
15.33,351.685,-0.911205
15.3317,351.702,-0.911233
15.3333,351.718,-0.911251
15.335,351.735,-0.911272
15.3367,351.751,-0.911282
15.3383,351.768,-0.911292
15.34,351.785,-0.911307
15.3417,351.802,-0.911325
15.3433,351.819,-0.911355
15.345,351.835,-0.911391
15.3467,351.852,-0.911442
15.3483,351.869,-0.911496
15.35,351.885,-0.911551
15.3517,351.902,-0.911605
15.3533,351.919,-0.911657
15.355,351.935,-0.911704
15.3567,351.952,-0.911735
15.3583,351.969,-0.911765
15.36,351.985,-0.911793
15.3617,352.002,-0.911814
15.3633,352.019,-0.911837
15.365,352.035,-0.911857
15.3667,352.052,-0.911875
15.3683,352.068,-0.911894
15.37,352.085,-0.911912
15.3717,352.102,-0.911934
15.3733,352.118,-0.911967
15.375,352.135,-0.912007
15.3767,352.152,-0.912055
15.3783,352.169,-0.9121
15.38,352.185,-0.912144
15.3817,352.202,-0.912192
15.3833,352.218,-0.912248
15.385,352.235,-0.912299
15.3867,352.252,-0.912342
15.3883,352.268,-0.912385
15.39,352.284,-0.912439
15.3917,352.301,-0.91249
15.3933,352.318,-0.912531
15.395,352.335,-0.912565
15.3967,352.351,-0.912596
15.3983,352.368,-0.912618
15.4,352.384,-0.912632
15.4017,352.401,-0.912647
15.4033,352.418,-0.91266
15.405,352.434,-0.912684
15.4067,352.451,-0.912715
15.4083,352.467,-0.91275
15.41,352.484,-0.912794
15.4117,352.501,-0.912845
15.4133,352.518,-0.912907
15.415,352.534,-0.913006
15.4167,352.551,-0.913071
15.4183,352.568,-0.913161
15.42,352.584,-0.913225
15.4217,352.601,-0.913276
15.4233,352.617,-0.913326
15.425,352.634,-0.913373
15.4267,352.651,-0.913415
15.4283,352.668,-0.913451
15.43,352.684,-0.913477
15.4317,352.701,-0.9135
15.4333,352.718,-0.913517
15.435,352.734,-0.913539
15.4367,352.751,-0.913562
15.4383,352.767,-0.913584
15.44,352.784,-0.913605
15.4417,352.801,-0.913619
15.4433,352.817,-0.913637
15.445,352.834,-0.913661
15.4467,352.85,-0.913685
15.4483,352.867,-0.913704
15.45,352.883,-0.913726
15.4517,352.9,-0.913747
15.4533,352.917,-0.913767
15.455,352.933,-0.913789
15.4567,352.95,-0.913815
15.4583,352.967,-0.913837
15.46,352.984,-0.913858
15.4617,353,-0.913882
15.4633,353.017,-0.913905
15.465,353.034,-0.913926
15.4667,353.051,-0.913947
15.4683,353.067,-0.913974
15.47,353.084,-0.913997
15.4717,353.1,-0.914018
15.4733,353.116,-0.91404
15.475,353.133,-0.914058
15.4767,353.15,-0.914082
15.4783,353.166,-0.914112
15.48,353.183,-0.91415
15.4817,353.2,-0.914193
15.4833,353.217,-0.914246
15.485,353.233,-0.914334
15.4867,353.25,-0.914463
15.4883,353.267,-0.914526
15.49,353.283,-0.914586
15.4917,353.3,-0.914635
15.4933,353.317,-0.914673
15.495,353.333,-0.9147
15.4967,353.35,-0.914728
15.4983,353.367,-0.914745
15.5,353.383,-0.914753
15.5017,353.4,-0.914754
15.5033,353.417,-0.914772
15.505,353.433,-0.914787
15.5067,353.45,-0.914807
15.5083,353.466,-0.914831
15.51,353.483,-0.914858
15.5117,353.499,-0.914888
15.5133,353.516,-0.914917
15.515,353.533,-0.914939
15.5167,353.55,-0.914954
15.5183,353.566,-0.914968
15.52,353.583,-0.914982
15.5217,353.6,-0.914991
15.5233,353.616,-0.914999
15.525,353.633,-0.915006
15.5267,353.65,-0.915023
15.5283,353.666,-0.91505
15.53,353.683,-0.915079
15.5317,353.699,-0.915112
15.5333,353.716,-0.915152
15.535,353.733,-0.915202
15.5367,353.749,-0.915259
15.5383,353.766,-0.915311
15.54,353.783,-0.915366
15.5417,353.799,-0.915421
15.5433,353.816,-0.915482
15.545,353.832,-0.915535
15.5467,353.849,-0.915579
15.5483,353.866,-0.915626
15.55,353.883,-0.915664
15.5517,353.9,-0.915699
15.5533,353.916,-0.915731
15.555,353.932,-0.915755
15.5567,353.949,-0.91578
15.5583,353.966,-0.915805
15.56,353.983,-0.915831
15.5617,353.999,-0.915852
15.5633,354.015,-0.915876
15.565,354.032,-0.915889
15.5667,354.048,-0.915912
15.5683,354.065,-0.915941
15.57,354.082,-0.915972
15.5717,354.098,-0.915997
15.5733,354.115,-0.916023
15.575,354.132,-0.916053
15.5767,354.149,-0.916089
15.5783,354.165,-0.916133
15.58,354.182,-0.916185
15.5817,354.199,-0.916242
15.5833,354.215,-0.9163
15.585,354.232,-0.916362
15.5867,354.249,-0.91642
15.5883,354.265,-0.916475
15.59,354.282,-0.916512
15.5917,354.298,-0.916543
15.5933,354.315,-0.916576
15.595,354.331,-0.916602
15.5967,354.348,-0.91662
15.5983,354.364,-0.91663
15.6,354.381,-0.916649
15.6017,354.398,-0.916665
15.6033,354.415,-0.916685
15.605,354.431,-0.9167
15.6067,354.448,-0.916713
15.6083,354.465,-0.916725
15.61,354.481,-0.916733
15.6117,354.498,-0.916752
15.6133,354.515,-0.916775
15.615,354.531,-0.916799
15.6167,354.548,-0.916823
15.6183,354.565,-0.916856
15.62,354.581,-0.916885
15.6217,354.598,-0.916921
15.6233,354.615,-0.916955
15.625,354.631,-0.916992
15.6267,354.648,-0.917031
15.6283,354.664,-0.917064
15.63,354.681,-0.9171
15.6317,354.698,-0.917135
15.6333,354.714,-0.917164
15.635,354.731,-0.917186
15.6367,354.748,-0.9172
15.6383,354.764,-0.917205
15.64,354.781,-0.917202
15.6417,354.798,-0.917202
15.6433,354.815,-0.917207
15.645,354.832,-0.917223
15.6467,354.848,-0.917245
15.6483,354.864,-0.917267
15.65,354.881,-0.9173
15.6517,354.898,-0.917335
15.6533,354.914,-0.917371
15.655,354.931,-0.917404
15.6567,354.947,-0.917439
15.6583,354.964,-0.917476
15.66,354.981,-0.917516
15.6617,354.997,-0.917552
15.6633,355.014,-0.917592
15.665,355.03,-0.91763
15.6667,355.047,-0.917671
15.6683,355.064,-0.91772
15.67,355.081,-0.917777
15.6717,355.097,-0.917845
15.6733,355.114,-0.917893
15.675,355.131,-0.917937
15.6767,355.147,-0.917976
15.6783,355.164,-0.918021
15.68,355.181,-0.918064
15.6817,355.198,-0.918099
15.6833,355.214,-0.918135
15.685,355.231,-0.918159
15.6867,355.247,-0.918184
15.6883,355.263,-0.918209
15.69,355.281,-0.918235
15.6917,355.297,-0.91827
15.6933,355.314,-0.918302
15.695,355.331,-0.918337
15.6967,355.347,-0.918374
15.6983,355.364,-0.918416
15.7,355.38,-0.918454
15.7017,355.397,-0.918498
15.7033,355.414,-0.918537
15.705,355.43,-0.918568
15.7067,355.447,-0.918596
15.7083,355.463,-0.918621
15.71,355.48,-0.918641
15.7117,355.497,-0.918665
15.7133,355.513,-0.91868
15.715,355.53,-0.91869
15.7167,355.547,-0.9187
15.7183,355.564,-0.91872
15.72,355.58,-0.918742
15.7217,355.596,-0.918767
15.7233,355.613,-0.918798
15.725,355.629,-0.918833
15.7267,355.646,-0.918873
15.7283,355.663,-0.918901
15.73,355.68,-0.918927
15.7317,355.696,-0.918944
15.7333,355.713,-0.918959
15.735,355.73,-0.918974
15.7367,355.746,-0.918991
15.7383,355.763,-0.919009
15.74,355.78,-0.919026
15.7417,355.797,-0.919042
15.7433,355.813,-0.91906
15.745,355.83,-0.919087
15.7467,355.847,-0.91912
15.7483,355.863,-0.919163
15.75,355.88,-0.91921
15.7517,355.896,-0.919261
15.7533,355.913,-0.919313
15.755,355.929,-0.919361
15.7567,355.946,-0.919409
15.7583,355.963,-0.919452
15.76,355.979,-0.919483
15.7617,355.996,-0.919509
15.7633,356.013,-0.919533
15.765,356.029,-0.919561
15.7667,356.046,-0.919598
15.7683,356.063,-0.919635
15.77,356.08,-0.919668
15.7717,356.097,-0.9197
15.7733,356.113,-0.919736
15.775,356.13,-0.919771
15.7767,356.147,-0.919802
15.7783,356.163,-0.919826
15.78,356.18,-0.919846
15.7817,356.197,-0.919869
15.7833,356.213,-0.919898
15.785,356.23,-0.919928
15.7867,356.246,-0.919964
15.7883,356.263,-0.920001
15.79,356.279,-0.920052
15.7917,356.296,-0.920104
15.7933,356.313,-0.920149
15.795,356.329,-0.920191
15.7967,356.346,-0.920232
15.7983,356.363,-0.920275
15.8,356.379,-0.920318
15.8017,356.396,-0.920361
15.8033,356.413,-0.920404
15.805,356.429,-0.920445
15.8067,356.446,-0.920483
15.8083,356.463,-0.920528
15.81,356.479,-0.920573
15.8117,356.496,-0.920611
15.8133,356.513,-0.920634
15.815,356.529,-0.920659
15.8167,356.546,-0.920681
15.8183,356.563,-0.920707
15.82,356.579,-0.920731
15.8217,356.596,-0.920754
15.8233,356.613,-0.920775
15.825,356.63,-0.920799
15.8267,356.646,-0.920824
15.8283,356.663,-0.920849
15.83,356.68,-0.920886
15.8317,356.696,-0.920917
15.8333,356.712,-0.920937
15.835,356.729,-0.920959
15.8367,356.746,-0.920985
15.8383,356.762,-0.921019
15.84,356.779,-0.921057
15.8417,356.795,-0.921104
15.8433,356.812,-0.921145
15.845,356.829,-0.921187
15.8467,356.846,-0.921226
15.8483,356.862,-0.921264
15.85,356.879,-0.921307
15.8517,356.896,-0.921345
15.8533,356.913,-0.921374
15.855,356.929,-0.921395
15.8567,356.946,-0.921415
15.8583,356.962,-0.921448
15.86,356.979,-0.921479
15.8617,356.996,-0.921504
15.8633,357.012,-0.921527
15.865,357.029,-0.92154
15.8667,357.046,-0.921541
15.8683,357.062,-0.921538
15.87,357.078,-0.921532
15.8717,357.095,-0.921523
15.8733,357.112,-0.921513
15.875,357.128,-0.921504
15.8767,357.145,-0.921497
15.8783,357.162,-0.921494
15.88,357.178,-0.921488
15.8817,357.195,-0.92149
15.8833,357.212,-0.921504
15.885,357.228,-0.921532
15.8867,357.245,-0.921568
15.8883,357.262,-0.921608
15.89,357.279,-0.921651
15.8917,357.295,-0.921695
15.8933,357.312,-0.921745
15.895,357.329,-0.921792
15.8967,357.345,-0.921834
15.8983,357.362,-0.921866
15.9,357.378,-0.9219
15.9017,357.395,-0.921931
15.9033,357.412,-0.921961
15.905,357.429,-0.921993
15.9067,357.445,-0.922015
15.9083,357.462,-0.92203
15.91,357.478,-0.92205
15.9117,357.495,-0.922063
15.9133,357.512,-0.922071
15.915,357.529,-0.922071
15.9167,357.545,-0.922065
15.9183,357.562,-0.922062
15.92,357.578,-0.922055
15.9217,357.595,-0.922057
15.9233,357.611,-0.922062
15.925,357.628,-0.922084
15.9267,357.644,-0.922108
15.9283,357.661,-0.922136
15.93,357.678,-0.922173
15.9317,357.694,-0.922213
15.9333,357.711,-0.922254
15.935,357.728,-0.922296
15.9367,357.744,-0.922323
15.9383,357.761,-0.922359
15.94,357.778,-0.92238
15.9417,357.794,-0.922396
15.9433,357.811,-0.922413
15.945,357.828,-0.922431
15.9467,357.844,-0.922452
15.9483,357.86,-0.922479
15.95,357.877,-0.92251
15.9517,357.895,-0.922545
15.9533,357.911,-0.922582
15.955,357.928,-0.922622
15.9567,357.944,-0.922672
15.9583,357.961,-0.922723
15.96,357.978,-0.922765
15.9617,357.994,-0.922808
15.9633,358.011,-0.922844
15.965,358.028,-0.922875
15.9667,358.044,-0.922895
15.9683,358.061,-0.922911
15.97,358.077,-0.922918
15.9717,358.094,-0.922913
15.9733,358.111,-0.922901
15.975,358.127,-0.922896
15.9767,358.144,-0.92289
15.9783,358.161,-0.922893
15.98,358.177,-0.92291
15.9817,358.194,-0.922938
15.9833,358.21,-0.922976
15.985,358.227,-0.923025
15.9867,358.244,-0.923116
15.9883,358.261,-0.92318
15.99,358.278,-0.923233
15.9917,358.294,-0.923278
15.9933,358.311,-0.923319
15.995,358.327,-0.923356
15.9967,358.344,-0.923381
15.9983,358.36,-0.923401
16,358.377,-0.923421
16.0017,358.394,-0.923436
16.0033,358.411,-0.923446
16.005,358.427,-0.923459
16.0067,358.444,-0.923471
16.0083,358.461,-0.923496
16.01,358.477,-0.923523
16.0117,358.494,-0.923553
16.0133,358.51,-0.923571
16.015,358.528,-0.923605
16.0167,358.544,-0.923644
16.0183,358.561,-0.923685
16.02,358.578,-0.923734
16.0217,358.594,-0.923782
16.0233,358.611,-0.923821
16.025,358.627,-0.923862
16.0267,358.644,-0.923909
16.0283,358.661,-0.923958
16.03,358.677,-0.924003
16.0317,358.694,-0.924045
16.0333,358.711,-0.924092
16.035,358.727,-0.924132
16.0367,358.744,-0.924169
16.0383,358.76,-0.924198
16.04,358.777,-0.924222
16.0417,358.794,-0.924243
16.0433,358.81,-0.924263
16.045,358.827,-0.924275
16.0467,358.844,-0.924282
16.0483,358.86,-0.924282
16.05,358.877,-0.924276
16.0517,358.894,-0.924269
16.0533,358.91,-0.924265
16.055,358.927,-0.924274
16.0567,358.944,-0.92428
16.0583,358.96,-0.924291
16.06,358.977,-0.924312
16.0617,358.993,-0.924336
16.0633,359.01,-0.924357
16.065,359.027,-0.92438
16.0667,359.043,-0.924415
16.0683,359.06,-0.924455
16.07,359.077,-0.924488
16.0717,359.093,-0.924518
16.0733,359.11,-0.924553
16.075,359.126,-0.92459
16.0767,359.143,-0.924619
16.0783,359.16,-0.924642
16.08,359.176,-0.924662
16.0817,359.193,-0.924685
16.0833,359.209,-0.924717
16.085,359.226,-0.924753
16.0867,359.243,-0.924791
16.0883,359.259,-0.924834
16.09,359.276,-0.924878
16.0917,359.293,-0.924915
16.0933,359.31,-0.924961
16.095,359.326,-0.925001
16.0967,359.343,-0.925035
16.0983,359.359,-0.925066
16.1,359.376,-0.925087
16.1017,359.392,-0.9251
16.1033,359.41,-0.925113
16.105,359.426,-0.925127
16.1067,359.443,-0.925149
16.1083,359.459,-0.925168
16.11,359.476,-0.925189
16.1117,359.492,-0.925211
16.1133,359.509,-0.925236
16.115,359.526,-0.925261
16.1167,359.542,-0.925289
16.1183,359.559,-0.925327
16.12,359.576,-0.925361
16.1217,359.592,-0.925386
16.1233,359.609,-0.925414
16.125,359.625,-0.925447
16.1267,359.642,-0.925475
16.1283,359.659,-0.925498
16.13,359.675,-0.925522
16.1317,359.692,-0.92554
16.1333,359.709,-0.925569
16.135,359.725,-0.925593
16.1367,359.742,-0.925625
16.1383,359.758,-0.925662
16.14,359.775,-0.9257
16.1417,359.792,-0.925739
16.1433,359.809,-0.925782
16.145,359.825,-0.925821
16.1467,359.842,-0.925857
16.1483,359.859,-0.925886
16.15,359.875,-0.925912
16.1517,359.892,-0.925934
16.1533,359.909,-0.925951
16.155,359.925,-0.925956
16.1567,359.942,-0.92595
16.1583,359.958,-0.925947
16.16,359.975,-0.92594
16.1617,359.992,-0.925942
16.1633,360.008,-0.925944
16.165,360.025,-0.92594
16.1667,360.042,-0.925931
16.1683,360.059,-0.925932
16.17,360.075,-0.925943
16.1717,360.092,-0.925967
16.1733,360.108,-0.925992
16.175,360.125,-0.92602
16.1767,360.142,-0.926054
16.1783,360.158,-0.926089
16.18,360.175,-0.926128
16.1817,360.191,-0.926162
16.1833,360.208,-0.926206
16.185,360.225,-0.926247
16.1867,360.242,-0.926292
16.1883,360.259,-0.926339
16.19,360.275,-0.926382
16.1917,360.292,-0.926415
16.1933,360.308,-0.926446
16.195,360.325,-0.926467
16.1967,360.341,-0.926483
16.1983,360.358,-0.926497
16.2,360.374,-0.926509
16.2017,360.391,-0.926516
16.2033,360.408,-0.92652
16.205,360.425,-0.926524
16.2067,360.441,-0.926532
16.2083,360.458,-0.926544
16.21,360.474,-0.926556
16.2117,360.491,-0.926582
16.2133,360.508,-0.926619
16.215,360.525,-0.926664
16.2167,360.541,-0.926712
16.2183,360.558,-0.926753
16.22,360.574,-0.9268
16.2217,360.591,-0.92685
16.2233,360.607,-0.926896
16.225,360.624,-0.926936
16.2267,360.641,-0.926969
16.2283,360.658,-0.927002
16.23,360.674,-0.927033
16.2317,360.691,-0.927062
16.2333,360.708,-0.927082
16.235,360.724,-0.927095
16.2367,360.741,-0.927107
16.2383,360.757,-0.927124
16.24,360.774,-0.927147
16.2417,360.791,-0.927165
16.2433,360.808,-0.927181
16.245,360.824,-0.927201
16.2467,360.841,-0.927227
16.2483,360.858,-0.927256
16.25,360.874,-0.927283
16.2517,360.891,-0.927317
16.2533,360.907,-0.927355
16.255,360.924,-0.927396
16.2567,360.94,-0.927433
16.2583,360.957,-0.927465
16.26,360.974,-0.927493
16.2617,360.99,-0.927516
16.2633,361.007,-0.92754
16.265,361.023,-0.927567
16.2667,361.04,-0.927593
16.2683,361.057,-0.927622
16.27,361.074,-0.927664
16.2717,361.091,-0.927717
16.2733,361.107,-0.927767
16.275,361.124,-0.927811
16.2767,361.141,-0.927848
16.2783,361.158,-0.927873
16.28,361.174,-0.927885
16.2817,361.191,-0.927886
16.2833,361.207,-0.927882
16.285,361.224,-0.927882
16.2867,361.241,-0.927888
16.2883,361.258,-0.9279
16.29,361.274,-0.927912
16.2917,361.291,-0.927926
16.2933,361.307,-0.927954
16.295,361.324,-0.927989
16.2967,361.341,-0.928021
16.2983,361.358,-0.928058
16.3,361.374,-0.928091
16.3017,361.391,-0.928124
16.3033,361.408,-0.92815
16.305,361.424,-0.928177
16.3067,361.441,-0.928192
16.3083,361.458,-0.928193
16.31,361.474,-0.928192
16.3117,361.491,-0.9282
16.3133,361.507,-0.928212
16.315,361.524,-0.92823
16.3167,361.541,-0.928253
16.3183,361.557,-0.928278
16.32,361.574,-0.928306
16.3217,361.591,-0.928341
16.3233,361.607,-0.928378
16.325,361.624,-0.92842
16.3267,361.64,-0.928464
16.3283,361.657,-0.928504
16.33,361.674,-0.928539
16.3317,361.691,-0.928573
16.3333,361.707,-0.928608
16.335,361.724,-0.92865
16.3367,361.741,-0.928692
16.3383,361.758,-0.928728
16.34,361.774,-0.928757
16.3417,361.791,-0.92878
16.3433,361.808,-0.928806
16.345,361.824,-0.928826
16.3467,361.841,-0.928839
16.3483,361.857,-0.928844
16.35,361.874,-0.928842
16.3517,361.891,-0.928845
16.3533,361.907,-0.92885
16.355,361.923,-0.928862
16.3567,361.94,-0.92888
16.3583,361.957,-0.928898
16.36,361.974,-0.928924
16.3617,361.99,-0.928956
16.3633,362.007,-0.928991
16.365,362.024,-0.929023
16.3667,362.04,-0.929059
16.3683,362.057,-0.929089
16.37,362.074,-0.929117
16.3717,362.09,-0.929147
16.3733,362.107,-0.929174
16.375,362.124,-0.929206
16.3767,362.14,-0.929246
16.3783,362.157,-0.929279
16.38,362.173,-0.929314
16.3817,362.19,-0.929355
16.3833,362.207,-0.929388
16.385,362.223,-0.929422
16.3867,362.24,-0.929444
16.3883,362.257,-0.929455
16.39,362.274,-0.929456
16.3917,362.29,-0.929445
16.3933,362.307,-0.929436
16.395,362.323,-0.929426
16.3967,362.34,-0.929417
16.3983,362.356,-0.929411
16.4,362.373,-0.929413
16.4017,362.39,-0.929425
16.4033,362.406,-0.929439
16.405,362.423,-0.929459
16.4067,362.44,-0.929483
16.4083,362.457,-0.929506
16.41,362.473,-0.929523
16.4117,362.49,-0.929547
16.4133,362.507,-0.929565
16.415,362.523,-0.929584
16.4167,362.54,-0.929609
16.4183,362.556,-0.929639
16.42,362.573,-0.929672
16.4217,362.59,-0.929705
16.4233,362.606,-0.929733
16.425,362.623,-0.929758
16.4267,362.64,-0.929784
16.4283,362.656,-0.929808
16.43,362.673,-0.929828
16.4317,362.69,-0.929845
16.4333,362.706,-0.929852
16.435,362.723,-0.929864
16.4367,362.74,-0.929874
16.4383,362.756,-0.929885
16.44,362.773,-0.929904
16.4417,362.79,-0.929927
16.4433,362.807,-0.929957
16.445,362.823,-0.930003
16.4467,362.84,-0.930054
16.4483,362.857,-0.930108
16.45,362.873,-0.930163
16.4517,362.889,-0.930217
16.4533,362.906,-0.930266
16.455,362.923,-0.930301
16.4567,362.94,-0.930331
16.4583,362.956,-0.930356
16.46,362.973,-0.930373
16.4617,362.989,-0.93039
16.4633,363.006,-0.930398
16.465,363.023,-0.930405
16.4667,363.039,-0.930402
16.4683,363.056,-0.930394
16.47,363.073,-0.930398
16.4717,363.09,-0.930405
16.4733,363.107,-0.930409
16.475,363.123,-0.930412
16.4767,363.14,-0.930414
16.4783,363.157,-0.930416
16.48,363.173,-0.930427
16.4817,363.19,-0.930441
16.4833,363.206,-0.930464
16.485,363.223,-0.93049
16.4867,363.24,-0.930513
16.4883,363.257,-0.930545
16.49,363.273,-0.930583
16.4917,363.29,-0.930622
16.4933,363.306,-0.930662
16.495,363.323,-0.930698
16.4967,363.34,-0.930732
16.4983,363.357,-0.93076
16.5,363.373,-0.930781
16.5017,363.39,-0.9308
16.5033,363.407,-0.930812
16.505,363.423,-0.93081
16.5067,363.44,-0.930803
16.5083,363.457,-0.930802
16.51,363.473,-0.930797
16.5117,363.49,-0.930791
16.5133,363.506,-0.930786
16.515,363.523,-0.930789
16.5167,363.539,-0.930804
16.5183,363.556,-0.930815
16.52,363.573,-0.930829
16.5217,363.589,-0.930847
16.5233,363.606,-0.930866
16.525,363.622,-0.93089
16.5267,363.639,-0.930915
16.5283,363.656,-0.930933
16.53,363.673,-0.930954
16.5317,363.689,-0.930982
16.5333,363.706,-0.931015
16.535,363.723,-0.931051
16.5367,363.739,-0.931086
16.5383,363.756,-0.931115
16.54,363.773,-0.931144
16.5417,363.79,-0.931178
16.5433,363.806,-0.93121
16.545,363.823,-0.931227
16.5467,363.839,-0.931238
16.5483,363.856,-0.931256
16.55,363.872,-0.931268
16.5517,363.889,-0.931282
16.5533,363.906,-0.931304
16.555,363.923,-0.931329
16.5567,363.939,-0.931351
16.5583,363.956,-0.931378
16.56,363.972,-0.931403
16.5617,363.989,-0.931433
16.5633,364.006,-0.931459
16.565,364.022,-0.931473
16.5667,364.039,-0.931484
16.5683,364.056,-0.931496
16.57,364.072,-0.931507
16.5717,364.089,-0.931513
16.5733,364.106,-0.931516
16.575,364.122,-0.931515
16.5767,364.139,-0.931513
16.5783,364.156,-0.931514
16.58,364.173,-0.931522
16.5817,364.189,-0.931535
16.5833,364.206,-0.931549
16.585,364.222,-0.93157
16.5867,364.239,-0.93158
16.5883,364.256,-0.931592
16.59,364.272,-0.931605
16.5917,364.289,-0.93162
16.5933,364.305,-0.931638
16.595,364.322,-0.931662
16.5967,364.339,-0.931688
16.5983,364.355,-0.93172
16.6,364.372,-0.931754
16.6017,364.389,-0.931778
16.6033,364.405,-0.931796
16.605,364.422,-0.931809
16.6067,364.439,-0.931807
16.6083,364.455,-0.931802
16.61,364.472,-0.931796
16.6117,364.489,-0.931796
16.6133,364.506,-0.931807
16.615,364.522,-0.931816
16.6167,364.539,-0.931839
16.6183,364.555,-0.931871
16.62,364.572,-0.931908
16.6217,364.589,-0.931946
16.6233,364.605,-0.931984
16.625,364.622,-0.932014
16.6267,364.639,-0.932043
16.6283,364.655,-0.932062
16.63,364.672,-0.932078
16.6317,364.688,-0.932086
16.6333,364.705,-0.932097
16.635,364.722,-0.932116
16.6367,364.738,-0.932139
16.6383,364.755,-0.932148
16.64,364.772,-0.932152
16.6417,364.789,-0.932161
16.6433,364.805,-0.93218
16.645,364.822,-0.932209
16.6467,364.838,-0.932242
16.6483,364.855,-0.932273
16.65,364.872,-0.932308
16.6517,364.888,-0.932344
16.6533,364.905,-0.932378
16.655,364.921,-0.932418
16.6567,364.938,-0.932455
16.6583,364.955,-0.932493
16.66,364.971,-0.932525
16.6617,364.988,-0.932557
16.6633,365.005,-0.932587
16.665,365.021,-0.932616
16.6667,365.038,-0.932647
16.6683,365.054,-0.932673
16.67,365.071,-0.932689
16.6717,365.087,-0.932699
16.6733,365.104,-0.93271
16.675,365.121,-0.932727
16.6767,365.138,-0.932745
16.6783,365.154,-0.932755
16.68,365.171,-0.93276
16.6817,365.188,-0.932765
16.6833,365.205,-0.932769
16.685,365.221,-0.932778
16.6867,365.237,-0.932787
16.6883,365.254,-0.932798
16.69,365.271,-0.932809
16.6917,365.287,-0.932822
16.6933,365.304,-0.932837
16.695,365.32,-0.932852
16.6967,365.337,-0.932859
16.6983,365.354,-0.932868
16.7,365.371,-0.932867
16.7017,365.387,-0.932864
16.7033,365.404,-0.932864
16.705,365.421,-0.932861
16.7067,365.437,-0.932855
16.7083,365.454,-0.932847
16.71,365.47,-0.932846
16.7117,365.487,-0.932854
16.7133,365.504,-0.932873
16.715,365.52,-0.9329
16.7167,365.537,-0.932928
16.7183,365.554,-0.932947
16.72,365.57,-0.932975
16.7217,365.587,-0.932999
16.7233,365.604,-0.933022
16.725,365.62,-0.933049
16.7267,365.637,-0.933074
16.7283,365.654,-0.933098
16.73,365.671,-0.933122
16.7317,365.687,-0.933142
16.7333,365.704,-0.933156
16.735,365.72,-0.933164
16.7367,365.737,-0.933169
16.7383,365.753,-0.933168
16.74,365.77,-0.933173
16.7417,365.787,-0.933179
16.7433,365.803,-0.93318
16.745,365.82,-0.933184
16.7467,365.837,-0.933197
16.7483,365.853,-0.933219
16.75,365.87,-0.933244
16.7517,365.887,-0.933268
16.7533,365.903,-0.933285
16.755,365.92,-0.933309
16.7567,365.937,-0.933336
16.7583,365.954,-0.933365
16.76,365.97,-0.933382
16.7617,365.987,-0.9334
16.7633,366.004,-0.933424
16.765,366.02,-0.933449
16.7667,366.037,-0.933469
16.7683,366.053,-0.933484
16.77,366.07,-0.933501
16.7717,366.086,-0.933519
16.7733,366.103,-0.933541
16.775,366.12,-0.93357
16.7767,366.135,-0.933605
16.7783,366.152,-0.933638
16.78,366.169,-0.93366
16.7817,366.186,-0.933684
16.7833,366.202,-0.933702
16.785,366.219,-0.933716
16.7867,366.236,-0.933729
16.7883,366.252,-0.933742
16.79,366.269,-0.933757
16.7917,366.286,-0.933776
16.7933,366.302,-0.933797
16.795,366.319,-0.93383
16.7967,366.336,-0.933854
16.7983,366.352,-0.93387
16.8,366.369,-0.933885
16.8017,366.385,-0.933897
16.8033,366.402,-0.93391
16.805,366.419,-0.933934
16.8067,366.436,-0.933952
16.8083,366.452,-0.933976
16.81,366.469,-0.933999
16.8117,366.485,-0.934024
16.8133,366.502,-0.934048
16.815,366.518,-0.934073
16.8167,366.535,-0.934093
16.8183,366.552,-0.934114
16.82,366.569,-0.934134
16.8217,366.586,-0.934151
16.8233,366.602,-0.934169
16.825,366.619,-0.934176
16.8267,366.636,-0.934175
16.8283,366.652,-0.934177
16.83,366.669,-0.934185
16.8317,366.686,-0.934195
16.8333,366.702,-0.934199
16.835,366.719,-0.9342
16.8367,366.735,-0.934207
16.8383,366.752,-0.934213
16.84,366.769,-0.934225
16.8417,366.785,-0.934241
16.8433,366.802,-0.93425
16.845,366.819,-0.934258
16.8467,366.836,-0.934277
16.8483,366.852,-0.934301
16.85,366.868,-0.934331
16.8517,366.885,-0.934371
16.8533,366.902,-0.934417
16.855,366.918,-0.934461
16.8567,366.935,-0.934505
16.8583,366.952,-0.934547
16.86,366.968,-0.934581
16.8617,366.985,-0.934605
16.8633,367.002,-0.934615
16.865,367.018,-0.934624
16.8667,367.035,-0.934636
16.8683,367.052,-0.934652
16.87,367.068,-0.934662
16.8717,367.085,-0.934672
16.8733,367.102,-0.934682
16.875,367.118,-0.934699
16.8767,367.135,-0.934713
16.8783,367.152,-0.934727
16.88,367.169,-0.934745
16.8817,367.185,-0.934754
16.8833,367.202,-0.934753
16.885,367.219,-0.934749
16.8867,367.235,-0.934751
16.8883,367.252,-0.934754
16.89,367.268,-0.934763
16.8917,367.285,-0.934773
16.8933,367.302,-0.934784
16.895,367.318,-0.9348
16.8967,367.335,-0.934813
16.8983,367.352,-0.934829
16.9,367.368,-0.934851
16.9017,367.384,-0.934875
16.9033,367.401,-0.934897
16.905,367.418,-0.934932
16.9067,367.434,-0.934972
16.9083,367.451,-0.935008
16.91,367.468,-0.935047
16.9117,367.484,-0.935091
16.9133,367.501,-0.935137
16.915,367.518,-0.935177
16.9167,367.534,-0.935217
16.9183,367.551,-0.935253
16.92,367.568,-0.935282
16.9217,367.585,-0.935311
16.9233,367.601,-0.935335
16.925,367.618,-0.935354
16.9267,367.634,-0.935368
16.9283,367.652,-0.935386
16.93,367.668,-0.935392
16.9317,367.684,-0.935393
16.9333,367.701,-0.935393
16.935,367.718,-0.935394
16.9367,367.735,-0.935392
16.9383,367.752,-0.935393
16.94,367.768,-0.935391
16.9417,367.785,-0.935391
16.9433,367.802,-0.935394
16.945,367.818,-0.935394
16.9467,367.835,-0.935397
16.9483,367.851,-0.935399
16.95,367.868,-0.935401
16.9517,367.884,-0.935414
16.9533,367.901,-0.935433
16.955,367.918,-0.935457
16.9567,367.935,-0.935491
16.9583,367.951,-0.935526
16.96,367.968,-0.935565
16.9617,367.985,-0.9356
16.9633,368.001,-0.935633
16.965,368.018,-0.935667
16.9667,368.035,-0.935691
16.9683,368.051,-0.935706
16.97,368.068,-0.935715
16.9717,368.085,-0.935713
16.9733,368.101,-0.935717
16.975,368.118,-0.93573
16.9767,368.135,-0.935752
16.9783,368.151,-0.935777
16.98,368.167,-0.935809
16.9817,368.184,-0.935852
16.9833,368.201,-0.9359
16.985,368.217,-0.935945
16.9867,368.234,-0.93599
16.9883,368.251,-0.936028
16.99,368.268,-0.936057
16.9917,368.284,-0.936076
16.9933,368.301,-0.936083
16.995,368.318,-0.93608
16.9967,368.335,-0.936068
16.9983,368.351,-0.936052
17,368.368,-0.936039
17.0017,368.385,-0.93602
17.0033,368.401,-0.936002
17.005,368.418,-0.935994
17.0067,368.435,-0.935988
17.0083,368.451,-0.935982
17.01,368.468,-0.935994
17.0117,368.485,-0.936006
17.0133,368.501,-0.936016
17.015,368.518,-0.936028
17.0167,368.534,-0.936051
17.0183,368.551,-0.936076
17.02,368.567,-0.936105
17.0217,368.584,-0.936139
17.0233,368.601,-0.936174
17.025,368.617,-0.936205
17.0267,368.634,-0.936231
17.0283,368.65,-0.936271
17.03,368.667,-0.936319
17.0317,368.684,-0.936359
17.0333,368.7,-0.936386
17.035,368.717,-0.936404
17.0367,368.734,-0.936419
17.0383,368.75,-0.93642
17.04,368.767,-0.93642
17.0417,368.784,-0.936416
17.0433,368.801,-0.936417
17.045,368.817,-0.936422
17.0467,368.834,-0.936431
17.0483,368.851,-0.936452
17.05,368.867,-0.936474
17.0517,368.884,-0.936491
17.0533,368.9,-0.936504
17.055,368.917,-0.936526
17.0567,368.934,-0.936546
17.0583,368.951,-0.936562
17.06,368.967,-0.936584
17.0617,368.984,-0.936612
17.0633,369.001,-0.93664
17.065,369.017,-0.936663
17.0667,369.034,-0.936683
17.0683,369.05,-0.936702
17.07,369.067,-0.936721
17.0717,369.084,-0.936739
17.0733,369.1,-0.936757
17.075,369.117,-0.936768
17.0767,369.134,-0.936771
17.0783,369.15,-0.936771
17.08,369.167,-0.936776
17.0817,369.183,-0.936773
17.0833,369.2,-0.936766
17.085,369.217,-0.93675
17.0867,369.234,-0.93674
17.0883,369.25,-0.936732
17.09,369.267,-0.93673
17.0917,369.283,-0.936728
17.0933,369.3,-0.936741
17.095,369.317,-0.936761
17.0967,369.334,-0.936775
17.0983,369.35,-0.936796
17.1,369.367,-0.936823
17.1017,369.383,-0.936852
17.1033,369.4,-0.936876
17.105,369.417,-0.936898
17.1067,369.434,-0.936919
17.1083,369.45,-0.936925
17.11,369.467,-0.936933
17.1117,369.483,-0.936942
17.1133,369.5,-0.936958
17.115,369.517,-0.936974
17.1167,369.533,-0.936994
17.1183,369.55,-0.937013
17.12,369.566,-0.937034
17.1217,369.583,-0.937057
17.1233,369.6,-0.937074
17.125,369.616,-0.937094
17.1267,369.633,-0.937115
17.1283,369.65,-0.937131
17.13,369.667,-0.937147
17.1317,369.683,-0.937155
17.1333,369.7,-0.937158
17.135,369.717,-0.937161
17.1367,369.733,-0.937163
17.1383,369.75,-0.937161
17.14,369.767,-0.937156
17.1417,369.783,-0.937164
17.1433,369.8,-0.937178
17.145,369.816,-0.937198
17.1467,369.833,-0.937223
17.1483,369.849,-0.937248
17.15,369.866,-0.937275
17.1517,369.883,-0.937301
17.1533,369.9,-0.937321
17.155,369.916,-0.937339
17.1567,369.932,-0.937356
17.1583,369.95,-0.937373
17.16,369.966,-0.937394
17.1617,369.983,-0.937426
17.1633,370,-0.937464
17.165,370.016,-0.937494
17.1667,370.033,-0.937533
17.1683,370.05,-0.93757
17.17,370.066,-0.937605
17.1717,370.083,-0.937631
17.1733,370.1,-0.937645
17.175,370.116,-0.93765
17.1767,370.133,-0.937655
17.1783,370.15,-0.937648
17.18,370.166,-0.93764
17.1817,370.183,-0.937642
17.1833,370.2,-0.937638
17.185,370.216,-0.937638
17.1867,370.233,-0.937634
17.1883,370.25,-0.937624
17.19,370.266,-0.937611
17.1917,370.283,-0.937594
17.1933,370.299,-0.93758
17.195,370.316,-0.937561
17.1967,370.333,-0.937543
17.1983,370.349,-0.937525
17.2,370.366,-0.937511
17.2017,370.383,-0.937502
17.2033,370.399,-0.937505
17.205,370.416,-0.937512
17.2067,370.433,-0.937534
17.2083,370.45,-0.937561
17.21,370.466,-0.937588
17.2117,370.483,-0.937625
17.2133,370.499,-0.937673
17.215,370.516,-0.937715
17.2167,370.533,-0.93779
17.2183,370.55,-0.937835
17.22,370.566,-0.937872
17.2217,370.583,-0.937898
17.2233,370.599,-0.937916
17.225,370.616,-0.937928
17.2267,370.633,-0.937937
17.2283,370.649,-0.937935
17.23,370.666,-0.937926
17.2317,370.683,-0.937915
17.2333,370.7,-0.937906
17.235,370.716,-0.937894
17.2367,370.733,-0.937891
17.2383,370.75,-0.937891
17.24,370.766,-0.937896
17.2417,370.783,-0.937904
17.2433,370.799,-0.937913
17.245,370.816,-0.937916
17.2467,370.832,-0.937929
17.2483,370.849,-0.937943
17.25,370.866,-0.937959
17.2517,370.882,-0.937978
17.2533,370.899,-0.938001
17.255,370.916,-0.938029
17.2567,370.933,-0.938054
17.2583,370.949,-0.938075
17.26,370.966,-0.938097
17.2617,370.983,-0.938121
17.2633,370.999,-0.938146
17.265,371.016,-0.938171
17.2667,371.032,-0.938194
17.2683,371.049,-0.938217
17.27,371.066,-0.938239
17.2717,371.083,-0.938258
17.2733,371.099,-0.938269
17.275,371.116,-0.938275
17.2767,371.133,-0.938274
17.2783,371.149,-0.938275
17.28,371.166,-0.938271
17.2817,371.183,-0.938272
17.2833,371.199,-0.93827
17.285,371.216,-0.938277
17.2867,371.232,-0.938293
17.2883,371.249,-0.938314
17.29,371.266,-0.938338
17.2917,371.283,-0.938365
17.2933,371.299,-0.938391
17.295,371.316,-0.938416
17.2967,371.332,-0.938444
17.2983,371.349,-0.938466
17.3,371.366,-0.938489
17.3017,371.383,-0.938513
17.3033,371.399,-0.938532
17.305,371.416,-0.938551
17.3067,371.432,-0.938558
17.3083,371.448,-0.938561
17.31,371.465,-0.938562
17.3117,371.482,-0.938561
17.3133,371.499,-0.938562
17.315,371.516,-0.938567
17.3167,371.532,-0.938575
17.3183,371.548,-0.938585
17.32,371.566,-0.9386
17.3217,371.582,-0.938615
17.3233,371.599,-0.938631
17.325,371.616,-0.938649
17.3267,371.632,-0.938663
17.3283,371.649,-0.938677
17.33,371.665,-0.938699
17.3317,371.682,-0.938728
17.3333,371.698,-0.938754
17.335,371.715,-0.938774
17.3367,371.732,-0.938796
17.3383,371.749,-0.938814
17.34,371.765,-0.938824
17.3417,371.782,-0.93884
17.3433,371.799,-0.938846
17.345,371.815,-0.938853
17.3467,371.832,-0.938865
17.3483,371.848,-0.938882
17.35,371.865,-0.938894
17.3517,371.882,-0.938902
17.3533,371.898,-0.938909
17.355,371.915,-0.938911
17.3567,371.932,-0.938921
17.3583,371.949,-0.938931
17.36,371.965,-0.938941
17.3617,371.982,-0.938946
17.3633,371.999,-0.938957
17.365,372.015,-0.938964
17.3667,372.032,-0.938982
17.3683,372.049,-0.939003
17.37,372.065,-0.939019
17.3717,372.082,-0.93904
17.3733,372.099,-0.939055
17.375,372.115,-0.939067
17.3767,372.132,-0.939082
17.3783,372.149,-0.939098
17.38,372.165,-0.939118
17.3817,372.182,-0.939134
17.3833,372.198,-0.93914
17.385,372.215,-0.93915
17.3867,372.232,-0.939153
17.3883,372.249,-0.939159
17.39,372.265,-0.939172
17.3917,372.282,-0.939179
17.3933,372.299,-0.939186
17.395,372.315,-0.939196
17.3967,372.332,-0.939211
17.3983,372.349,-0.939229
17.4,372.365,-0.939249
17.4017,372.382,-0.93927
17.4033,372.398,-0.939294
17.405,372.415,-0.939315
17.4067,372.432,-0.939335
17.4083,372.448,-0.939348
17.41,372.465,-0.939357
17.4117,372.482,-0.939364
17.4133,372.498,-0.939365
17.415,372.515,-0.939367
17.4167,372.531,-0.939374
17.4183,372.548,-0.939372
17.42,372.565,-0.939367
17.4217,372.581,-0.939359
17.4233,372.598,-0.939353
17.425,372.615,-0.93935
17.4267,372.632,-0.939339
17.4283,372.648,-0.939331
17.43,372.665,-0.93933
17.4317,372.681,-0.939331
17.4333,372.698,-0.939331
17.435,372.715,-0.939332
17.4367,372.731,-0.939332
17.4383,372.748,-0.939321
17.44,372.765,-0.939323
17.4417,372.781,-0.939329
17.4433,372.798,-0.939331
17.445,372.814,-0.939332
17.4467,372.831,-0.939342
17.4483,372.848,-0.93936
17.45,372.865,-0.939382
17.4517,372.881,-0.939405
17.4533,372.898,-0.939429
17.455,372.914,-0.939457
17.4567,372.931,-0.939487
17.4583,372.948,-0.93951
17.46,372.965,-0.939527
17.4617,372.981,-0.939537
17.4633,372.998,-0.939543
17.465,373.014,-0.939544
17.4667,373.031,-0.939541
17.4683,373.048,-0.939539
17.47,373.065,-0.939545
17.4717,373.081,-0.939562
17.4733,373.098,-0.93959
17.475,373.114,-0.939624
17.4767,373.131,-0.939659
17.4783,373.148,-0.939699
17.48,373.165,-0.939738
17.4817,373.181,-0.939775
17.4833,373.197,-0.939811
17.485,373.214,-0.939841
17.4867,373.231,-0.939856
17.4883,373.248,-0.939858
17.49,373.264,-0.939847
17.4917,373.281,-0.939839
17.4933,373.298,-0.93982
17.495,373.315,-0.939774
17.4967,373.331,-0.939721
17.4983,373.348,-0.939656
17.5,373.364,-0.939633
17.5017,373.381,-0.939621
17.5033,373.398,-0.939618
17.505,373.414,-0.939628
