Ramp 10.00 °C/min to 375.00 °C,,
Time,Temperature,Heat Flow (Normalized)
min,°C,W/g
5.00333,249.851,-0.208477
5.005,249.851,-0.208478
5.00667,249.851,-0.208482
5.00833,249.851,-0.20848
5.01,249.851,-0.208469
5.01167,249.851,-0.208455
5.01333,249.851,-0.208445
5.015,249.851,-0.208445
5.01667,249.851,-0.208452
5.01833,249.851,-0.208465
5.02,249.851,-0.20848
5.02167,249.851,-0.208499
5.02333,249.852,-0.208521
5.025,249.852,-0.20855
5.02667,249.852,-0.208588
5.02833,249.853,-0.208624
5.03,249.854,-0.208665
5.03167,249.854,-0.208737
5.03333,249.855,-0.208788
5.035,249.856,-0.208832
5.03667,249.857,-0.20888
5.03833,249.858,-0.208925
5.04,249.859,-0.208966
5.04167,249.86,-0.209003
5.04333,249.862,-0.209027
5.045,249.863,-0.209046
5.04667,249.865,-0.209046
5.04833,249.866,-0.209033
5.05,249.868,-0.208988
5.05167,249.869,-0.208811
5.05333,249.872,-0.208467
5.055,249.874,-0.207795
5.05667,249.876,-0.206355
5.05833,249.878,-0.203905
5.06,249.881,-0.200002
5.06167,249.883,-0.194845
5.06333,249.886,-0.188683
5.065,249.889,-0.182011
5.06667,249.892,-0.175359
5.06833,249.896,-0.169302
5.07,249.899,-0.163589
5.07167,249.903,-0.158018
5.07333,249.907,-0.153641
5.075,249.911,-0.149345
5.07667,249.916,-0.145071
5.07833,249.92,-0.141361
5.08,249.925,-0.137644
5.08167,249.93,-0.133617
5.08333,249.935,-0.129753
5.085,249.94,-0.127028
5.08667,249.945,-0.125419
5.08833,249.951,-0.123956
5.09,249.957,-0.12151
5.09167,249.963,-0.120996
5.09333,249.969,-0.120755
5.095,249.976,-0.120349
5.09667,249.982,-0.120299
5.09833,249.989,-0.120824
5.1,249.996,-0.121554
5.10167,250.004,-0.122359
5.10333,250.011,-0.123207
5.105,250.019,-0.124238
5.10667,250.026,-0.128455
5.10833,250.035,-0.131068
5.11,250.043,-0.132839
5.11167,250.051,-0.133784
5.11333,250.06,-0.134462
5.115,250.068,-0.135734
5.11667,250.077,-0.137835
5.11833,250.086,-0.140801
5.12,250.096,-0.145533
5.12167,250.105,-0.153256
5.12333,250.114,-0.165442
5.125,250.124,-0.180348
5.12667,250.134,-0.19658
5.12833,250.144,-0.211517
5.13,250.154,-0.220589
5.13167,250.164,-0.228112
5.13333,250.174,-0.236898
5.135,250.185,-0.244719
5.13667,250.195,-0.251003
5.13833,250.206,-0.259214
5.14,250.217,-0.267569
5.14167,250.228,-0.276848
5.14333,250.239,-0.285231
5.145,250.25,-0.293563
5.14667,250.262,-0.303764
5.14833,250.273,-0.313352
5.15,250.285,-0.323353
5.15167,250.296,-0.332872
5.15333,250.308,-0.340799
5.155,250.32,-0.349938
5.15667,250.332,-0.358707
5.15833,250.344,-0.367281
5.16,250.356,-0.374859
5.16167,250.369,-0.382903
5.16333,250.381,-0.391163
5.165,250.393,-0.399586
5.16667,250.406,-0.405849
5.16833,250.418,-0.41341
5.17,250.431,-0.420933
5.17167,250.444,-0.428577
5.17333,250.457,-0.43507
5.175,250.47,-0.440945
5.17667,250.483,-0.448224
5.17833,250.496,-0.454993
5.18,250.509,-0.461141
5.18167,250.522,-0.46785
5.18333,250.535,-0.475694
5.185,250.549,-0.48124
5.18667,250.562,-0.487607
5.18833,250.575,-0.494669
5.19,250.589,-0.5002
5.19167,250.603,-0.506327
5.19333,250.616,-0.511895
5.195,250.63,-0.517141
5.19667,250.644,-0.521203
5.19833,250.658,-0.52656
5.2,250.672,-0.531865
5.20167,250.686,-0.536857
5.20333,250.699,-0.541522
5.205,250.713,-0.546218
5.20667,250.728,-0.550811
5.20833,250.742,-0.555842
5.21,250.756,-0.56219
5.21167,250.77,-0.567052
5.21333,250.784,-0.571938
5.215,250.799,-0.57591
5.21667,250.813,-0.580419
5.21833,250.828,-0.58538
5.22,250.842,-0.590013
5.22167,250.857,-0.593631
5.22333,250.871,-0.597471
5.225,250.886,-0.601544
5.22667,250.9,-0.606604
5.22833,250.915,-0.610863
5.23,250.93,-0.615927
5.23167,250.945,-0.620559
5.23333,250.959,-0.625746
5.235,250.974,-0.629924
5.23667,250.989,-0.635516
5.23833,251.004,-0.640223
5.24,251.018,-0.642594
5.24167,251.033,-0.645346
5.24333,251.049,-0.649404
5.245,251.063,-0.651751
5.24667,251.078,-0.654831
5.24833,251.093,-0.65603
5.25,251.108,-0.657453
5.25167,251.123,-0.659351
5.25333,251.139,-0.661521
5.255,251.154,-0.663773
5.25667,251.169,-0.665145
5.25833,251.184,-0.667802
5.26,251.2,-0.670019
5.26167,251.215,-0.672411
5.26333,251.23,-0.674134
5.265,251.246,-0.675539
5.26667,251.261,-0.677411
5.26833,251.276,-0.680181
5.27,251.292,-0.681907
5.27167,251.307,-0.684102
5.27333,251.322,-0.687361
5.275,251.338,-0.690024
5.27667,251.353,-0.693425
5.27833,251.369,-0.696039
5.28,251.384,-0.698279
5.28167,251.4,-0.700641
5.28333,251.415,-0.7023
5.285,251.431,-0.702686
5.28667,251.446,-0.702998
5.28833,251.462,-0.703967
5.29,251.478,-0.705852
5.29167,251.493,-0.70678
5.29333,251.509,-0.707844
5.295,251.525,-0.709945
5.29667,251.54,-0.713131
5.29833,251.556,-0.715415
5.3,251.571,-0.717669
5.30167,251.587,-0.721035
5.30333,251.603,-0.722296
5.305,251.619,-0.725227
5.30667,251.635,-0.726511
5.30833,251.651,-0.728102
5.31,251.666,-0.7295
5.31167,251.682,-0.730906
5.31333,251.698,-0.731468
5.315,251.714,-0.73261
5.31667,251.73,-0.733642
5.31833,251.745,-0.734735
5.32,251.761,-0.73607
5.32167,251.777,-0.736357
5.32333,251.793,-0.73683
5.325,251.809,-0.737485
5.32667,251.825,-0.737969
5.32833,251.84,-0.738339
5.33,251.857,-0.739341
5.33167,251.873,-0.740015
5.33333,251.889,-0.74142
5.335,251.905,-0.742463
5.33667,251.92,-0.74364
5.33833,251.937,-0.74543
5.34,251.952,-0.747144
5.34167,251.969,-0.7487
5.34333,251.985,-0.750185
5.345,252.001,-0.751577
5.34667,252.017,-0.752831
5.34833,252.032,-0.753897
5.35,252.049,-0.754595
5.35167,252.064,-0.755492
5.35333,252.081,-0.755893
5.355,252.096,-0.756246
5.35667,252.112,-0.756453
5.35833,252.129,-0.756769
5.36,252.145,-0.757253
5.36167,252.161,-0.757708
5.36333,252.177,-0.758248
5.365,252.193,-0.759196
5.36667,252.209,-0.75998
5.36833,252.225,-0.760861
5.37,252.242,-0.761626
5.37167,252.258,-0.762227
5.37333,252.274,-0.762805
5.375,252.289,-0.763224
5.37667,252.306,-0.763584
5.37833,252.322,-0.764027
5.38,252.338,-0.764659
5.38167,252.354,-0.765235
5.38333,252.371,-0.766234
5.385,252.387,-0.767418
5.38667,252.404,-0.76875
5.38833,252.419,-0.770121
5.39,252.435,-0.771457
5.39167,252.451,-0.772484
5.39333,252.467,-0.773421
5.395,252.484,-0.774269
5.39667,252.5,-0.775035
5.39833,252.516,-0.775695
5.4,252.532,-0.776332
5.40167,252.548,-0.776917
5.40333,252.565,-0.777324
5.405,252.581,-0.777853
5.40667,252.597,-0.778277
5.40833,252.613,-0.778787
5.41,252.63,-0.779165
5.41167,252.646,-0.779666
5.41333,252.662,-0.780085
5.415,252.678,-0.780391
5.41667,252.694,-0.780664
5.41833,252.711,-0.780925
5.42,252.727,-0.781212
5.42167,252.744,-0.781362
5.42333,252.76,-0.781524
5.425,252.776,-0.78167
5.42667,252.792,-0.781856
5.42833,252.809,-0.782049
5.43,252.825,-0.782196
5.43167,252.842,-0.782363
5.43333,252.857,-0.782537
5.435,252.873,-0.782756
5.43667,252.89,-0.78301
5.43833,252.906,-0.783262
5.44,252.922,-0.783536
5.44167,252.939,-0.783828
5.44333,252.955,-0.784224
5.445,252.971,-0.784614
5.44667,252.988,-0.78504
5.44833,253.004,-0.785461
5.45,253.02,-0.785886
5.45167,253.037,-0.786273
5.45333,253.053,-0.786591
5.455,253.069,-0.7869
5.45667,253.085,-0.787229
5.45833,253.101,-0.787593
5.46,253.118,-0.787891
5.46167,253.134,-0.788105
5.46333,253.15,-0.788222
5.465,253.167,-0.788327
5.46667,253.183,-0.788409
5.46833,253.2,-0.788485
5.47,253.216,-0.788579
5.47167,253.232,-0.788665
5.47333,253.249,-0.788781
5.475,253.265,-0.788929
5.47667,253.281,-0.789188
5.47833,253.297,-0.7895
5.48,253.314,-0.789787
5.48167,253.33,-0.790128
5.48333,253.347,-0.790576
5.485,253.363,-0.791025
5.48667,253.379,-0.791408
5.48833,253.396,-0.791766
5.49,253.412,-0.792065
5.49167,253.428,-0.79236
5.49333,253.444,-0.792645
5.495,253.461,-0.792839
5.49667,253.477,-0.792951
5.49833,253.493,-0.793034
5.5,253.51,-0.793086
5.50167,253.526,-0.793139
5.50333,253.543,-0.793197
5.505,253.559,-0.793251
5.50667,253.576,-0.793308
5.50833,253.592,-0.793393
5.51,253.608,-0.793559
5.51167,253.624,-0.793915
5.51333,253.64,-0.794311
5.515,253.657,-0.794758
5.51667,253.674,-0.795095
5.51833,253.69,-0.795417
5.52,253.706,-0.795702
5.52167,253.723,-0.795967
5.52333,253.739,-0.796269
5.525,253.755,-0.796419
5.52667,253.772,-0.796526
5.52833,253.788,-0.796634
5.53,253.804,-0.796756
5.53167,253.821,-0.796944
5.53333,253.837,-0.797222
5.535,253.854,-0.797505
5.53667,253.87,-0.797678
5.53833,253.887,-0.797927
5.54,253.903,-0.79825
5.54167,253.919,-0.798651
5.54333,253.935,-0.798989
5.545,253.952,-0.799333
5.54667,253.968,-0.799636
5.54833,253.985,-0.799872
5.55,254.001,-0.800074
5.55167,254.018,-0.800296
5.55333,254.034,-0.800444
5.555,254.05,-0.800744
5.55667,254.067,-0.800935
5.55833,254.083,-0.801076
5.56,254.1,-0.801148
5.56167,254.116,-0.80121
5.56333,254.132,-0.801327
5.565,254.149,-0.801445
5.56667,254.165,-0.801508
5.56833,254.182,-0.801582
5.57,254.198,-0.801702
5.57167,254.215,-0.801817
5.57333,254.231,-0.801896
5.575,254.247,-0.801977
5.57667,254.264,-0.802059
5.57833,254.28,-0.802145
5.58,254.297,-0.802226
5.58167,254.313,-0.802303
5.58333,254.329,-0.802411
5.585,254.346,-0.802519
5.58667,254.362,-0.80264
5.58833,254.378,-0.802859
5.59,254.395,-0.803214
5.59167,254.411,-0.803518
5.59333,254.427,-0.803841
5.595,254.444,-0.80421
5.59667,254.46,-0.804526
5.59833,254.477,-0.804814
5.6,254.493,-0.805045
5.60167,254.51,-0.805162
5.60333,254.526,-0.805249
5.605,254.542,-0.805335
5.60667,254.559,-0.805424
5.60833,254.575,-0.805512
5.61,254.592,-0.805598
5.61167,254.608,-0.805686
5.61333,254.625,-0.805782
5.615,254.641,-0.805876
5.61667,254.658,-0.805969
5.61833,254.675,-0.806064
5.62,254.691,-0.806161
5.62167,254.707,-0.806256
5.62333,254.724,-0.806348
5.625,254.74,-0.806435
5.62667,254.756,-0.806528
5.62833,254.773,-0.806624
5.63,254.789,-0.80672
5.63167,254.805,-0.806826
5.63333,254.822,-0.806971
5.635,254.838,-0.807094
5.63667,254.855,-0.807203
5.63833,254.871,-0.807315
5.64,254.888,-0.807431
5.64167,254.904,-0.807585
5.64333,254.921,-0.807731
5.645,254.937,-0.807874
5.64667,254.954,-0.807989
5.64833,254.97,-0.808102
5.65,254.986,-0.808216
5.65167,255.003,-0.808414
5.65333,255.02,-0.808569
5.655,255.036,-0.808686
5.65667,255.052,-0.808801
5.65833,255.069,-0.808911
5.66,255.085,-0.809025
5.66167,255.102,-0.80914
5.66333,255.118,-0.809253
5.665,255.135,-0.809372
5.66667,255.151,-0.809491
5.66833,255.168,-0.809609
5.67,255.184,-0.80973
5.67167,255.201,-0.809845
5.67333,255.217,-0.80996
5.675,255.233,-0.810067
5.67667,255.25,-0.810191
5.67833,255.266,-0.810287
5.68,255.283,-0.810377
5.68167,255.299,-0.810468
5.68333,255.316,-0.810566
5.685,255.332,-0.810673
5.68667,255.349,-0.81078
5.68833,255.365,-0.810891
5.69,255.382,-0.811012
5.69167,255.398,-0.811144
5.69333,255.415,-0.811265
5.695,255.431,-0.811387
5.69667,255.448,-0.811506
5.69833,255.464,-0.811621
5.7,255.481,-0.811734
5.70167,255.497,-0.811847
5.70333,255.513,-0.811955
5.705,255.53,-0.812072
5.70667,255.546,-0.812193
5.70833,255.563,-0.812315
5.71,255.579,-0.812434
5.71167,255.596,-0.81256
5.71333,255.612,-0.812719
5.715,255.629,-0.812933
5.71667,255.645,-0.813175
5.71833,255.662,-0.813334
5.72,255.678,-0.813465
5.72167,255.695,-0.813596
5.72333,255.711,-0.813724
5.725,255.727,-0.813856
5.72667,255.744,-0.813985
5.72833,255.761,-0.814115
5.73,255.777,-0.814281
5.73167,255.794,-0.814455
5.73333,255.81,-0.814626
5.735,255.826,-0.814813
5.73667,255.843,-0.814951
5.73833,255.859,-0.815078
5.74,255.876,-0.815207
5.74167,255.892,-0.815327
5.74333,255.909,-0.815442
5.745,255.925,-0.815555
5.74667,255.942,-0.815671
5.74833,255.958,-0.815788
5.75,255.975,-0.815903
5.75167,255.991,-0.816022
5.75333,256.008,-0.816146
5.755,256.024,-0.816273
5.75667,256.041,-0.816402
5.75833,256.057,-0.81654
5.76,256.074,-0.816677
5.76167,256.09,-0.816812
5.76333,256.107,-0.816945
5.765,256.123,-0.817078
5.76667,256.14,-0.817208
5.76833,256.156,-0.817342
5.77,256.173,-0.817474
5.77167,256.189,-0.817616
5.77333,256.206,-0.817751
5.775,256.222,-0.817875
5.77667,256.239,-0.817996
5.77833,256.256,-0.818121
5.78,256.272,-0.818235
5.78167,256.288,-0.818348
5.78333,256.305,-0.818456
5.785,256.321,-0.818561
5.78667,256.338,-0.818665
5.78833,256.354,-0.818772
5.79,256.371,-0.818888
5.79167,256.387,-0.819
5.79333,256.404,-0.819112
5.795,256.42,-0.81921
5.79667,256.437,-0.819305
5.79833,256.453,-0.819398
5.8,256.47,-0.819494
5.80167,256.486,-0.819586
5.80333,256.503,-0.81968
5.805,256.519,-0.819776
5.80667,256.536,-0.819876
5.80833,256.552,-0.819987
5.81,256.568,-0.820103
5.81167,256.585,-0.820217
5.81333,256.601,-0.820337
5.815,256.618,-0.820457
5.81667,256.635,-0.820579
5.81833,256.651,-0.820732
5.82,256.668,-0.820893
5.82167,256.684,-0.821125
5.82333,256.701,-0.821408
5.825,256.717,-0.821644
5.82667,256.734,-0.821837
5.82833,256.751,-0.822005
5.83,256.767,-0.822136
5.83167,256.783,-0.822264
5.83333,256.8,-0.822387
5.835,256.817,-0.82251
5.83667,256.833,-0.82263
5.83833,256.849,-0.822742
5.84,256.866,-0.822856
5.84167,256.883,-0.822971
5.84333,256.899,-0.823084
5.845,256.916,-0.823197
5.84667,256.932,-0.823306
5.84833,256.949,-0.823415
5.85,256.965,-0.823527
5.85167,256.982,-0.823633
5.85333,256.999,-0.823739
5.855,257.015,-0.823842
5.85667,257.032,-0.823946
5.85833,257.048,-0.824049
5.86,257.065,-0.824148
5.86167,257.082,-0.824246
5.86333,257.098,-0.82435
5.865,257.115,-0.82446
5.86667,257.131,-0.824579
5.86833,257.147,-0.824697
5.87,257.164,-0.824817
5.87167,257.18,-0.824936
5.87333,257.197,-0.825063
5.875,257.213,-0.825184
5.87667,257.23,-0.825306
5.87833,257.247,-0.825425
5.88,257.263,-0.825551
5.88167,257.28,-0.825664
5.88333,257.296,-0.825774
5.885,257.313,-0.82588
5.88667,257.329,-0.825977
5.88833,257.346,-0.82607
5.89,257.363,-0.826159
5.89167,257.379,-0.826251
5.89333,257.395,-0.826342
5.895,257.412,-0.826435
5.89667,257.429,-0.826538
5.89833,257.445,-0.826641
5.9,257.462,-0.826751
5.90167,257.478,-0.826862
5.90333,257.495,-0.826978
5.905,257.511,-0.827086
5.90667,257.528,-0.827194
5.90833,257.544,-0.827307
5.91,257.561,-0.827416
5.91167,257.578,-0.827518
5.91333,257.594,-0.827625
5.915,257.611,-0.827733
5.91667,257.627,-0.827842
5.91833,257.644,-0.827952
5.92,257.66,-0.828061
5.92167,257.677,-0.828173
5.92333,257.693,-0.828294
5.925,257.71,-0.828416
5.92667,257.727,-0.828538
5.92833,257.743,-0.828665
5.93,257.76,-0.828794
5.93167,257.776,-0.82892
5.93333,257.793,-0.829057
5.935,257.809,-0.829182
5.93667,257.826,-0.829304
5.93833,257.842,-0.829427
5.94,257.859,-0.829554
5.94167,257.875,-0.829679
5.94333,257.892,-0.829807
5.945,257.908,-0.829927
5.94667,257.925,-0.830039
5.94833,257.942,-0.830152
5.95,257.958,-0.830268
5.95167,257.975,-0.83038
5.95333,257.991,-0.830494
5.955,258.008,-0.830605
5.95667,258.024,-0.830716
5.95833,258.041,-0.830819
5.96,258.057,-0.830927
5.96167,258.074,-0.831033
5.96333,258.091,-0.83114
5.965,258.107,-0.831246
5.96667,258.123,-0.831349
5.96833,258.14,-0.831455
5.97,258.157,-0.831572
5.97167,258.173,-0.83168
5.97333,258.19,-0.831781
5.975,258.206,-0.831885
5.97667,258.223,-0.831986
5.97833,258.24,-0.832082
5.98,258.257,-0.832179
5.98167,258.273,-0.832272
5.98333,258.29,-0.832371
5.985,258.306,-0.832473
5.98667,258.323,-0.832579
5.98833,258.339,-0.832693
5.99,258.356,-0.832811
5.99167,258.372,-0.832926
5.99333,258.389,-0.83304
5.995,258.405,-0.833156
5.99667,258.422,-0.833267
5.99833,258.439,-0.833377
6,258.455,-0.83349
6.00167,258.472,-0.833605
6.00333,258.488,-0.833716
6.005,258.505,-0.833831
6.00667,258.521,-0.833936
6.00833,258.538,-0.834043
6.01,258.554,-0.834145
6.01167,258.571,-0.834242
6.01333,258.587,-0.834339
6.015,258.604,-0.834429
6.01667,258.621,-0.834515
6.01833,258.637,-0.834605
6.02,258.654,-0.834699
6.02167,258.671,-0.834798
6.02333,258.687,-0.8349
6.025,258.704,-0.835008
6.02667,258.72,-0.835119
6.02833,258.737,-0.835235
6.03,258.753,-0.835353
6.03167,258.77,-0.835473
6.03333,258.787,-0.835583
6.035,258.804,-0.835697
6.03667,258.82,-0.835803
6.03833,258.837,-0.835905
6.04,258.853,-0.835998
6.04167,258.87,-0.836085
6.04333,258.886,-0.836171
6.045,258.903,-0.836255
6.04667,258.919,-0.836342
6.04833,258.936,-0.836424
6.05,258.953,-0.836517
6.05167,258.969,-0.83661
6.05333,258.985,-0.836704
6.055,259.001,-0.836811
6.05667,259.018,-0.836919
6.05833,259.035,-0.837025
6.06,259.052,-0.837131
6.06167,259.068,-0.837239
6.06333,259.085,-0.837348
6.065,259.101,-0.83745
6.06667,259.118,-0.837558
6.06833,259.135,-0.837663
6.07,259.151,-0.837758
6.07167,259.168,-0.837854
6.07333,259.184,-0.837957
6.075,259.201,-0.838056
6.07667,259.218,-0.838145
6.07833,259.234,-0.838234
6.08,259.251,-0.83832
6.08167,259.267,-0.838408
6.08333,259.284,-0.838502
6.085,259.301,-0.838598
6.08667,259.317,-0.838689
6.08833,259.334,-0.838777
6.09,259.35,-0.838868
6.09167,259.367,-0.838967
6.09333,259.383,-0.839068
6.095,259.4,-0.839168
6.09667,259.416,-0.839255
6.09833,259.433,-0.839335
6.1,259.45,-0.839418
6.10167,259.466,-0.83951
6.10333,259.483,-0.839605
6.105,259.499,-0.839698
6.10667,259.516,-0.839787
6.10833,259.532,-0.839882
6.11,259.549,-0.839986
6.11167,259.565,-0.840092
6.11333,259.582,-0.840203
6.115,259.599,-0.84031
6.11667,259.616,-0.840406
6.11833,259.632,-0.840496
6.12,259.649,-0.840576
6.12167,259.665,-0.840651
6.12333,259.682,-0.840721
6.125,259.698,-0.840786
6.12667,259.715,-0.840846
6.12833,259.731,-0.840913
6.13,259.748,-0.840985
6.13167,259.764,-0.84106
6.13333,259.781,-0.841131
6.135,259.798,-0.841202
6.13667,259.815,-0.841278
6.13833,259.831,-0.841354
6.14,259.848,-0.841433
6.14167,259.865,-0.841513
6.14333,259.881,-0.841596
6.145,259.898,-0.841678
6.14667,259.914,-0.841769
6.14833,259.931,-0.841851
6.15,259.947,-0.841928
6.15167,259.964,-0.841998
6.15333,259.981,-0.842071
6.155,259.997,-0.84215
6.15667,260.013,-0.842235
6.15833,260.03,-0.842337
6.16,260.047,-0.842435
6.16167,260.063,-0.842529
6.16333,260.08,-0.842629
6.165,260.097,-0.842731
6.16667,260.113,-0.842825
6.16833,260.13,-0.842914
6.17,260.147,-0.842996
6.17167,260.163,-0.843076
6.17333,260.179,-0.843149
6.175,260.196,-0.843214
6.17667,260.213,-0.843272
6.17833,260.229,-0.843328
6.18,260.246,-0.843383
6.18167,260.262,-0.843438
6.18333,260.279,-0.843492
6.185,260.296,-0.843553
6.18667,260.312,-0.843617
6.18833,260.329,-0.843697
6.19,260.346,-0.843775
6.19167,260.363,-0.843855
6.19333,260.379,-0.843938
6.195,260.396,-0.844025
6.19667,260.412,-0.844113
6.19833,260.429,-0.844201
6.2,260.446,-0.844298
6.20167,260.462,-0.844391
6.20333,260.479,-0.844482
6.205,260.495,-0.844573
6.20667,260.512,-0.844663
6.20833,260.528,-0.844737
6.21,260.545,-0.844813
6.21167,260.562,-0.844888
6.21333,260.578,-0.844957
6.215,260.595,-0.845021
6.21667,260.611,-0.845096
6.21833,260.628,-0.845175
6.22,260.645,-0.845263
6.22167,260.662,-0.845358
6.22333,260.678,-0.845453
6.225,260.695,-0.845544
6.22667,260.711,-0.84563
6.22833,260.728,-0.845715
6.23,260.744,-0.845795
6.23167,260.761,-0.845879
6.23333,260.778,-0.845965
6.235,260.794,-0.84605
6.23667,260.81,-0.846121
6.23833,260.827,-0.846196
6.24,260.844,-0.846275
6.24167,260.861,-0.846342
6.24333,260.878,-0.846406
6.245,260.894,-0.846466
6.24667,260.911,-0.846529
6.24833,260.927,-0.846585
6.25,260.944,-0.846647
6.25167,260.961,-0.846708
6.25333,260.977,-0.846763
6.255,260.994,-0.846822
6.25667,261.01,-0.846891
6.25833,261.027,-0.846969
6.26,261.043,-0.847049
6.26167,261.06,-0.84713
6.26333,261.076,-0.847217
6.265,261.093,-0.847302
6.26667,261.109,-0.847389
6.26833,261.126,-0.847484
6.27,261.143,-0.84757
6.27167,261.16,-0.847649
6.27333,261.177,-0.847735
6.275,261.193,-0.847824
6.27667,261.21,-0.847903
6.27833,261.226,-0.847977
6.28,261.242,-0.848044
6.28167,261.259,-0.84811
6.28333,261.276,-0.848174
6.285,261.292,-0.848233
6.28667,261.309,-0.848293
6.28833,261.326,-0.848355
6.29,261.342,-0.848417
6.29167,261.359,-0.848478
6.29333,261.375,-0.84854
6.295,261.392,-0.848596
6.29667,261.408,-0.848664
6.29833,261.425,-0.848742
6.3,261.442,-0.848821
6.30167,261.458,-0.848904
6.30333,261.475,-0.848977
6.305,261.492,-0.849049
6.30667,261.508,-0.849117
6.30833,261.525,-0.849178
6.31,261.542,-0.849226
6.31167,261.558,-0.849259
6.31333,261.575,-0.849286
6.315,261.591,-0.849316
6.31667,261.608,-0.84935
6.31833,261.624,-0.849389
6.32,261.641,-0.849441
6.32167,261.657,-0.849504
6.32333,261.674,-0.849575
6.325,261.69,-0.849649
6.32667,261.707,-0.849723
6.32833,261.724,-0.849798
6.33,261.741,-0.849864
6.33167,261.757,-0.84992
6.33333,261.773,-0.849976
6.335,261.79,-0.850026
6.33667,261.807,-0.850065
6.33833,261.823,-0.850101
6.34,261.84,-0.850147
6.34167,261.857,-0.850203
6.34333,261.873,-0.850263
6.345,261.89,-0.850331
6.34667,261.906,-0.850404
6.34833,261.923,-0.850469
6.35,261.94,-0.850535
6.35167,261.956,-0.850599
6.35333,261.973,-0.850659
6.355,261.989,-0.850708
6.35667,262.006,-0.850746
6.35833,262.023,-0.850781
6.36,262.039,-0.850817
6.36167,262.056,-0.850853
6.36333,262.073,-0.850896
6.365,262.089,-0.850949
6.36667,262.106,-0.851001
6.36833,262.122,-0.851059
6.37,262.139,-0.851121
6.37167,262.155,-0.851179
6.37333,262.172,-0.851236
6.375,262.188,-0.851293
6.37667,262.205,-0.851353
6.37833,262.222,-0.851417
6.38,262.238,-0.85149
6.38167,262.255,-0.851562
6.38333,262.272,-0.851646
6.385,262.288,-0.851725
6.38667,262.305,-0.851806
6.38833,262.322,-0.851893
6.39,262.339,-0.852023
6.39167,262.355,-0.85212
6.39333,262.372,-0.852207
6.395,262.388,-0.852281
6.39667,262.405,-0.852354
6.39833,262.421,-0.852419
6.4,262.438,-0.852472
6.40167,262.455,-0.852526
6.40333,262.471,-0.85258
6.405,262.488,-0.85263
6.40667,262.504,-0.85268
6.40833,262.522,-0.852727
6.41,262.538,-0.852774
6.41167,262.555,-0.852813
6.41333,262.571,-0.852857
6.415,262.588,-0.852901
6.41667,262.604,-0.852941
6.41833,262.621,-0.852974
6.42,262.638,-0.853013
6.42167,262.654,-0.853061
6.42333,262.671,-0.853116
6.425,262.687,-0.853181
6.42667,262.704,-0.853247
6.42833,262.721,-0.853312
6.43,262.738,-0.853384
6.43167,262.754,-0.853458
6.43333,262.771,-0.853518
6.435,262.787,-0.853568
6.43667,262.804,-0.853617
6.43833,262.821,-0.85366
6.44,262.837,-0.853715
6.44167,262.854,-0.853767
6.44333,262.871,-0.853824
6.445,262.887,-0.853877
6.44667,262.904,-0.853938
6.44833,262.921,-0.854006
6.45,262.937,-0.854081
6.45167,262.954,-0.854157
6.45333,262.97,-0.85423
6.455,262.987,-0.854309
6.45667,263.003,-0.854395
6.45833,263.02,-0.854471
6.46,263.036,-0.854535
6.46167,263.053,-0.854588
6.46333,263.07,-0.85463
6.465,263.087,-0.854666
6.46667,263.103,-0.854702
6.46833,263.12,-0.85475
6.47,263.137,-0.854788
6.47167,263.153,-0.854834
6.47333,263.169,-0.854886
6.475,263.186,-0.854945
6.47667,263.203,-0.855011
6.47833,263.219,-0.85508
6.48,263.236,-0.855152
6.48167,263.253,-0.855227
6.48333,263.269,-0.855307
6.485,263.286,-0.855389
6.48667,263.302,-0.855466
6.48833,263.319,-0.855527
6.49,263.336,-0.855583
6.49167,263.352,-0.855633
6.49333,263.369,-0.855677
6.495,263.386,-0.855706
6.49667,263.403,-0.855727
6.49833,263.419,-0.855749
6.5,263.436,-0.855766
6.50167,263.452,-0.855789
6.50333,263.469,-0.855819
6.505,263.486,-0.855858
6.50667,263.502,-0.85591
6.50833,263.519,-0.855962
6.51,263.535,-0.856011
6.51167,263.552,-0.856069
6.51333,263.569,-0.856125
6.515,263.586,-0.856176
6.51667,263.602,-0.856233
6.51833,263.619,-0.856281
6.52,263.635,-0.856334
6.52167,263.652,-0.85639
6.52333,263.669,-0.856442
6.525,263.685,-0.856493
6.52667,263.702,-0.856551
6.52833,263.718,-0.856608
6.53,263.735,-0.856664
6.53167,263.751,-0.856713
6.53333,263.768,-0.856762
6.535,263.784,-0.856817
6.53667,263.802,-0.856872
6.53833,263.818,-0.856928
6.54,263.835,-0.856979
6.54167,263.852,-0.857027
6.54333,263.868,-0.857069
6.545,263.885,-0.857116
6.54667,263.901,-0.857165
6.54833,263.918,-0.857209
6.55,263.935,-0.857248
6.55167,263.951,-0.857287
6.55333,263.968,-0.857324
6.555,263.984,-0.857362
6.55667,264.001,-0.857402
6.55833,264.018,-0.857453
6.56,264.033,-0.857505
6.56167,264.05,-0.857562
6.56333,264.067,-0.857621
6.565,264.083,-0.857678
6.56667,264.1,-0.857737
6.56833,264.117,-0.857796
6.57,264.133,-0.857855
6.57167,264.15,-0.857905
6.57333,264.167,-0.857951
6.575,264.183,-0.857987
6.57667,264.2,-0.858024
6.57833,264.217,-0.858058
6.58,264.234,-0.858094
6.58167,264.25,-0.858128
6.58333,264.267,-0.85816
6.585,264.283,-0.858193
6.58667,264.3,-0.858227
6.58833,264.317,-0.858265
6.59,264.333,-0.858313
6.59167,264.35,-0.858364
6.59333,264.367,-0.858415
6.595,264.384,-0.858467
6.59667,264.4,-0.858528
6.59833,264.417,-0.858595
6.6,264.433,-0.858657
6.60167,264.45,-0.858712
6.60333,264.466,-0.858763
6.605,264.483,-0.858803
6.60667,264.5,-0.858844
6.60833,264.517,-0.858884
6.61,264.533,-0.85892
6.61167,264.55,-0.858959
6.61333,264.567,-0.858997
6.615,264.583,-0.859049
6.61667,264.6,-0.859119
6.61833,264.617,-0.859189
6.62,264.633,-0.859265
6.62167,264.65,-0.859339
6.62333,264.666,-0.859415
6.625,264.683,-0.85949
6.62667,264.699,-0.859557
6.62833,264.716,-0.859612
6.63,264.732,-0.85966
6.63167,264.75,-0.859703
6.63333,264.766,-0.859749
6.635,264.783,-0.859807
6.63667,264.8,-0.859867
6.63833,264.816,-0.859926
6.64,264.833,-0.859992
6.64167,264.849,-0.860059
6.64333,264.866,-0.860125
6.645,264.883,-0.860189
6.64667,264.9,-0.860251
6.64833,264.916,-0.860305
6.65,264.933,-0.860352
6.65167,264.949,-0.860392
6.65333,264.966,-0.860431
6.655,264.982,-0.860471
6.65667,264.999,-0.860511
6.65833,265.015,-0.860555
6.66,265.032,-0.860598
6.66167,265.049,-0.860646
6.66333,265.066,-0.860692
6.665,265.082,-0.860746
6.66667,265.099,-0.860792
6.66833,265.116,-0.860837
6.67,265.132,-0.860887
6.67167,265.149,-0.860933
6.67333,265.166,-0.860977
6.675,265.183,-0.861015
6.67667,265.199,-0.861055
6.67833,265.216,-0.861091
6.68,265.232,-0.861124
6.68167,265.249,-0.861158
6.68333,265.266,-0.861189
6.685,265.282,-0.861219
6.68667,265.299,-0.861249
6.68833,265.316,-0.861277
6.69,265.332,-0.861308
6.69167,265.349,-0.861338
6.69333,265.365,-0.861372
6.695,265.382,-0.861403
6.69667,265.399,-0.861431
6.69833,265.415,-0.861465
6.7,265.432,-0.861513
6.70167,265.449,-0.861573
6.70333,265.466,-0.861634
6.705,265.482,-0.861703
6.70667,265.499,-0.861775
6.70833,265.516,-0.86184
6.71,265.532,-0.861903
6.71167,265.549,-0.861946
6.71333,265.565,-0.86198
6.715,265.582,-0.862007
6.71667,265.599,-0.862026
6.71833,265.616,-0.862042
6.72,265.632,-0.862051
6.72167,265.649,-0.862058
6.72333,265.665,-0.862062
6.725,265.682,-0.862074
6.72667,265.699,-0.862091
6.72833,265.715,-0.862121
6.73,265.732,-0.862157
6.73167,265.749,-0.862204
6.73333,265.766,-0.862258
6.735,265.782,-0.862323
6.73667,265.799,-0.862399
6.73833,265.815,-0.862489
6.74,265.832,-0.862552
6.74167,265.848,-0.862611
6.74333,265.865,-0.862674
6.745,265.882,-0.862735
6.74667,265.899,-0.862789
6.74833,265.915,-0.862834
6.75,265.932,-0.862881
6.75167,265.948,-0.862927
6.75333,265.965,-0.862971
6.755,265.982,-0.86301
6.75667,265.998,-0.863043
6.75833,266.015,-0.863077
6.76,266.032,-0.8631
6.76167,266.048,-0.863129
6.76333,266.065,-0.863156
6.765,266.082,-0.863176
6.76667,266.098,-0.863194
6.76833,266.115,-0.863221
6.77,266.132,-0.863243
6.77167,266.148,-0.863263
6.77333,266.165,-0.863287
6.775,266.182,-0.863307
6.77667,266.198,-0.863333
6.77833,266.215,-0.863361
6.78,266.231,-0.863392
6.78167,266.248,-0.863432
6.78333,266.265,-0.863477
6.785,266.281,-0.86352
6.78667,266.298,-0.863562
6.78833,266.315,-0.863609
6.79,266.331,-0.863652
6.79167,266.348,-0.863686
6.79333,266.365,-0.863717
6.795,266.381,-0.863742
6.79667,266.398,-0.863766
6.79833,266.415,-0.863784
6.8,266.432,-0.863814
6.80167,266.448,-0.863842
6.80333,266.465,-0.863871
6.805,266.482,-0.8639
6.80667,266.498,-0.86393
6.80833,266.514,-0.863965
6.81,266.531,-0.864003
6.81167,266.548,-0.864038
6.81333,266.565,-0.864071
6.815,266.581,-0.864095
6.81667,266.598,-0.864119
6.81833,266.614,-0.86415
6.82,266.631,-0.864187
6.82167,266.647,-0.864215
6.82333,266.664,-0.864252
6.825,266.681,-0.864289
6.82667,266.697,-0.864339
6.82833,266.714,-0.864388
6.83,266.731,-0.864428
6.83167,266.748,-0.86447
6.83333,266.764,-0.864512
6.835,266.781,-0.864558
6.83667,266.798,-0.864598
6.83833,266.814,-0.864649
6.84,266.831,-0.864705
6.84167,266.848,-0.864766
6.84333,266.864,-0.864817
6.845,266.881,-0.864862
6.84667,266.897,-0.864911
6.84833,266.914,-0.864949
6.85,266.931,-0.864983
6.85167,266.947,-0.865016
6.85333,266.964,-0.865047
6.855,266.98,-0.865071
6.85667,266.997,-0.865102
6.85833,267.013,-0.865131
6.86,267.03,-0.865168
6.86167,267.047,-0.865203
6.86333,267.063,-0.865241
6.865,267.08,-0.865285
6.86667,267.097,-0.865338
6.86833,267.114,-0.865382
6.87,267.13,-0.865416
6.87167,267.147,-0.865454
6.87333,267.164,-0.865483
6.875,267.18,-0.865512
6.87667,267.197,-0.865532
6.87833,267.214,-0.86555
6.88,267.23,-0.865569
6.88167,267.247,-0.865596
6.88333,267.264,-0.865621
6.885,267.28,-0.865658
6.88667,267.297,-0.865692
6.88833,267.313,-0.865721
6.89,267.33,-0.865754
6.89167,267.347,-0.865786
6.89333,267.363,-0.865817
6.895,267.38,-0.86585
6.89667,267.396,-0.865886
6.89833,267.413,-0.86593
6.9,267.429,-0.865975
6.90167,267.446,-0.86602
6.90333,267.463,-0.866071
6.905,267.48,-0.866119
6.90667,267.496,-0.866153
6.90833,267.513,-0.866183
6.91,267.53,-0.866209
6.91167,267.546,-0.866228
6.91333,267.563,-0.866234
6.915,267.58,-0.866239
6.91667,267.596,-0.86624
6.91833,267.613,-0.866242
6.92,267.629,-0.866247
6.92167,267.646,-0.866268
6.92333,267.663,-0.866289
6.925,267.679,-0.8663
6.92667,267.696,-0.866318
6.92833,267.712,-0.866351
6.93,267.729,-0.866378
6.93167,267.746,-0.866403
6.93333,267.763,-0.866431
6.935,267.779,-0.866467
6.93667,267.796,-0.866498
6.93833,267.813,-0.866529
6.94,267.829,-0.866565
6.94167,267.846,-0.866608
6.94333,267.862,-0.86665
6.945,267.879,-0.8667
6.94667,267.896,-0.866754
6.94833,267.912,-0.866793
6.95,267.929,-0.86683
6.95167,267.946,-0.866873
6.95333,267.962,-0.866922
6.955,267.979,-0.866969
6.95667,267.995,-0.867011
6.95833,268.012,-0.867042
6.96,268.029,-0.86707
6.96167,268.045,-0.867093
6.96333,268.062,-0.867114
6.965,268.078,-0.867132
6.96667,268.095,-0.867145
6.96833,268.112,-0.867159
6.97,268.129,-0.867179
6.97167,268.145,-0.86721
6.97333,268.162,-0.867248
6.975,268.178,-0.867288
6.97667,268.195,-0.867327
6.97833,268.211,-0.867364
6.98,268.228,-0.867397
6.98167,268.245,-0.867429
6.98333,268.262,-0.867455
6.985,268.278,-0.867475
6.98667,268.295,-0.867487
6.98833,268.312,-0.867498
6.99,268.328,-0.867516
6.99167,268.345,-0.867538
6.99333,268.362,-0.867566
6.995,268.378,-0.867602
6.99667,268.395,-0.867638
6.99833,268.411,-0.867679
7,268.428,-0.867725
7.00167,268.445,-0.867763
7.00333,268.461,-0.867805
7.005,268.478,-0.867844
7.00667,268.495,-0.867868
7.00833,268.511,-0.867887
7.01,268.528,-0.867907
7.01167,268.545,-0.867925
7.01333,268.562,-0.867952
7.015,268.578,-0.867984
7.01667,268.595,-0.868016
7.01833,268.611,-0.868045
7.02,268.628,-0.868076
7.02167,268.644,-0.868107
7.02333,268.661,-0.868136
7.025,268.677,-0.868163
7.02667,268.694,-0.868181
7.02833,268.711,-0.868199
7.03,268.728,-0.868219
7.03167,268.745,-0.86824
7.03333,268.761,-0.868265
7.035,268.778,-0.868296
7.03667,268.794,-0.868336
7.03833,268.811,-0.868379
7.04,268.828,-0.868419
7.04167,268.844,-0.868454
7.04333,268.861,-0.868488
7.045,268.878,-0.868514
7.04667,268.894,-0.86854
7.04833,268.911,-0.868569
7.05,268.928,-0.868598
7.05167,268.945,-0.868634
7.05333,268.961,-0.868671
7.055,268.978,-0.868718
7.05667,268.994,-0.868765
7.05833,269.011,-0.868815
7.06,269.027,-0.868862
7.06167,269.044,-0.8689
7.06333,269.06,-0.868931
7.065,269.077,-0.86896
7.06667,269.094,-0.868994
7.06833,269.11,-0.869024
7.07,269.127,-0.869057
7.07167,269.144,-0.869095
7.07333,269.161,-0.869139
7.075,269.178,-0.869192
7.07667,269.194,-0.869254
7.07833,269.211,-0.869317
7.08,269.228,-0.86938
7.08167,269.245,-0.869435
7.08333,269.261,-0.869481
7.085,269.278,-0.869526
7.08667,269.294,-0.869573
7.08833,269.311,-0.869614
7.09,269.327,-0.869647
7.09167,269.344,-0.869676
7.09333,269.361,-0.869703
7.095,269.377,-0.869726
7.09667,269.394,-0.869746
7.09833,269.411,-0.869774
7.1,269.427,-0.869795
7.10167,269.444,-0.869818
7.10333,269.46,-0.869841
7.105,269.477,-0.869863
7.10667,269.494,-0.86988
7.10833,269.511,-0.869902
7.11,269.527,-0.869929
7.11167,269.544,-0.86996
7.11333,269.561,-0.869992
7.115,269.577,-0.870022
7.11667,269.594,-0.870062
7.11833,269.61,-0.870104
7.12,269.627,-0.870149
7.12167,269.644,-0.870191
7.12333,269.66,-0.870237
7.125,269.677,-0.870276
7.12667,269.693,-0.870305
7.12833,269.71,-0.870329
7.13,269.727,-0.870348
7.13167,269.743,-0.870364
7.13333,269.76,-0.870379
7.135,269.776,-0.870394
7.13667,269.793,-0.870414
7.13833,269.81,-0.870433
7.14,269.827,-0.870458
7.14167,269.843,-0.870488
7.14333,269.86,-0.870521
7.145,269.877,-0.870546
7.14667,269.893,-0.870582
7.14833,269.91,-0.870621
7.15,269.927,-0.870655
7.15167,269.943,-0.870684
7.15333,269.96,-0.870715
7.155,269.977,-0.870751
7.15667,269.993,-0.870794
7.15833,270.01,-0.870841
7.16,270.026,-0.870888
7.16167,270.043,-0.87093
7.16333,270.06,-0.870969
7.165,270.077,-0.871015
7.16667,270.093,-0.871058
7.16833,270.11,-0.871097
7.17,270.126,-0.871133
7.17167,270.143,-0.871163
7.17333,270.16,-0.8712
7.175,270.176,-0.87124
7.17667,270.193,-0.871292
7.17833,270.209,-0.871339
7.18,270.226,-0.871378
7.18167,270.242,-0.871407
7.18333,270.259,-0.871433
7.185,270.276,-0.871448
7.18667,270.293,-0.871451
7.18833,270.309,-0.871453
7.19,270.326,-0.871447
7.19167,270.342,-0.87144
7.19333,270.359,-0.871431
7.195,270.376,-0.871421
7.19667,270.393,-0.871422
7.19833,270.409,-0.871427
7.2,270.426,-0.871438
7.20167,270.442,-0.871459
7.20333,270.459,-0.871481
7.205,270.476,-0.871499
7.20667,270.493,-0.871528
7.20833,270.509,-0.871563
7.21,270.526,-0.871596
7.21167,270.543,-0.871627
7.21333,270.559,-0.871658
7.215,270.576,-0.871688
7.21667,270.592,-0.871716
7.21833,270.609,-0.871748
7.22,270.626,-0.871785
7.22167,270.643,-0.871825
7.22333,270.66,-0.87186
7.225,270.676,-0.871894
7.22667,270.692,-0.871931
7.22833,270.709,-0.871964
7.23,270.726,-0.872001
7.23167,270.743,-0.872036
7.23333,270.759,-0.872064
7.235,270.776,-0.872091
7.23667,270.793,-0.872118
7.23833,270.809,-0.872139
7.24,270.825,-0.872164
7.24167,270.843,-0.872187
7.24333,270.86,-0.872218
7.245,270.876,-0.872251
7.24667,270.893,-0.872287
7.24833,270.91,-0.872328
7.25,270.926,-0.87236
7.25167,270.943,-0.872392
7.25333,270.959,-0.872426
7.255,270.976,-0.872464
7.25667,270.992,-0.87249
7.25833,271.009,-0.872524
7.26,271.026,-0.872557
7.26167,271.042,-0.872585
7.26333,271.059,-0.872619
7.265,271.076,-0.872646
7.26667,271.092,-0.872686
7.26833,271.109,-0.872728
7.27,271.126,-0.872774
7.27167,271.142,-0.872826
7.27333,271.159,-0.872873
7.275,271.175,-0.872913
7.27667,271.192,-0.872955
7.27833,271.209,-0.872997
7.28,271.225,-0.873042
7.28167,271.242,-0.873088
7.28333,271.259,-0.873128
7.285,271.275,-0.873171
7.28667,271.292,-0.873211
7.28833,271.309,-0.873255
7.29,271.325,-0.873295
7.29167,271.342,-0.873339
7.29333,271.359,-0.873379
7.295,271.375,-0.873425
7.29667,271.392,-0.873476
7.29833,271.409,-0.873515
7.3,271.425,-0.873561
7.30167,271.442,-0.873608
7.30333,271.458,-0.873652
7.305,271.475,-0.873693
7.30667,271.492,-0.87372
7.30833,271.509,-0.873744
7.31,271.525,-0.873761
7.31167,271.541,-0.873775
7.31333,271.558,-0.873788
7.315,271.575,-0.873804
7.31667,271.591,-0.873816
7.31833,271.608,-0.87383
7.32,271.625,-0.873847
7.32167,271.641,-0.873872
7.32333,271.658,-0.873905
7.325,271.675,-0.873938
7.32667,271.692,-0.873974
7.32833,271.708,-0.87402
7.33,271.725,-0.874071
7.33167,271.742,-0.874131
7.33333,271.758,-0.874202
7.335,271.775,-0.874278
7.33667,271.791,-0.874344
7.33833,271.808,-0.874402
7.34,271.825,-0.874454
7.34167,271.841,-0.874508
7.34333,271.858,-0.874553
7.345,271.874,-0.874585
7.34667,271.891,-0.874609
7.34833,271.908,-0.874631
7.35,271.924,-0.874654
7.35167,271.941,-0.874673
7.35333,271.958,-0.874694
7.355,271.974,-0.874717
7.35667,271.991,-0.874727
7.35833,272.008,-0.874739
7.36,272.024,-0.874756
7.36167,272.041,-0.874771
7.36333,272.057,-0.874796
7.365,272.074,-0.874821
7.36667,272.091,-0.874856
7.36833,272.108,-0.874897
7.37,272.124,-0.874942
7.37167,272.141,-0.874994
7.37333,272.158,-0.875049
7.375,272.174,-0.875097
7.37667,272.191,-0.875141
7.37833,272.207,-0.875184
7.38,272.224,-0.87522
7.38167,272.24,-0.87525
7.38333,272.257,-0.875276
7.385,272.273,-0.875301
7.38667,272.29,-0.875327
7.38833,272.307,-0.875357
7.39,272.323,-0.87538
7.39167,272.34,-0.875402
7.39333,272.357,-0.875418
7.395,272.373,-0.875433
7.39667,272.39,-0.875452
7.39833,272.407,-0.875469
7.4,272.423,-0.875484
7.40167,272.44,-0.875498
7.40333,272.456,-0.87551
7.405,272.473,-0.875526
7.40667,272.49,-0.875551
7.40833,272.507,-0.875565
7.41,272.523,-0.875572
7.41167,272.54,-0.875581
7.41333,272.557,-0.875593
7.415,272.573,-0.875611
7.41667,272.59,-0.875636
7.41833,272.607,-0.875669
7.42,272.623,-0.875711
7.42167,272.64,-0.875752
7.42333,272.656,-0.875797
7.425,272.673,-0.875852
7.42667,272.69,-0.875907
7.42833,272.706,-0.875953
7.43,272.723,-0.875996
7.43167,272.74,-0.876033
7.43333,272.756,-0.876068
7.435,272.773,-0.876107
7.43667,272.79,-0.876137
7.43833,272.807,-0.876163
7.44,272.823,-0.876191
7.44167,272.84,-0.876222
7.44333,272.857,-0.876267
7.445,272.874,-0.87631
7.44667,272.89,-0.876356
7.44833,272.906,-0.876407
7.45,272.923,-0.876451
7.45167,272.94,-0.876491
7.45333,272.956,-0.876531
7.455,272.973,-0.87657
7.45667,272.99,-0.876605
7.45833,273.006,-0.876639
7.46,273.023,-0.876676
7.46167,273.04,-0.876716
7.46333,273.056,-0.876751
7.465,273.073,-0.876777
7.46667,273.09,-0.876798
7.46833,273.106,-0.876823
7.47,273.123,-0.876841
7.47167,273.14,-0.876847
7.47333,273.156,-0.87685
7.475,273.173,-0.876852
7.47667,273.189,-0.876854
7.47833,273.206,-0.876861
7.48,273.223,-0.876877
7.48167,273.239,-0.876898
7.48333,273.255,-0.876921
7.485,273.273,-0.876957
7.48667,273.289,-0.877011
7.48833,273.305,-0.877068
7.49,273.322,-0.877132
7.49167,273.34,-0.877224
7.49333,273.356,-0.877378
7.495,273.373,-0.877534
7.49667,273.389,-0.877634
7.49833,273.406,-0.877689
7.5,273.423,-0.877739
7.50167,273.439,-0.877781
7.50333,273.456,-0.8778
7.505,273.472,-0.877805
7.50667,273.489,-0.877802
7.50833,273.506,-0.877806
7.51,273.522,-0.877819
7.51167,273.539,-0.877833
7.51333,273.555,-0.877851
7.515,273.573,-0.877882
7.51667,273.589,-0.877912
7.51833,273.606,-0.877931
7.52,273.623,-0.877956
7.52167,273.639,-0.877976
7.52333,273.656,-0.877998
7.525,273.672,-0.87802
7.52667,273.689,-0.878042
7.52833,273.706,-0.878074
7.53,273.723,-0.878112
7.53167,273.739,-0.878152
7.53333,273.756,-0.878196
7.535,273.772,-0.878247
7.53667,273.789,-0.878293
7.53833,273.805,-0.878335
7.54,273.822,-0.878365
7.54167,273.838,-0.878389
7.54333,273.855,-0.878413
7.545,273.872,-0.878433
7.54667,273.889,-0.878455
7.54833,273.906,-0.878472
7.55,273.922,-0.878489
7.55167,273.939,-0.878506
7.55333,273.955,-0.878524
7.555,273.972,-0.878547
7.55667,273.988,-0.878572
7.55833,274.005,-0.878596
7.56,274.022,-0.878629
7.56167,274.039,-0.878669
7.56333,274.055,-0.878708
7.565,274.072,-0.878744
7.56667,274.089,-0.878788
7.56833,274.105,-0.878836
7.57,274.122,-0.87888
7.57167,274.139,-0.878917
7.57333,274.155,-0.878956
7.575,274.172,-0.878992
7.57667,274.189,-0.879017
7.57833,274.205,-0.879035
7.58,274.222,-0.879053
7.58167,274.239,-0.879071
7.58333,274.255,-0.879094
7.585,274.271,-0.879132
7.58667,274.288,-0.879172
7.58833,274.305,-0.879209
7.59,274.322,-0.87925
7.59167,274.338,-0.879298
7.59333,274.354,-0.87935
7.595,274.371,-0.879393
7.59667,274.388,-0.879437
7.59833,274.405,-0.879478
7.6,274.421,-0.879522
7.60167,274.437,-0.879566
7.60333,274.454,-0.879614
7.605,274.471,-0.879663
7.60667,274.487,-0.879715
7.60833,274.504,-0.879767
7.61,274.521,-0.879815
7.61167,274.537,-0.879855
7.61333,274.554,-0.879887
7.615,274.571,-0.879921
7.61667,274.588,-0.879952
7.61833,274.604,-0.879989
7.62,274.621,-0.880029
7.62167,274.638,-0.880066
7.62333,274.654,-0.880107
7.625,274.671,-0.880153
7.62667,274.687,-0.880195
7.62833,274.704,-0.880241
7.63,274.721,-0.880278
7.63167,274.737,-0.880308
7.63333,274.754,-0.88033
7.635,274.771,-0.880346
7.63667,274.787,-0.880355
7.63833,274.804,-0.880356
7.64,274.821,-0.880351
7.64167,274.838,-0.880356
7.64333,274.854,-0.880364
7.645,274.871,-0.880378
7.64667,274.888,-0.880403
7.64833,274.904,-0.880439
7.65,274.921,-0.880489
7.65167,274.938,-0.880538
7.65333,274.955,-0.880588
7.655,274.971,-0.88064
7.65667,274.988,-0.880687
7.65833,275.004,-0.88073
7.66,275.021,-0.880768
7.66167,275.037,-0.880799
7.66333,275.054,-0.880824
7.665,275.07,-0.880848
7.66667,275.087,-0.880873
7.66833,275.104,-0.880895
7.67,275.121,-0.880926
7.67167,275.137,-0.880955
7.67333,275.154,-0.880991
7.675,275.171,-0.881023
7.67667,275.188,-0.881056
7.67833,275.205,-0.881095
7.68,275.221,-0.881135
7.68167,275.238,-0.881184
7.68333,275.254,-0.881234
7.685,275.271,-0.881281
7.68667,275.287,-0.881319
7.68833,275.304,-0.881358
7.69,275.32,-0.881403
7.69167,275.337,-0.881442
7.69333,275.354,-0.881467
7.695,275.37,-0.881492
7.69667,275.387,-0.881513
7.69833,275.404,-0.881538
7.7,275.42,-0.881562
7.70167,275.437,-0.881588
7.70333,275.454,-0.881622
7.705,275.471,-0.881657
7.70667,275.487,-0.881695
7.70833,275.504,-0.88174
7.71,275.52,-0.881785
7.71167,275.537,-0.881823
7.71333,275.553,-0.881858
7.715,275.57,-0.881894
7.71667,275.587,-0.881935
7.71833,275.603,-0.881979
7.72,275.62,-0.882029
7.72167,275.637,-0.882081
7.72333,275.654,-0.882128
7.725,275.67,-0.882162
7.72667,275.687,-0.882184
7.72833,275.704,-0.882203
7.73,275.72,-0.882226
7.73167,275.737,-0.88225
7.73333,275.754,-0.882272
7.735,275.77,-0.882304
7.73667,275.787,-0.882349
7.73833,275.803,-0.8824
7.74,275.82,-0.88246
7.74167,275.837,-0.882515
7.74333,275.853,-0.882566
7.745,275.87,-0.882614
7.74667,275.887,-0.882661
7.74833,275.904,-0.882713
7.75,275.92,-0.882751
7.75167,275.937,-0.882784
7.75333,275.954,-0.88281
7.755,275.97,-0.88284
7.75667,275.987,-0.882856
7.75833,276.003,-0.882867
7.76,276.02,-0.882869
7.76167,276.037,-0.882875
7.76333,276.053,-0.882882
7.765,276.07,-0.882894
7.76667,276.087,-0.882927
7.76833,276.103,-0.882961
7.77,276.119,-0.882996
7.77167,276.136,-0.88302
7.77333,276.153,-0.88305
7.775,276.17,-0.883082
7.77667,276.187,-0.883113
7.77833,276.203,-0.883141
7.78,276.22,-0.883169
7.78167,276.237,-0.883198
7.78333,276.254,-0.883232
7.785,276.27,-0.88327
7.78667,276.287,-0.883312
7.78833,276.303,-0.883353
7.79,276.32,-0.883394
7.79167,276.337,-0.883433
7.79333,276.353,-0.883477
7.795,276.37,-0.88353
7.79667,276.387,-0.883595
7.79833,276.403,-0.883659
7.8,276.42,-0.883722
7.80167,276.436,-0.88378
7.80333,276.453,-0.883831
7.805,276.469,-0.883882
7.80667,276.486,-0.883923
7.80833,276.503,-0.883958
7.81,276.52,-0.883986
7.81167,276.536,-0.884009
7.81333,276.553,-0.884029
7.815,276.57,-0.884054
7.81667,276.586,-0.884084
7.81833,276.602,-0.884115
7.82,276.619,-0.884161
7.82167,276.636,-0.884204
7.82333,276.652,-0.884254
7.825,276.669,-0.884307
7.82667,276.686,-0.884366
7.82833,276.702,-0.884409
7.83,276.719,-0.884453
7.83167,276.736,-0.884498
7.83333,276.752,-0.884549
7.835,276.769,-0.884595
7.83667,276.786,-0.884636
7.83833,276.802,-0.884685
7.84,276.819,-0.884723
7.84167,276.836,-0.884762
7.84333,276.852,-0.88479
7.845,276.868,-0.884799
7.84667,276.885,-0.884803
7.84833,276.902,-0.884804
7.85,276.918,-0.884807
7.85167,276.935,-0.884811
7.85333,276.952,-0.884819
7.855,276.968,-0.884835
7.85667,276.985,-0.884859
7.85833,277.002,-0.884878
7.86,277.019,-0.884897
7.86167,277.035,-0.884918
7.86333,277.052,-0.884945
7.865,277.069,-0.884973
7.86667,277.085,-0.884999
7.86833,277.102,-0.885034
7.87,277.118,-0.885074
7.87167,277.135,-0.88511
7.87333,277.152,-0.885159
7.875,277.168,-0.885213
7.87667,277.185,-0.885264
7.87833,277.202,-0.885316
7.88,277.218,-0.885366
7.88167,277.235,-0.885417
7.88333,277.251,-0.885458
7.885,277.268,-0.885483
7.88667,277.285,-0.885504
7.88833,277.301,-0.885516
7.89,277.318,-0.885515
7.89167,277.335,-0.885512
7.89333,277.351,-0.885512
7.895,277.368,-0.885518
7.89667,277.385,-0.885524
7.89833,277.402,-0.885538
7.9,277.418,-0.885562
7.90167,277.435,-0.885586
7.90333,277.451,-0.885614
7.905,277.468,-0.885647
7.90667,277.484,-0.885683
7.90833,277.501,-0.885723
7.91,277.518,-0.885764
7.91167,277.535,-0.885802
7.91333,277.552,-0.885845
7.915,277.568,-0.885891
7.91667,277.585,-0.885935
7.91833,277.602,-0.885979
7.92,277.618,-0.886018
7.92167,277.635,-0.886055
7.92333,277.651,-0.886085
7.925,277.668,-0.886112
7.92667,277.685,-0.886142
7.92833,277.701,-0.886175
7.93,277.718,-0.886215
7.93167,277.734,-0.886256
7.93333,277.751,-0.886298
7.935,277.768,-0.886341
7.93667,277.784,-0.886377
7.93833,277.801,-0.886412
7.94,277.818,-0.886448
7.94167,277.835,-0.886485
7.94333,277.851,-0.886526
7.945,277.868,-0.886562
7.94667,277.884,-0.886602
7.94833,277.901,-0.886648
7.95,277.918,-0.886697
7.95167,277.934,-0.886742
7.95333,277.951,-0.886788
7.955,277.968,-0.886831
7.95667,277.984,-0.886864
7.95833,278.001,-0.886891
7.96,278.017,-0.886917
7.96167,278.034,-0.886943
7.96333,278.051,-0.886969
7.965,278.067,-0.887008
7.96667,278.084,-0.887051
7.96833,278.101,-0.887087
7.97,278.118,-0.887113
7.97167,278.134,-0.887135
7.97333,278.151,-0.88715
7.975,278.168,-0.887161
7.97667,278.184,-0.887176
7.97833,278.201,-0.887195
7.98,278.218,-0.887216
7.98167,278.234,-0.887241
7.98333,278.251,-0.887286
7.985,278.268,-0.887333
7.98667,278.284,-0.887389
7.98833,278.301,-0.88745
7.99,278.318,-0.887514
7.99167,278.334,-0.887577
7.99333,278.351,-0.887633
7.995,278.367,-0.887694
7.99667,278.385,-0.887747
7.99833,278.401,-0.887789
8,278.418,-0.887828
8.00167,278.434,-0.887862
8.00333,278.451,-0.887889
8.005,278.467,-0.887916
8.00667,278.484,-0.887934
8.00833,278.501,-0.887942
8.01,278.517,-0.887953
8.01167,278.534,-0.887969
8.01333,278.551,-0.887988
8.015,278.567,-0.888007
8.01667,278.584,-0.888024
8.01833,278.601,-0.888053
8.02,278.617,-0.888088
8.02167,278.634,-0.888124
8.02333,278.65,-0.888159
8.025,278.667,-0.888203
8.02667,278.684,-0.888253
8.02833,278.7,-0.888298
8.03,278.717,-0.88834
8.03167,278.734,-0.888379
8.03333,278.75,-0.888416
8.035,278.767,-0.888457
8.03667,278.784,-0.888503
8.03833,278.8,-0.888552
8.04,278.817,-0.888596
8.04167,278.834,-0.888631
8.04333,278.85,-0.888669
8.045,278.867,-0.888698
8.04667,278.884,-0.888728
8.04833,278.9,-0.888765
8.05,278.917,-0.888803
8.05167,278.934,-0.888837
8.05333,278.951,-0.888878
8.055,278.967,-0.888926
8.05667,278.984,-0.888974
8.05833,279,-0.889026
8.06,279.017,-0.889072
8.06167,279.034,-0.889114
8.06333,279.05,-0.889142
8.065,279.067,-0.889167
8.06667,279.084,-0.88919
8.06833,279.101,-0.889215
8.07,279.117,-0.889247
8.07167,279.134,-0.88928
8.07333,279.151,-0.889315
8.075,279.167,-0.889354
8.07667,279.184,-0.889392
8.07833,279.2,-0.889436
8.08,279.217,-0.889484
8.08167,279.233,-0.889521
8.08333,279.25,-0.889556
8.085,279.267,-0.889588
8.08667,279.284,-0.889616
8.08833,279.3,-0.889644
8.09,279.317,-0.889664
8.09167,279.333,-0.889691
8.09333,279.35,-0.88971
8.095,279.367,-0.889733
8.09667,279.384,-0.889759
8.09833,279.4,-0.889785
8.1,279.417,-0.889812
8.10167,279.433,-0.889846
8.10333,279.45,-0.889877
8.105,279.467,-0.88991
8.10667,279.483,-0.889943
8.10833,279.5,-0.889978
8.11,279.517,-0.89002
8.11167,279.534,-0.890064
8.11333,279.551,-0.890112
8.115,279.567,-0.890159
8.11667,279.584,-0.890204
8.11833,279.601,-0.890255
8.12,279.617,-0.890306
8.12167,279.634,-0.890358
8.12333,279.651,-0.890404
8.125,279.667,-0.890437
8.12667,279.684,-0.890461
8.12833,279.701,-0.89048
8.13,279.717,-0.890491
8.13167,279.734,-0.890498
8.13333,279.751,-0.890502
8.135,279.767,-0.890515
8.13667,279.784,-0.890528
8.13833,279.8,-0.890557
8.14,279.817,-0.890603
8.14167,279.834,-0.890656
8.14333,279.85,-0.89071
8.145,279.867,-0.890776
8.14667,279.883,-0.890889
8.14833,279.9,-0.890954
8.15,279.917,-0.891016
8.15167,279.933,-0.891067
8.15333,279.95,-0.891113
8.155,279.967,-0.89116
8.15667,279.983,-0.891199
8.15833,280,-0.891231
8.16,280.017,-0.891248
8.16167,280.034,-0.891264
8.16333,280.05,-0.891279
8.165,280.067,-0.891299
8.16667,280.083,-0.891319
8.16833,280.1,-0.891346
8.17,280.117,-0.891376
8.17167,280.133,-0.891407
8.17333,280.15,-0.891447
8.175,280.166,-0.891499
8.17667,280.183,-0.891573
8.17833,280.2,-0.891716
8.18,280.217,-0.891803
8.18167,280.234,-0.891871
8.18333,280.25,-0.891932
8.185,280.266,-0.89198
8.18667,280.283,-0.892025
8.18833,280.3,-0.892061
8.19,280.317,-0.892093
8.19167,280.334,-0.892122
8.19333,280.35,-0.892153
8.195,280.367,-0.892187
8.19667,280.383,-0.892228
8.19833,280.4,-0.892276
8.2,280.417,-0.892322
8.20167,280.433,-0.892373
8.20333,280.45,-0.892422
8.205,280.467,-0.892472
8.20667,280.483,-0.892526
8.20833,280.5,-0.892588
8.21,280.516,-0.892651
8.21167,280.533,-0.892704
8.21333,280.55,-0.892746
8.215,280.567,-0.892779
8.21667,280.583,-0.892815
8.21833,280.6,-0.892839
8.22,280.616,-0.892852
8.22167,280.634,-0.892859
8.22333,280.65,-0.892862
8.225,280.667,-0.892865
8.22667,280.684,-0.892871
8.22833,280.7,-0.892874
8.23,280.717,-0.892887
8.23167,280.733,-0.89291
8.23333,280.75,-0.892939
8.235,280.766,-0.892971
8.23667,280.783,-0.893012
8.23833,280.799,-0.893059
8.24,280.816,-0.893109
8.24167,280.833,-0.893159
8.24333,280.85,-0.893202
8.245,280.866,-0.893242
8.24667,280.883,-0.893269
8.24833,280.9,-0.893296
8.25,280.917,-0.893319
8.25167,280.933,-0.893336
8.25333,280.95,-0.893348
8.255,280.966,-0.893367
8.25667,280.983,-0.893393
8.25833,281,-0.893424
8.26,281.016,-0.893467
8.26167,281.033,-0.893514
8.26333,281.05,-0.89356
8.265,281.067,-0.893608
8.26667,281.083,-0.893665
8.26833,281.1,-0.893712
8.27,281.117,-0.893762
8.27167,281.133,-0.8938
8.27333,281.15,-0.893833
8.275,281.167,-0.893864
8.27667,281.183,-0.893887
8.27833,281.2,-0.893908
8.28,281.217,-0.89392
8.28167,281.233,-0.89393
8.28333,281.25,-0.893942
8.285,281.267,-0.893952
8.28667,281.283,-0.89396
8.28833,281.3,-0.893975
8.29,281.316,-0.893989
8.29167,281.333,-0.894009
8.29333,281.35,-0.894034
8.295,281.366,-0.894069
8.29667,281.383,-0.894101
8.29833,281.4,-0.894146
8.3,281.416,-0.894191
8.30167,281.433,-0.894246
8.30333,281.449,-0.894301
8.305,281.466,-0.894357
8.30667,281.483,-0.894414
8.30833,281.5,-0.894468
8.31,281.516,-0.894517
8.31167,281.533,-0.894554
8.31333,281.55,-0.894583
8.315,281.566,-0.894614
8.31667,281.583,-0.894644
8.31833,281.6,-0.894672
8.32,281.616,-0.894699
8.32167,281.633,-0.894724
8.32333,281.65,-0.894744
8.325,281.666,-0.894772
8.32667,281.682,-0.894809
8.32833,281.699,-0.894851
8.33,281.716,-0.894896
8.33167,281.733,-0.894946
8.33333,281.75,-0.895004
8.335,281.767,-0.895056
8.33667,281.783,-0.89511
8.33833,281.799,-0.895163
8.34,281.816,-0.895212
8.34167,281.833,-0.895259
8.34333,281.85,-0.895307
8.345,281.866,-0.895352
8.34667,281.883,-0.895391
8.34833,281.9,-0.895425
8.35,281.916,-0.895463
8.35167,281.933,-0.895506
8.35333,281.949,-0.895551
8.355,281.966,-0.895595
8.35667,281.983,-0.895635
8.35833,282,-0.895677
8.36,282.017,-0.895713
8.36167,282.033,-0.895744
8.36333,282.05,-0.895773
8.365,282.066,-0.895799
8.36667,282.083,-0.895821
8.36833,282.1,-0.89585
8.37,282.116,-0.89588
8.37167,282.133,-0.895911
8.37333,282.15,-0.895945
8.375,282.167,-0.895986
8.37667,282.183,-0.896033
8.37833,282.2,-0.896088
8.38,282.216,-0.896142
8.38167,282.233,-0.8962
8.38333,282.25,-0.896251
8.385,282.266,-0.896301
8.38667,282.283,-0.896348
8.38833,282.3,-0.8964
8.39,282.317,-0.896442
8.39167,282.333,-0.896473
8.39333,282.35,-0.896509
8.395,282.366,-0.896548
8.39667,282.383,-0.89659
8.39833,282.4,-0.896625
8.4,282.417,-0.896659
8.40167,282.433,-0.896704
8.40333,282.45,-0.896755
8.405,282.467,-0.896802
8.40667,282.483,-0.896851
8.40833,282.5,-0.896891
8.41,282.516,-0.896927
8.41167,282.533,-0.896967
8.41333,282.55,-0.897006
8.415,282.566,-0.897045
8.41667,282.583,-0.897081
8.41833,282.6,-0.897117
8.42,282.617,-0.897151
8.42167,282.633,-0.897187
8.42333,282.65,-0.897232
8.425,282.667,-0.897276
8.42667,282.683,-0.89731
8.42833,282.7,-0.897348
8.43,282.717,-0.897398
8.43167,282.733,-0.897444
8.43333,282.75,-0.897491
8.435,282.767,-0.897536
8.43667,282.784,-0.897574
8.43833,282.8,-0.897614
8.44,282.817,-0.897655
8.44167,282.833,-0.897697
8.44333,282.85,-0.897733
8.445,282.867,-0.897764
8.44667,282.883,-0.897793
8.44833,282.9,-0.89782
8.45,282.916,-0.897844
8.45167,282.933,-0.897866
8.45333,282.949,-0.897889
8.455,282.966,-0.897916
8.45667,282.983,-0.897945
8.45833,282.999,-0.897988
8.46,283.016,-0.89804
8.46167,283.033,-0.898091
8.46333,283.05,-0.898143
8.465,283.066,-0.898189
8.46667,283.083,-0.898241
8.46833,283.099,-0.898281
8.47,283.116,-0.89832
8.47167,283.133,-0.89836
8.47333,283.15,-0.898401
8.475,283.166,-0.898436
8.47667,283.183,-0.898468
8.47833,283.199,-0.898502
8.48,283.216,-0.898532
8.48167,283.233,-0.89856
8.48333,283.249,-0.898588
8.485,283.266,-0.898614
8.48667,283.283,-0.898637
8.48833,283.299,-0.898662
8.49,283.316,-0.898679
8.49167,283.333,-0.89869
8.49333,283.349,-0.898701
8.495,283.366,-0.898715
8.49667,283.382,-0.898734
8.49833,283.399,-0.898748
8.5,283.416,-0.898766
8.50167,283.433,-0.898793
8.50333,283.449,-0.898823
8.505,283.466,-0.898857
8.50667,283.483,-0.898891
8.50833,283.499,-0.898927
8.51,283.516,-0.898963
8.51167,283.533,-0.899008
8.51333,283.549,-0.899054
8.515,283.566,-0.899096
8.51667,283.582,-0.899141
8.51833,283.599,-0.899188
8.52,283.616,-0.899239
8.52167,283.632,-0.89929
8.52333,283.649,-0.899342
8.525,283.666,-0.899393
8.52667,283.683,-0.899435
8.52833,283.699,-0.899467
8.53,283.716,-0.899496
8.53167,283.733,-0.899522
8.53333,283.749,-0.899544
8.535,283.766,-0.899557
8.53667,283.782,-0.899577
8.53833,283.799,-0.899596
8.54,283.816,-0.89962
8.54167,283.833,-0.899641
8.54333,283.85,-0.899657
8.545,283.866,-0.899674
8.54667,283.883,-0.899694
8.54833,283.9,-0.899713
8.55,283.916,-0.899744
8.55167,283.933,-0.899782
8.55333,283.949,-0.899831
8.555,283.966,-0.899884
8.55667,283.983,-0.899971
8.55833,283.999,-0.900066
8.56,284.016,-0.900228
8.56167,284.033,-0.900357
8.56333,284.049,-0.900417
8.565,284.066,-0.90046
8.56667,284.082,-0.900487
8.56833,284.099,-0.900505
8.57,284.116,-0.900518
8.57167,284.133,-0.900534
8.57333,284.149,-0.900549
8.575,284.166,-0.900577
8.57667,284.182,-0.900614
8.57833,284.199,-0.900669
8.58,284.216,-0.900741
8.58167,284.232,-0.900802
8.58333,284.249,-0.900856
8.585,284.266,-0.900896
8.58667,284.282,-0.90093
8.58833,284.299,-0.900959
8.59,284.315,-0.900985
8.59167,284.332,-0.90101
8.59333,284.349,-0.901036
8.595,284.365,-0.901064
8.59667,284.382,-0.901098
8.59833,284.399,-0.901143
8.6,284.415,-0.901191
8.60167,284.432,-0.901234
8.60333,284.449,-0.901282
8.605,284.465,-0.901324
8.60667,284.482,-0.901364
8.60833,284.499,-0.901388
8.61,284.515,-0.901415
8.61167,284.532,-0.90144
8.61333,284.548,-0.901457
8.615,284.565,-0.90147
8.61667,284.582,-0.901494
8.61833,284.598,-0.901519
8.62,284.615,-0.901547
8.62167,284.632,-0.901581
8.62333,284.648,-0.901623
8.625,284.665,-0.901665
8.62667,284.682,-0.901701
8.62833,284.698,-0.90174
8.63,284.715,-0.901774
8.63167,284.731,-0.901811
8.63333,284.748,-0.901851
8.635,284.765,-0.901894
8.63667,284.782,-0.901949
8.63833,284.799,-0.902004
8.64,284.815,-0.902069
8.64167,284.832,-0.902158
8.64333,284.849,-0.902227
8.645,284.865,-0.902295
8.64667,284.882,-0.902371
8.64833,284.898,-0.902436
8.65,284.915,-0.902485
8.65167,284.932,-0.902531
8.65333,284.948,-0.90257
8.655,284.965,-0.902597
8.65667,284.982,-0.902617
8.65833,284.999,-0.902632
8.66,285.015,-0.902641
8.66167,285.031,-0.902653
8.66333,285.048,-0.902659
8.665,285.065,-0.902674
8.66667,285.081,-0.902691
8.66833,285.098,-0.902714
8.67,285.115,-0.902741
8.67167,285.131,-0.902774
8.67333,285.148,-0.902802
8.675,285.165,-0.90284
8.67667,285.181,-0.902882
8.67833,285.198,-0.902935
8.68,285.215,-0.902989
8.68167,285.232,-0.90304
8.68333,285.248,-0.903091
8.685,285.265,-0.903144
8.68667,285.281,-0.903195
8.68833,285.298,-0.903251
8.69,285.315,-0.903304
8.69167,285.332,-0.903349
8.69333,285.349,-0.903385
8.695,285.365,-0.903416
8.69667,285.382,-0.903442
8.69833,285.398,-0.903464
8.7,285.415,-0.903482
8.70167,285.431,-0.903502
8.70333,285.448,-0.903523
8.705,285.465,-0.903547
8.70667,285.481,-0.903575
8.70833,285.498,-0.903605
8.71,285.514,-0.903637
8.71167,285.531,-0.90368
8.71333,285.548,-0.903726
8.715,285.564,-0.903773
8.71667,285.581,-0.903813
8.71833,285.597,-0.903858
8.72,285.614,-0.903908
8.72167,285.631,-0.903967
8.72333,285.648,-0.904024
8.725,285.664,-0.904075
8.72667,285.681,-0.904128
8.72833,285.697,-0.904181
8.73,285.714,-0.904227
8.73167,285.731,-0.904269
8.73333,285.747,-0.904309
8.735,285.764,-0.904344
8.73667,285.781,-0.904376
8.73833,285.797,-0.904407
8.74,285.814,-0.904435
8.74167,285.831,-0.904462
8.74333,285.847,-0.904486
8.745,285.863,-0.904527
8.74667,285.88,-0.904574
8.74833,285.897,-0.904629
8.75,285.913,-0.904689
8.75167,285.93,-0.904753
8.75333,285.947,-0.904817
8.755,285.964,-0.90488
8.75667,285.981,-0.904942
8.75833,285.997,-0.904993
8.76,286.014,-0.905034
8.76167,286.031,-0.905072
8.76333,286.047,-0.905118
8.765,286.064,-0.905163
8.76667,286.08,-0.905208
8.76833,286.097,-0.905259
8.77,286.114,-0.905311
8.77167,286.13,-0.905353
8.77333,286.147,-0.905396
8.775,286.163,-0.90543
8.77667,286.18,-0.905455
8.77833,286.196,-0.905479
8.78,286.213,-0.905501
8.78167,286.23,-0.905531
8.78333,286.246,-0.905566
8.785,286.263,-0.905601
8.78667,286.279,-0.905643
8.78833,286.296,-0.905694
8.79,286.313,-0.905755
8.79167,286.329,-0.905815
8.79333,286.346,-0.905875
8.795,286.363,-0.905938
8.79667,286.38,-0.906
8.79833,286.396,-0.906047
8.8,286.413,-0.906084
8.80167,286.429,-0.906116
8.80333,286.446,-0.90615
8.805,286.463,-0.906174
8.80667,286.479,-0.906194
8.80833,286.496,-0.906219
8.81,286.512,-0.906245
8.81167,286.529,-0.906279
8.81333,286.546,-0.90631
8.815,286.562,-0.906356
8.81667,286.579,-0.906403
8.81833,286.595,-0.90645
8.82,286.612,-0.906495
8.82167,286.629,-0.906544
8.82333,286.646,-0.906589
8.825,286.662,-0.906627
8.82667,286.679,-0.906655
8.82833,286.695,-0.906681
8.83,286.712,-0.906719
8.83167,286.728,-0.906746
8.83333,286.745,-0.906771
8.835,286.762,-0.906795
8.83667,286.778,-0.906823
8.83833,286.795,-0.906848
8.84,286.812,-0.906874
8.84167,286.828,-0.906902
8.84333,286.845,-0.906929
8.845,286.862,-0.906953
8.84667,286.878,-0.90698
8.84833,286.895,-0.90702
8.85,286.911,-0.907054
8.85167,286.928,-0.907091
8.85333,286.945,-0.907128
8.855,286.962,-0.907167
8.85667,286.978,-0.907206
8.85833,286.995,-0.907244
8.86,287.012,-0.907286
8.86167,287.029,-0.907332
8.86333,287.046,-0.907371
8.865,287.062,-0.907406
8.86667,287.078,-0.907438
8.86833,287.095,-0.907471
8.87,287.112,-0.907511
8.87167,287.128,-0.907557
8.87333,287.145,-0.907612
8.875,287.161,-0.90767
8.87667,287.178,-0.907749
8.87833,287.195,-0.907811
8.88,287.211,-0.907873
8.88167,287.228,-0.907932
8.88333,287.245,-0.90799
8.885,287.262,-0.908041
8.88667,287.278,-0.908085
8.88833,287.295,-0.908132
8.89,287.311,-0.908178
8.89167,287.328,-0.908224
8.89333,287.344,-0.908269
8.895,287.361,-0.908319
8.89667,287.378,-0.908364
8.89833,287.395,-0.908403
8.9,287.411,-0.908442
8.90167,287.428,-0.908483
8.90333,287.444,-0.90852
8.905,287.461,-0.908547
8.90667,287.478,-0.908578
8.90833,287.494,-0.908612
8.91,287.511,-0.908652
8.91167,287.528,-0.908695
8.91333,287.545,-0.908742
8.915,287.561,-0.908794
8.91667,287.578,-0.908846
8.91833,287.594,-0.908899
8.92,287.611,-0.908955
8.92167,287.628,-0.909018
8.92333,287.644,-0.909088
8.925,287.661,-0.909155
8.92667,287.678,-0.90922
8.92833,287.694,-0.909287
8.93,287.711,-0.909343
8.93167,287.727,-0.909389
8.93333,287.744,-0.909431
8.935,287.76,-0.909457
8.93667,287.777,-0.90948
8.93833,287.794,-0.909507
8.94,287.81,-0.90953
8.94167,287.827,-0.909561
8.94333,287.844,-0.909598
8.945,287.86,-0.909642
8.94667,287.877,-0.909697
8.94833,287.893,-0.90976
8.95,287.91,-0.909829
8.95167,287.927,-0.909922
8.95333,287.944,-0.910027
8.955,287.96,-0.910112
8.95667,287.977,-0.910188
8.95833,287.993,-0.910258
8.96,288.01,-0.910323
8.96167,288.027,-0.910376
8.96333,288.044,-0.910432
8.965,288.06,-0.910486
8.96667,288.077,-0.910532
8.96833,288.094,-0.910565
8.97,288.11,-0.910591
8.97167,288.126,-0.910625
8.97333,288.143,-0.910665
8.975,288.16,-0.910707
8.97667,288.176,-0.910747
8.97833,288.193,-0.910794
8.98,288.21,-0.91085
8.98167,288.226,-0.910909
8.98333,288.242,-0.910974
8.985,288.259,-0.911045
8.98667,288.276,-0.911112
8.98833,288.293,-0.911179
8.99,288.309,-0.911243
8.99167,288.326,-0.911304
8.99333,288.343,-0.911359
8.995,288.359,-0.911408
8.99667,288.376,-0.911447
8.99833,288.393,-0.911482
9,288.409,-0.911515
9.00167,288.426,-0.911544
9.00333,288.442,-0.91157
9.005,288.459,-0.911604
9.00667,288.475,-0.911645
9.00833,288.493,-0.911691
9.01,288.509,-0.911746
9.01167,288.526,-0.911799
9.01333,288.542,-0.91185
9.015,288.559,-0.911907
9.01667,288.576,-0.911965
9.01833,288.592,-0.912023
9.02,288.609,-0.912086
9.02167,288.625,-0.912151
9.02333,288.642,-0.912212
9.025,288.659,-0.912275
9.02667,288.676,-0.912336
9.02833,288.693,-0.912397
9.03,288.709,-0.912458
9.03167,288.726,-0.912513
9.03333,288.743,-0.912568
9.035,288.759,-0.912623
9.03667,288.776,-0.912672
9.03833,288.792,-0.912722
9.04,288.809,-0.912777
9.04167,288.825,-0.912823
9.04333,288.842,-0.912873
9.045,288.859,-0.912925
9.04667,288.876,-0.912982
9.04833,288.892,-0.913043
9.05,288.909,-0.913099
9.05167,288.925,-0.913153
9.05333,288.942,-0.913201
9.055,288.959,-0.913255
9.05667,288.975,-0.91331
9.05833,288.992,-0.913363
9.06,289.008,-0.913413
9.06167,289.025,-0.91346
9.06333,289.042,-0.9135
9.065,289.059,-0.913538
9.06667,289.075,-0.913582
9.06833,289.092,-0.913626
9.07,289.108,-0.913669
9.07167,289.125,-0.913709
9.07333,289.141,-0.913753
9.075,289.158,-0.913806
9.07667,289.175,-0.913869
9.07833,289.191,-0.91393
9.08,289.208,-0.913992
9.08167,289.225,-0.914061
9.08333,289.241,-0.91413
9.085,289.258,-0.914198
9.08667,289.274,-0.914262
9.08833,289.291,-0.914334
9.09,289.308,-0.914403
9.09167,289.325,-0.914467
9.09333,289.341,-0.914527
9.095,289.358,-0.914588
9.09667,289.375,-0.914645
9.09833,289.392,-0.914699
9.1,289.409,-0.914748
9.10167,289.425,-0.914787
9.10333,289.442,-0.914824
9.105,289.459,-0.914857
9.10667,289.475,-0.914886
9.10833,289.492,-0.914916
9.11,289.508,-0.914958
9.11167,289.525,-0.915
9.11333,289.542,-0.915046
9.115,289.558,-0.915101
9.11667,289.574,-0.915163
9.11833,289.591,-0.915232
9.12,289.607,-0.915307
9.12167,289.624,-0.915386
9.12333,289.641,-0.915459
9.125,289.658,-0.915528
9.12667,289.674,-0.915598
9.12833,289.691,-0.915673
9.13,289.708,-0.915735
9.13167,289.724,-0.915787
9.13333,289.741,-0.915832
9.135,289.757,-0.91588
9.13667,289.774,-0.915931
9.13833,289.79,-0.915991
9.14,289.807,-0.916061
9.14167,289.823,-0.916137
9.14333,289.84,-0.916212
9.145,289.857,-0.916286
9.14667,289.874,-0.916359
9.14833,289.891,-0.916427
9.15,289.908,-0.916492
9.15167,289.924,-0.916546
9.15333,289.941,-0.916598
9.155,289.957,-0.916652
9.15667,289.974,-0.916699
9.15833,289.99,-0.916747
9.16,290.007,-0.916796
9.16167,290.024,-0.916844
9.16333,290.04,-0.91689
9.165,290.057,-0.916951
9.16667,290.074,-0.917017
9.16833,290.09,-0.917086
9.17,290.107,-0.917146
9.17167,290.124,-0.917203
9.17333,290.141,-0.917271
9.175,290.157,-0.917325
9.17667,290.174,-0.917382
9.17833,290.19,-0.91744
9.18,290.207,-0.917495
9.18167,290.224,-0.917554
9.18333,290.241,-0.917614
9.185,290.258,-0.917678
9.18667,290.275,-0.917745
9.18833,290.291,-0.917808
9.19,290.307,-0.917866
9.19167,290.324,-0.917923
9.19333,290.341,-0.91798
9.195,290.358,-0.91804
9.19667,290.374,-0.918102
9.19833,290.391,-0.91817
9.2,290.407,-0.918238
9.20167,290.424,-0.918306
9.20333,290.441,-0.918371
9.205,290.457,-0.918434
9.20667,290.474,-0.9185
9.20833,290.491,-0.918563
9.21,290.507,-0.918614
9.21167,290.524,-0.918659
9.21333,290.54,-0.918698
9.215,290.557,-0.918747
9.21667,290.574,-0.918809
9.21833,290.59,-0.918873
9.22,290.607,-0.918942
9.22167,290.624,-0.919017
9.22333,290.64,-0.919082
9.225,290.657,-0.919147
9.22667,290.673,-0.919218
9.22833,290.69,-0.919281
9.23,290.707,-0.919347
9.23167,290.724,-0.919407
9.23333,290.741,-0.919467
9.235,290.757,-0.91953
9.23667,290.773,-0.919598
9.23833,290.79,-0.919671
9.24,290.807,-0.919748
9.24167,290.823,-0.919826
9.24333,290.84,-0.919906
9.245,290.857,-0.919979
9.24667,290.873,-0.92005
9.24833,290.89,-0.920117
9.25,290.907,-0.920182
9.25167,290.924,-0.920233
9.25333,290.94,-0.920275
9.255,290.957,-0.920317
9.25667,290.974,-0.920359
9.25833,290.99,-0.920395
9.26,291.007,-0.920427
9.26167,291.023,-0.920459
9.26333,291.04,-0.920484
9.265,291.057,-0.920514
9.26667,291.073,-0.920543
9.26833,291.09,-0.92057
9.27,291.106,-0.920604
9.27167,291.123,-0.920649
9.27333,291.14,-0.920701
9.275,291.156,-0.920759
9.27667,291.173,-0.920821
9.27833,291.19,-0.920894
9.28,291.206,-0.920973
9.28167,291.223,-0.921052
9.28333,291.24,-0.921131
9.285,291.256,-0.921207
9.28667,291.273,-0.921287
9.28833,291.29,-0.921366
9.29,291.307,-0.921442
9.29167,291.323,-0.921508
9.29333,291.34,-0.921563
9.295,291.357,-0.921604
9.29667,291.373,-0.92164
9.29833,291.39,-0.921668
9.3,291.407,-0.921701
9.30167,291.423,-0.921741
9.30333,291.44,-0.921787
9.305,291.456,-0.921833
9.30667,291.474,-0.921881
9.30833,291.49,-0.921938
9.31,291.507,-0.922003
9.31167,291.523,-0.922071
9.31333,291.54,-0.922133
9.315,291.556,-0.922193
9.31667,291.573,-0.922265
9.31833,291.59,-0.922328
9.32,291.607,-0.922391
9.32167,291.623,-0.922458
9.32333,291.64,-0.922521
9.325,291.656,-0.922583
9.32667,291.673,-0.922636
9.32833,291.69,-0.922689
9.33,291.706,-0.922743
9.33167,291.723,-0.922797
9.33333,291.739,-0.922856
9.335,291.756,-0.922915
9.33667,291.773,-0.922973
9.33833,291.789,-0.92303
9.34,291.806,-0.923087
9.34167,291.822,-0.923155
9.34333,291.839,-0.92323
9.345,291.856,-0.92329
9.34667,291.873,-0.923343
9.34833,291.889,-0.923392
9.35,291.906,-0.923443
9.35167,291.922,-0.9235
9.35333,291.939,-0.92355
9.355,291.956,-0.923595
9.35667,291.973,-0.92364
9.35833,291.989,-0.923685
9.36,292.006,-0.923738
9.36167,292.022,-0.923801
9.36333,292.039,-0.923869
9.365,292.056,-0.923944
9.36667,292.073,-0.924018
9.36833,292.089,-0.924093
9.37,292.106,-0.92417
9.37167,292.122,-0.924249
9.37333,292.139,-0.924325
9.375,292.156,-0.924394
9.37667,292.172,-0.924449
9.37833,292.189,-0.924496
9.38,292.206,-0.924546
9.38167,292.223,-0.924601
9.38333,292.239,-0.924661
9.385,292.256,-0.924721
9.38667,292.273,-0.924781
9.38833,292.289,-0.924843
9.39,292.306,-0.924913
9.39167,292.323,-0.92498
9.39333,292.339,-0.925036
9.395,292.355,-0.925088
9.39667,292.372,-0.925133
9.39833,292.389,-0.925177
9.4,292.406,-0.925216
9.40167,292.422,-0.925257
9.40333,292.439,-0.925304
9.405,292.456,-0.925344
9.40667,292.473,-0.92539
9.40833,292.489,-0.925439
9.41,292.506,-0.925484
9.41167,292.522,-0.925531
9.41333,292.539,-0.925573
9.415,292.556,-0.925613
9.41667,292.573,-0.925656
9.41833,292.589,-0.925697
9.42,292.606,-0.925742
9.42167,292.622,-0.925791
9.42333,292.639,-0.925849
9.425,292.655,-0.925917
9.42667,292.672,-0.925992
9.42833,292.689,-0.926067
9.43,292.705,-0.926144
9.43167,292.722,-0.926216
9.43333,292.739,-0.926286
9.435,292.756,-0.926349
9.43667,292.772,-0.926412
9.43833,292.789,-0.926472
9.44,292.806,-0.926524
9.44167,292.822,-0.926571
9.44333,292.839,-0.926619
9.445,292.856,-0.926671
9.44667,292.872,-0.926726
9.44833,292.889,-0.926778
9.45,292.906,-0.926833
9.45167,292.922,-0.926897
9.45333,292.939,-0.926972
9.455,292.955,-0.92705
9.45667,292.972,-0.927131
9.45833,292.989,-0.927211
9.46,293.005,-0.927281
9.46167,293.022,-0.927345
9.46333,293.039,-0.927403
9.465,293.055,-0.927456
9.46667,293.072,-0.927515
9.46833,293.088,-0.927563
9.47,293.105,-0.927602
9.47167,293.122,-0.92764
9.47333,293.139,-0.927683
9.475,293.156,-0.927735
9.47667,293.172,-0.927796
9.47833,293.189,-0.927858
9.48,293.206,-0.927921
9.48167,293.222,-0.927983
9.48333,293.238,-0.928046
9.485,293.255,-0.928119
9.48667,293.272,-0.928184
9.48833,293.288,-0.928246
9.49,293.305,-0.928307
9.49167,293.322,-0.928362
9.49333,293.338,-0.928417
9.495,293.355,-0.928477
9.49667,293.372,-0.928539
9.49833,293.388,-0.928601
9.5,293.405,-0.928659
9.50167,293.422,-0.928711
9.50333,293.438,-0.928759
9.505,293.455,-0.928799
9.50667,293.472,-0.928834
9.50833,293.489,-0.928859
9.51,293.505,-0.928882
9.51167,293.522,-0.928903
9.51333,293.539,-0.928935
9.515,293.555,-0.928983
9.51667,293.572,-0.929048
9.51833,293.589,-0.929118
9.52,293.605,-0.929212
9.52167,293.622,-0.929319
9.52333,293.638,-0.929398
9.525,293.655,-0.929471
9.52667,293.671,-0.929543
9.52833,293.688,-0.929603
9.53,293.705,-0.929654
9.53167,293.722,-0.9297
9.53333,293.738,-0.929735
9.535,293.755,-0.929772
9.53667,293.771,-0.92981
9.53833,293.788,-0.929849
9.54,293.805,-0.929887
9.54167,293.821,-0.929919
9.54333,293.838,-0.929952
9.545,293.855,-0.929983
9.54667,293.872,-0.930019
9.54833,293.888,-0.930056
9.55,293.905,-0.930099
9.55167,293.922,-0.930147
9.55333,293.938,-0.930207
9.555,293.955,-0.930277
9.55667,293.971,-0.930352
9.55833,293.988,-0.930445
9.56,294.005,-0.930543
9.56167,294.021,-0.930639
9.56333,294.038,-0.930737
9.565,294.054,-0.930824
9.56667,294.071,-0.930906
9.56833,294.088,-0.930979
9.57,294.105,-0.93105
9.57167,294.122,-0.931113
9.57333,294.138,-0.931161
9.575,294.155,-0.931207
9.57667,294.172,-0.931256
9.57833,294.189,-0.931297
9.58,294.205,-0.931326
9.58167,294.222,-0.931361
9.58333,294.238,-0.931399
9.585,294.255,-0.93144
9.58667,294.271,-0.931486
9.58833,294.288,-0.931529
9.59,294.304,-0.931579
9.59167,294.321,-0.931629
9.59333,294.338,-0.931675
9.595,294.354,-0.931724
9.59667,294.371,-0.931764
9.59833,294.388,-0.931805
9.6,294.404,-0.931848
9.60167,294.421,-0.93189
9.60333,294.438,-0.931932
9.605,294.454,-0.931974
9.60667,294.471,-0.932025
9.60833,294.488,-0.932078
9.61,294.504,-0.932134
9.61167,294.521,-0.932198
9.61333,294.538,-0.932264
9.615,294.554,-0.932326
9.61667,294.571,-0.932387
9.61833,294.587,-0.932442
9.62,294.604,-0.932499
9.62167,294.621,-0.932552
9.62333,294.637,-0.932603
9.625,294.654,-0.932648
9.62667,294.67,-0.932699
9.62833,294.687,-0.932755
9.63,294.704,-0.93281
9.63167,294.721,-0.932871
9.63333,294.738,-0.932933
9.635,294.754,-0.932995
9.63667,294.771,-0.933058
9.63833,294.787,-0.933119
9.64,294.804,-0.933174
9.64167,294.821,-0.933226
9.64333,294.838,-0.933274
9.645,294.855,-0.933326
9.64667,294.871,-0.933379
9.64833,294.888,-0.93343
9.65,294.905,-0.933482
9.65167,294.921,-0.933535
9.65333,294.938,-0.933585
9.655,294.955,-0.933634
9.65667,294.971,-0.933685
9.65833,294.988,-0.933738
9.66,295.004,-0.933779
9.66167,295.021,-0.933816
9.66333,295.038,-0.933859
9.665,295.055,-0.933904
9.66667,295.071,-0.933952
9.66833,295.088,-0.93401
9.67,295.104,-0.934072
9.67167,295.121,-0.934139
9.67333,295.137,-0.934215
9.675,295.154,-0.934292
9.67667,295.171,-0.934365
9.67833,295.188,-0.934429
9.68,295.204,-0.934488
9.68167,295.221,-0.934538
9.68333,295.237,-0.934592
9.685,295.254,-0.934651
9.68667,295.27,-0.934709
9.68833,295.287,-0.934762
9.69,295.304,-0.934809
9.69167,295.321,-0.934846
9.69333,295.337,-0.934881
9.695,295.354,-0.934908
9.69667,295.371,-0.934934
9.69833,295.387,-0.934966
9.7,295.404,-0.935
9.70167,295.421,-0.935043
9.70333,295.437,-0.935097
9.705,295.454,-0.935157
9.70667,295.47,-0.93522
9.70833,295.487,-0.935278
9.71,295.504,-0.93533
9.71167,295.52,-0.935385
9.71333,295.537,-0.935437
9.715,295.554,-0.935493
9.71667,295.571,-0.935546
9.71833,295.587,-0.935603
9.72,295.604,-0.935666
9.72167,295.62,-0.935739
9.72333,295.637,-0.93581
9.725,295.654,-0.935879
9.72667,295.67,-0.93594
9.72833,295.687,-0.936
9.73,295.704,-0.936052
9.73167,295.721,-0.936097
9.73333,295.737,-0.936134
9.735,295.754,-0.936172
9.73667,295.77,-0.936209
9.73833,295.787,-0.93624
9.74,295.804,-0.936276
9.74167,295.82,-0.9363
9.74333,295.837,-0.936338
9.745,295.854,-0.936376
9.74667,295.87,-0.936414
9.74833,295.887,-0.93645
9.75,295.903,-0.936468
9.75167,295.92,-0.936493
9.75333,295.937,-0.936529
9.755,295.954,-0.93657
9.75667,295.971,-0.936623
9.75833,295.987,-0.93668
9.76,296.004,-0.936736
9.76167,296.02,-0.936786
9.76333,296.037,-0.936839
9.765,296.054,-0.936899
9.76667,296.07,-0.936959
9.76833,296.087,-0.937006
9.77,296.104,-0.937044
9.77167,296.12,-0.937082
9.77333,296.137,-0.937137
9.775,296.153,-0.937194
9.77667,296.17,-0.937243
9.77833,296.187,-0.93728
9.78,296.203,-0.937321
9.78167,296.22,-0.937365
9.78333,296.237,-0.937413
9.785,296.253,-0.937467
9.78667,296.27,-0.937515
9.78833,296.287,-0.937566
9.79,296.303,-0.937613
9.79167,296.32,-0.937662
9.79333,296.337,-0.937714
9.795,296.353,-0.937769
9.79667,296.37,-0.937826
9.79833,296.386,-0.937884
9.8,296.403,-0.93794
9.80167,296.42,-0.937994
9.80333,296.436,-0.938053
9.805,296.453,-0.938114
9.80667,296.47,-0.938177
9.80833,296.487,-0.938239
9.81,296.503,-0.938299
9.81167,296.52,-0.938356
9.81333,296.537,-0.938404
9.815,296.553,-0.938447
9.81667,296.57,-0.938483
9.81833,296.587,-0.938521
9.82,296.603,-0.938564
9.82167,296.62,-0.938597
9.82333,296.636,-0.938625
9.825,296.653,-0.938661
9.82667,296.669,-0.938701
9.82833,296.686,-0.938742
9.83,296.703,-0.938779
9.83167,296.719,-0.938814
9.83333,296.736,-0.938848
9.835,296.753,-0.938877
9.83667,296.77,-0.938906
9.83833,296.786,-0.938941
9.84,296.803,-0.938983
9.84167,296.82,-0.939029
9.84333,296.836,-0.93908
9.845,296.853,-0.939136
9.84667,296.87,-0.939188
9.84833,296.886,-0.939233
9.85,296.903,-0.939281
9.85167,296.919,-0.939324
9.85333,296.936,-0.939355
9.855,296.953,-0.939382
9.85667,296.969,-0.939407
9.85833,296.986,-0.939428
9.86,297.003,-0.939454
9.86167,297.02,-0.939489
9.86333,297.036,-0.93953
9.865,297.053,-0.939575
9.86667,297.07,-0.939629
9.86833,297.086,-0.939692
9.87,297.102,-0.939759
9.87167,297.119,-0.939847
9.87333,297.136,-0.939926
9.875,297.153,-0.940071
9.87667,297.169,-0.940212
9.87833,297.186,-0.940283
9.88,297.202,-0.940341
9.88167,297.219,-0.940391
9.88333,297.236,-0.940436
9.885,297.252,-0.940483
9.88667,297.269,-0.940526
9.88833,297.286,-0.940569
9.89,297.302,-0.94061
9.89167,297.319,-0.940648
9.89333,297.336,-0.94068
9.895,297.352,-0.940717
9.89667,297.369,-0.940751
9.89833,297.385,-0.940794
9.9,297.402,-0.940834
9.90167,297.419,-0.940884
9.90333,297.435,-0.940929
9.905,297.452,-0.940975
9.90667,297.469,-0.941022
9.90833,297.485,-0.941076
9.91,297.502,-0.941129
9.91167,297.519,-0.941171
9.91333,297.536,-0.941214
9.915,297.552,-0.941256
9.91667,297.569,-0.941299
9.91833,297.585,-0.941341
9.92,297.602,-0.941392
9.92167,297.619,-0.941436
9.92333,297.635,-0.941476
9.925,297.652,-0.941526
9.92667,297.668,-0.941581
9.92833,297.685,-0.941642
9.93,297.702,-0.941702
9.93167,297.718,-0.941763
9.93333,297.735,-0.941822
9.935,297.752,-0.941878
9.93667,297.768,-0.941925
9.93833,297.785,-0.941964
9.94,297.802,-0.94199
9.94167,297.818,-0.942004
9.94333,297.835,-0.942016
9.945,297.851,-0.942024
9.94667,297.868,-0.942042
9.94833,297.884,-0.942073
9.95,297.901,-0.942112
9.95167,297.918,-0.942166
9.95333,297.935,-0.942227
9.955,297.951,-0.942293
9.95667,297.968,-0.942442
9.95833,297.985,-0.942569
9.96,298.001,-0.942688
9.96167,298.018,-0.942758
9.96333,298.035,-0.942828
9.965,298.052,-0.942885
9.96667,298.068,-0.942929
9.96833,298.085,-0.942962
9.97,298.101,-0.942991
9.97167,298.118,-0.94301
9.97333,298.135,-0.943019
9.975,298.152,-0.943032
9.97667,298.168,-0.943055
9.97833,298.185,-0.943085
9.98,298.202,-0.943115
9.98167,298.218,-0.943157
9.98333,298.235,-0.943206
9.985,298.251,-0.943263
9.98667,298.268,-0.943333
9.98833,298.284,-0.943405
9.99,298.301,-0.943475
9.99167,298.318,-0.943541
9.99333,298.334,-0.943603
9.995,298.351,-0.943664
9.99667,298.368,-0.943716
9.99833,298.385,-0.943759
10,298.401,-0.943798
10.0017,298.418,-0.943841
10.0033,298.435,-0.94388
10.005,298.451,-0.943916
10.0067,298.468,-0.943957
10.0083,298.484,-0.943996
10.01,298.501,-0.944048
10.0117,298.518,-0.944101
10.0133,298.534,-0.944147
10.015,298.551,-0.944191
10.0167,298.568,-0.944228
10.0183,298.585,-0.944266
10.02,298.601,-0.944304
10.0217,298.617,-0.944347
10.0233,298.634,-0.94439
10.025,298.651,-0.944432
10.0267,298.668,-0.944469
10.0283,298.684,-0.944509
10.03,298.7,-0.944552
10.0317,298.717,-0.944591
10.0333,298.734,-0.944634
10.035,298.75,-0.944682
10.0367,298.767,-0.944724
10.0383,298.784,-0.944758
10.04,298.801,-0.944782
10.0417,298.817,-0.944793
10.0433,298.834,-0.944803
10.045,298.851,-0.944812
10.0467,298.867,-0.944825
10.0483,298.884,-0.944848
10.05,298.9,-0.944874
10.0517,298.917,-0.944913
10.0533,298.934,-0.944966
10.055,298.95,-0.945024
10.0567,298.967,-0.945087
10.0583,298.984,-0.945159
10.06,299,-0.945229
10.0617,299.017,-0.945296
10.0633,299.033,-0.945349
10.065,299.05,-0.945402
10.0667,299.067,-0.945451
10.0683,299.083,-0.945497
10.07,299.1,-0.945536
10.0717,299.116,-0.945569
10.0733,299.133,-0.945602
10.075,299.15,-0.945639
10.0767,299.167,-0.945683
10.0783,299.184,-0.945734
10.08,299.2,-0.945788
10.0817,299.217,-0.945838
10.0833,299.233,-0.945881
10.085,299.25,-0.945919
10.0867,299.266,-0.945954
10.0883,299.283,-0.945985
10.09,299.3,-0.946019
10.0917,299.317,-0.946042
10.0933,299.334,-0.946064
10.095,299.35,-0.946096
10.0967,299.367,-0.946131
10.0983,299.383,-0.946172
10.1,299.4,-0.946217
10.1017,299.416,-0.946259
10.1033,299.433,-0.946308
10.105,299.449,-0.946368
10.1067,299.466,-0.946433
10.1083,299.483,-0.946504
10.11,299.5,-0.94657
10.1117,299.516,-0.946635
10.1133,299.533,-0.9467
10.115,299.55,-0.946756
10.1167,299.566,-0.94681
10.1183,299.583,-0.946859
10.12,299.599,-0.946899
10.1217,299.616,-0.946945
10.1233,299.633,-0.946994
10.125,299.649,-0.947037
10.1267,299.666,-0.947085
10.1283,299.683,-0.947134
10.13,299.7,-0.947185
10.1317,299.716,-0.947231
10.1333,299.733,-0.947276
10.135,299.749,-0.947319
10.1367,299.766,-0.947363
10.1383,299.783,-0.947408
10.14,299.799,-0.947458
10.1417,299.816,-0.947508
10.1433,299.833,-0.947559
10.145,299.849,-0.947614
10.1467,299.866,-0.94767
10.1483,299.883,-0.947721
10.15,299.899,-0.94777
10.1517,299.916,-0.94782
10.1533,299.932,-0.947869
10.155,299.949,-0.947917
10.1567,299.966,-0.947968
10.1583,299.982,-0.948019
10.16,299.999,-0.948066
10.1617,300.015,-0.948118
10.1633,300.033,-0.94817
10.165,300.049,-0.948221
10.1667,300.066,-0.948265
10.1683,300.082,-0.94831
10.17,300.099,-0.948359
10.1717,300.116,-0.948411
10.1733,300.132,-0.948455
10.175,300.149,-0.948497
10.1767,300.166,-0.948537
10.1783,300.183,-0.948568
10.18,300.199,-0.948594
10.1817,300.216,-0.948629
10.1833,300.233,-0.948668
10.185,300.25,-0.948712
10.1867,300.266,-0.948761
10.1883,300.283,-0.948808
10.19,300.299,-0.948859
10.1917,300.315,-0.948907
10.1933,300.332,-0.948959
10.195,300.349,-0.949002
10.1967,300.365,-0.949038
10.1983,300.382,-0.949064
10.2,300.399,-0.949087
10.2017,300.415,-0.949111
10.2033,300.432,-0.94913
10.205,300.449,-0.949161
10.2067,300.466,-0.949191
10.2083,300.482,-0.949228
10.21,300.498,-0.949272
10.2117,300.515,-0.949326
10.2133,300.532,-0.949377
10.215,300.549,-0.949438
10.2167,300.565,-0.949501
10.2183,300.582,-0.94957
10.22,300.598,-0.949636
10.2217,300.615,-0.949701
10.2233,300.631,-0.949762
10.225,300.648,-0.94982
10.2267,300.665,-0.949875
10.2283,300.681,-0.949925
10.23,300.698,-0.949976
10.2317,300.715,-0.950021
10.2333,300.731,-0.950056
10.235,300.748,-0.950087
10.2367,300.764,-0.950126
10.2383,300.781,-0.950163
10.24,300.797,-0.950205
10.2417,300.814,-0.950242
10.2433,300.831,-0.950281
10.245,300.848,-0.950322
10.2467,300.864,-0.950367
10.2483,300.881,-0.950417
10.25,300.898,-0.950462
10.2517,300.914,-0.950499
10.2533,300.931,-0.950529
10.255,300.947,-0.950566
10.2567,300.964,-0.950608
10.2583,300.98,-0.950649
10.26,300.997,-0.950684
10.2617,301.014,-0.950719
10.2633,301.03,-0.950754
10.265,301.047,-0.950792
10.2667,301.064,-0.95083
10.2683,301.08,-0.950873
10.27,301.097,-0.950911
10.2717,301.114,-0.950951
10.2733,301.13,-0.950999
10.275,301.147,-0.951045
10.2767,301.163,-0.951093
10.2783,301.18,-0.951141
10.28,301.197,-0.951186
10.2817,301.213,-0.951232
10.2833,301.23,-0.951279
10.285,301.247,-0.951328
10.2867,301.263,-0.951362
10.2883,301.28,-0.951392
10.29,301.297,-0.951423
10.2917,301.313,-0.951458
10.2933,301.33,-0.951497
10.295,301.346,-0.951537
10.2967,301.363,-0.951576
10.2983,301.38,-0.951623
10.3,301.396,-0.951667
10.3017,301.413,-0.95172
10.3033,301.43,-0.951772
10.305,301.446,-0.951822
10.3067,301.463,-0.951875
10.3083,301.479,-0.951932
10.31,301.496,-0.951994
10.3117,301.512,-0.952059
10.3133,301.529,-0.952118
10.315,301.546,-0.952177
10.3167,301.563,-0.952229
10.3183,301.579,-0.952279
10.32,301.596,-0.952324
10.3217,301.612,-0.952364
10.3233,301.629,-0.952404
10.325,301.646,-0.952442
10.3267,301.662,-0.952475
10.3283,301.679,-0.952507
10.33,301.696,-0.952543
10.3317,301.712,-0.952579
10.3333,301.729,-0.952606
10.335,301.746,-0.952635
10.3367,301.762,-0.95266
10.3383,301.779,-0.952688
10.34,301.795,-0.952709
10.3417,301.812,-0.952734
10.3433,301.828,-0.952761
10.345,301.845,-0.952796
10.3467,301.862,-0.952828
10.3483,301.879,-0.952867
10.35,301.895,-0.952917
10.3517,301.912,-0.952965
10.3533,301.929,-0.953008
10.355,301.945,-0.953043
10.3567,301.962,-0.953088
10.3583,301.978,-0.95313
10.36,301.995,-0.953174
10.3617,302.012,-0.953224
10.3633,302.028,-0.953273
10.365,302.045,-0.953325
10.3667,302.062,-0.953389
10.3683,302.078,-0.953459
10.37,302.095,-0.953533
10.3717,302.112,-0.953627
10.3733,302.128,-0.953701
10.375,302.145,-0.953773
10.3767,302.161,-0.953844
10.3783,302.178,-0.953907
10.38,302.195,-0.953962
10.3817,302.212,-0.954007
10.3833,302.228,-0.954055
10.385,302.245,-0.954105
10.3867,302.262,-0.954157
10.3883,302.278,-0.954215
10.39,302.295,-0.954268
10.3917,302.312,-0.954326
10.3933,302.328,-0.954379
10.395,302.345,-0.954429
10.3967,302.361,-0.95447
10.3983,302.378,-0.954503
10.4,302.395,-0.954534
10.4017,302.411,-0.954565
10.4033,302.428,-0.95461
10.405,302.445,-0.954657
10.4067,302.462,-0.954711
10.4083,302.478,-0.954774
10.41,302.495,-0.954837
10.4117,302.512,-0.9549
10.4133,302.528,-0.954964
10.415,302.545,-0.955026
10.4167,302.562,-0.955082
10.4183,302.579,-0.955136
10.42,302.595,-0.955185
10.4217,302.612,-0.955229
10.4233,302.628,-0.955261
10.425,302.645,-0.955291
10.4267,302.662,-0.955316
10.4283,302.678,-0.955339
10.43,302.695,-0.955361
10.4317,302.711,-0.955384
10.4333,302.728,-0.955412
10.435,302.745,-0.955445
10.4367,302.761,-0.955478
10.4383,302.778,-0.955513
10.44,302.795,-0.955547
10.4417,302.812,-0.955581
10.4433,302.828,-0.955623
10.445,302.844,-0.955667
10.4467,302.861,-0.955717
10.4483,302.878,-0.955775
10.45,302.895,-0.955838
10.4517,302.911,-0.955901
10.4533,302.928,-0.955956
10.455,302.944,-0.956011
10.4567,302.961,-0.956067
10.4583,302.978,-0.956131
10.46,302.994,-0.956188
10.4617,303.011,-0.95625
10.4633,303.028,-0.956316
10.465,303.045,-0.956391
10.4667,303.061,-0.956462
10.4683,303.078,-0.956527
10.47,303.095,-0.956586
10.4717,303.111,-0.956636
10.4733,303.128,-0.956672
10.475,303.145,-0.956706
10.4767,303.161,-0.95674
10.4783,303.178,-0.956776
10.48,303.195,-0.956818
10.4817,303.212,-0.956869
10.4833,303.228,-0.956923
10.485,303.245,-0.956983
10.4867,303.261,-0.957043
10.4883,303.278,-0.957096
10.49,303.295,-0.957153
10.4917,303.311,-0.957204
10.4933,303.328,-0.957251
10.495,303.344,-0.957292
10.4967,303.361,-0.957341
10.4983,303.378,-0.957404
10.5,303.394,-0.957466
10.5017,303.411,-0.957527
10.5033,303.428,-0.957594
10.505,303.444,-0.957662
10.5067,303.461,-0.957724
10.5083,303.478,-0.957778
10.51,303.494,-0.95783
10.5117,303.511,-0.957876
10.5133,303.528,-0.957912
10.515,303.544,-0.957947
10.5167,303.561,-0.957982
10.5183,303.578,-0.958022
10.52,303.595,-0.958062
10.5217,303.612,-0.958105
10.5233,303.628,-0.958159
10.525,303.645,-0.958218
10.5267,303.661,-0.958267
10.5283,303.678,-0.958317
10.53,303.695,-0.958369
10.5317,303.711,-0.958422
10.5333,303.728,-0.958478
10.535,303.745,-0.958532
10.5367,303.761,-0.958585
10.5383,303.778,-0.958639
10.54,303.795,-0.95869
10.5417,303.811,-0.958745
10.5433,303.828,-0.958795
10.545,303.845,-0.958837
10.5467,303.861,-0.958877
10.5483,303.878,-0.958916
10.55,303.894,-0.958957
10.5517,303.911,-0.959
10.5533,303.927,-0.959038
10.555,303.944,-0.959072
10.5567,303.961,-0.959111
10.5583,303.977,-0.959149
10.56,303.994,-0.959189
10.5617,304.011,-0.959232
10.5633,304.027,-0.959276
10.565,304.044,-0.959321
10.5667,304.061,-0.959365
10.5683,304.078,-0.959414
10.57,304.094,-0.959467
10.5717,304.111,-0.959524
10.5733,304.128,-0.95959
10.575,304.144,-0.959661
10.5767,304.161,-0.959736
10.5783,304.177,-0.959803
10.58,304.194,-0.959869
10.5817,304.211,-0.959921
10.5833,304.227,-0.959959
10.585,304.244,-0.959986
10.5867,304.261,-0.960012
10.5883,304.277,-0.960035
10.59,304.294,-0.960059
10.5917,304.31,-0.960089
10.5933,304.327,-0.960126
10.595,304.344,-0.960171
10.5967,304.361,-0.960224
10.5983,304.378,-0.960284
10.6,304.394,-0.960347
10.6017,304.411,-0.960408
10.6033,304.428,-0.960464
10.605,304.445,-0.960525
10.6067,304.461,-0.96059
10.6083,304.478,-0.960652
10.61,304.494,-0.960708
10.6117,304.511,-0.960766
10.6133,304.527,-0.960815
10.615,304.544,-0.960861
10.6167,304.56,-0.960899
10.6183,304.577,-0.960936
10.62,304.594,-0.960972
10.6217,304.611,-0.961011
10.6233,304.627,-0.961051
10.625,304.644,-0.961093
10.6267,304.661,-0.961142
10.6283,304.677,-0.961191
10.63,304.694,-0.961245
10.6317,304.711,-0.961296
10.6333,304.727,-0.961344
10.635,304.744,-0.961389
10.6367,304.761,-0.961441
10.6383,304.777,-0.961484
10.64,304.794,-0.961528
10.6417,304.81,-0.961567
10.6433,304.827,-0.961601
10.645,304.844,-0.961634
10.6467,304.86,-0.961662
10.6483,304.877,-0.961696
10.65,304.894,-0.961729
10.6517,304.91,-0.96176
10.6533,304.927,-0.961796
10.655,304.944,-0.961837
10.6567,304.96,-0.961884
10.6583,304.977,-0.961941
10.66,304.993,-0.962004
10.6617,305.01,-0.962071
10.6633,305.027,-0.962128
10.665,305.043,-0.962184
10.6667,305.06,-0.962236
10.6683,305.077,-0.962298
10.67,305.093,-0.962354
10.6717,305.11,-0.962413
10.6733,305.126,-0.962475
10.675,305.143,-0.962531
10.6767,305.16,-0.962587
10.6783,305.177,-0.962649
10.68,305.193,-0.962704
10.6817,305.21,-0.962756
10.6833,305.227,-0.962807
10.685,305.243,-0.962852
10.6867,305.259,-0.962893
10.6883,305.277,-0.962934
10.69,305.293,-0.962978
10.6917,305.309,-0.963017
10.6933,305.326,-0.96305
10.695,305.343,-0.963082
10.6967,305.36,-0.963118
10.6983,305.376,-0.963162
10.7,305.394,-0.963216
10.7017,305.41,-0.96328
10.7033,305.427,-0.963338
10.705,305.443,-0.963393
10.7067,305.46,-0.963447
10.7083,305.476,-0.963505
10.71,305.493,-0.963549
10.7117,305.51,-0.963578
10.7133,305.527,-0.963601
10.715,305.544,-0.963628
10.7167,305.56,-0.963659
10.7183,305.576,-0.963701
10.72,305.593,-0.963748
10.7217,305.61,-0.963794
10.7233,305.626,-0.963847
10.725,305.643,-0.963905
10.7267,305.659,-0.96397
10.7283,305.676,-0.964031
10.73,305.693,-0.964086
10.7317,305.709,-0.964141
10.7333,305.726,-0.964191
10.735,305.743,-0.964239
10.7367,305.76,-0.964289
10.7383,305.777,-0.964338
10.74,305.793,-0.964385
10.7417,305.81,-0.964432
10.7433,305.826,-0.964488
10.745,305.843,-0.964541
10.7467,305.859,-0.964602
10.7483,305.876,-0.96466
10.75,305.893,-0.964713
10.7517,305.909,-0.964767
10.7533,305.926,-0.964817
10.755,305.943,-0.964874
10.7567,305.959,-0.964935
10.7583,305.976,-0.964996
10.76,305.993,-0.965056
10.7617,306.009,-0.965124
10.7633,306.026,-0.965192
10.765,306.043,-0.965257
10.7667,306.059,-0.965318
10.7683,306.076,-0.965374
10.77,306.093,-0.965433
10.7717,306.11,-0.965487
10.7733,306.126,-0.965538
10.775,306.142,-0.965592
10.7767,306.159,-0.965638
10.7783,306.176,-0.965681
10.78,306.193,-0.965717
10.7817,306.209,-0.965753
10.7833,306.226,-0.965786
10.785,306.242,-0.965814
10.7867,306.259,-0.96584
10.7883,306.276,-0.965862
10.79,306.292,-0.965899
10.7917,306.309,-0.965941
10.7933,306.326,-0.966002
10.795,306.343,-0.966063
10.7967,306.359,-0.96613
10.7983,306.376,-0.966196
10.8,306.392,-0.966263
10.8017,306.409,-0.966328
10.8033,306.426,-0.966394
10.805,306.442,-0.966455
10.8067,306.459,-0.966511
10.8083,306.475,-0.966559
10.81,306.492,-0.966594
10.8117,306.509,-0.966622
10.8133,306.526,-0.966649
10.815,306.542,-0.966676
10.8167,306.559,-0.966699
10.8183,306.576,-0.966734
10.82,306.593,-0.966772
10.8217,306.609,-0.966814
10.8233,306.626,-0.966852
10.825,306.642,-0.966891
10.8267,306.659,-0.966931
10.8283,306.675,-0.966982
10.83,306.692,-0.967043
10.8317,306.709,-0.967106
10.8333,306.725,-0.967186
10.835,306.742,-0.967255
10.8367,306.759,-0.967329
10.8383,306.775,-0.967399
10.84,306.792,-0.967464
10.8417,306.809,-0.967526
10.8433,306.825,-0.967576
10.845,306.842,-0.967615
10.8467,306.859,-0.967659
10.8483,306.875,-0.967706
10.85,306.892,-0.967745
10.8517,306.908,-0.967777
10.8533,306.925,-0.96781
10.855,306.942,-0.967846
10.8567,306.959,-0.967886
10.8583,306.975,-0.967926
10.86,306.992,-0.967978
10.8617,307.009,-0.968034
10.8633,307.025,-0.968098
10.865,307.042,-0.968161
10.8667,307.059,-0.968217
10.8683,307.075,-0.968273
10.87,307.092,-0.968333
10.8717,307.109,-0.96839
10.8733,307.125,-0.968446
10.875,307.142,-0.968498
10.8767,307.158,-0.968541
10.8783,307.175,-0.968588
10.88,307.192,-0.968636
10.8817,307.208,-0.968692
10.8833,307.225,-0.968749
10.885,307.241,-0.968809
10.8867,307.258,-0.968869
10.8883,307.275,-0.968929
10.89,307.291,-0.968994
10.8917,307.308,-0.969059
10.8933,307.325,-0.969122
10.895,307.341,-0.969182
10.8967,307.358,-0.969244
10.8983,307.375,-0.969306
10.9,307.391,-0.969364
10.9017,307.408,-0.969415
10.9033,307.425,-0.969469
10.905,307.442,-0.969525
10.9067,307.458,-0.969573
10.9083,307.475,-0.969616
10.91,307.491,-0.969664
10.9117,307.508,-0.969705
10.9133,307.525,-0.969749
10.915,307.541,-0.96979
10.9167,307.558,-0.969829
10.9183,307.574,-0.96987
10.92,307.591,-0.969909
10.9217,307.608,-0.969947
10.9233,307.624,-0.969983
10.925,307.641,-0.970029
10.9267,307.658,-0.970083
10.9283,307.674,-0.970139
10.93,307.691,-0.970191
10.9317,307.708,-0.970246
10.9333,307.724,-0.970301
10.935,307.741,-0.970357
10.9367,307.758,-0.970415
10.9383,307.774,-0.97047
10.94,307.791,-0.970527
10.9417,307.808,-0.970575
10.9433,307.824,-0.970614
10.945,307.841,-0.970653
10.9467,307.857,-0.970697
10.9483,307.874,-0.970737
10.95,307.891,-0.970776
10.9517,307.907,-0.970818
10.9533,307.924,-0.970867
10.955,307.941,-0.970918
10.9567,307.958,-0.970979
10.9583,307.974,-0.971044
10.96,307.991,-0.97111
10.9617,308.008,-0.971179
10.9633,308.024,-0.971253
10.965,308.041,-0.971324
10.9667,308.058,-0.971396
10.9683,308.074,-0.971455
10.97,308.091,-0.971511
10.9717,308.107,-0.971557
10.9733,308.124,-0.971595
10.975,308.141,-0.971625
10.9767,308.157,-0.971654
10.9783,308.174,-0.971681
10.98,308.191,-0.971712
10.9817,308.207,-0.971741
10.9833,308.224,-0.971786
10.985,308.241,-0.971835
10.9867,308.257,-0.971881
10.9883,308.274,-0.971929
10.99,308.29,-0.971981
10.9917,308.307,-0.972044
10.9933,308.324,-0.972112
10.995,308.34,-0.972179
10.9967,308.357,-0.972247
10.9983,308.373,-0.97232
11,308.391,-0.972418
11.0017,308.407,-0.972512
11.0033,308.424,-0.972599
11.005,308.44,-0.972674
11.0067,308.457,-0.972746
11.0083,308.473,-0.972819
11.01,308.49,-0.972886
11.0117,308.507,-0.972947
11.0133,308.523,-0.973004
11.015,308.54,-0.973064
11.0167,308.557,-0.973124
11.0183,308.573,-0.973184
11.02,308.59,-0.973244
11.0217,308.607,-0.973294
11.0233,308.623,-0.973344
11.025,308.64,-0.973393
11.0267,308.657,-0.973441
11.0283,308.673,-0.973489
11.03,308.69,-0.973535
11.0317,308.706,-0.973574
11.0333,308.723,-0.973611
11.035,308.74,-0.973652
11.0367,308.756,-0.973687
11.0383,308.773,-0.973721
11.04,308.79,-0.973754
11.0417,308.806,-0.9738
11.0433,308.823,-0.973847
11.045,308.84,-0.973901
11.0467,308.857,-0.973962
11.0483,308.873,-0.974029
11.05,308.89,-0.974114
11.0517,308.907,-0.974216
11.0533,308.923,-0.97429
11.055,308.94,-0.974355
11.0567,308.957,-0.974414
11.0583,308.973,-0.974462
11.06,308.99,-0.974509
11.0617,309.006,-0.974565
11.0633,309.023,-0.974618
11.065,309.039,-0.97467
11.0667,309.056,-0.974731
11.0683,309.073,-0.974798
11.07,309.089,-0.974875
11.0717,309.106,-0.974946
11.0733,309.123,-0.975013
11.075,309.14,-0.975086
11.0767,309.156,-0.97516
11.0783,309.173,-0.975233
11.08,309.189,-0.975308
11.0817,309.206,-0.975381
11.0833,309.223,-0.975451
11.085,309.239,-0.975516
11.0867,309.256,-0.975574
11.0883,309.273,-0.975633
11.09,309.289,-0.975692
11.0917,309.306,-0.97574
11.0933,309.323,-0.975785
11.095,309.34,-0.975822
11.0967,309.356,-0.975856
11.0983,309.373,-0.975898
11.1,309.39,-0.975947
11.1017,309.406,-0.975998
11.1033,309.423,-0.976059
11.105,309.439,-0.976117
11.1067,309.456,-0.976178
11.1083,309.473,-0.976241
11.11,309.49,-0.976295
11.1117,309.506,-0.976352
11.1133,309.523,-0.976405
11.115,309.54,-0.976466
11.1167,309.556,-0.976527
11.1183,309.573,-0.976586
11.12,309.589,-0.976641
11.1217,309.606,-0.976703
11.1233,309.623,-0.976766
11.125,309.64,-0.976821
11.1267,309.656,-0.976872
11.1283,309.672,-0.976923
11.13,309.689,-0.976973
11.1317,309.706,-0.977021
11.1333,309.723,-0.97707
11.135,309.739,-0.977125
11.1367,309.756,-0.977182
11.1383,309.772,-0.977247
11.14,309.789,-0.977321
11.1417,309.805,-0.9774
11.1433,309.823,-0.977478
11.145,309.839,-0.97756
11.1467,309.856,-0.977636
11.1483,309.872,-0.9777
11.15,309.889,-0.977757
11.1517,309.906,-0.977814
11.1533,309.923,-0.977866
11.155,309.939,-0.977915
11.1567,309.955,-0.977964
11.1583,309.972,-0.978008
11.16,309.989,-0.978033
11.1617,310.006,-0.978055
11.1633,310.022,-0.978072
11.165,310.039,-0.978099
11.1667,310.056,-0.978109
11.1683,310.072,-0.978099
11.17,310.089,-0.978036
11.1717,310.105,-0.977894
11.1733,310.122,-0.977521
11.175,310.139,-0.976562
11.1767,310.155,-0.974759
11.1783,310.172,-0.971542
11.18,310.189,-0.966789
11.1817,310.206,-0.960215
11.1833,310.223,-0.954423
11.185,310.239,-0.951109
11.1867,310.255,-0.950109
11.1883,310.272,-0.950137
11.19,310.289,-0.950576
11.1917,310.306,-0.951057
11.1933,310.322,-0.95121
11.195,310.338,-0.951687
11.1967,310.355,-0.952827
11.1983,310.372,-0.954628
11.2,310.388,-0.956625
11.2017,310.404,-0.958246
11.2033,310.421,-0.959755
11.205,310.438,-0.961262
11.2067,310.454,-0.962132
11.2083,310.471,-0.962787
11.21,310.488,-0.96349
11.2117,310.505,-0.964042
11.2133,310.522,-0.964576
11.215,310.538,-0.965127
11.2167,310.555,-0.965645
11.2183,310.571,-0.966226
11.22,310.588,-0.966816
11.2217,310.604,-0.967321
11.2233,310.621,-0.96763
11.225,310.638,-0.967835
11.2267,310.654,-0.967986
11.2283,310.671,-0.968114
11.23,310.688,-0.968232
11.2317,310.705,-0.968357
11.2333,310.721,-0.968535
11.235,310.738,-0.968687
11.2367,310.754,-0.96881
11.2383,310.771,-0.968932
11.24,310.788,-0.969138
11.2417,310.805,-0.969303
11.2433,310.821,-0.969515
11.245,310.838,-0.969733
11.2467,310.855,-0.969897
11.2483,310.871,-0.970036
11.25,310.888,-0.970212
11.2517,310.905,-0.970382
11.2533,310.921,-0.970639
11.255,310.938,-0.970927
11.2567,310.954,-0.971154
11.2583,310.971,-0.971383
11.26,310.988,-0.971556
11.2617,311.004,-0.971688
11.2633,311.021,-0.97183
11.265,311.038,-0.971957
11.2667,311.055,-0.972073
11.2683,311.071,-0.972186
11.27,311.088,-0.972289
11.2717,311.105,-0.972395
11.2733,311.121,-0.972499
11.275,311.138,-0.972602
11.2767,311.154,-0.972706
11.2783,311.171,-0.972819
11.28,311.188,-0.972937
11.2817,311.205,-0.973063
11.2833,311.221,-0.973191
11.285,311.238,-0.973315
11.2867,311.255,-0.973437
11.2883,311.272,-0.973554
11.29,311.288,-0.973668
11.2917,311.305,-0.973782
11.2933,311.322,-0.973894
11.295,311.338,-0.973995
11.2967,311.355,-0.974089
11.2983,311.372,-0.974183
11.3,311.388,-0.974277
11.3017,311.405,-0.974372
11.3033,311.422,-0.974458
11.305,311.438,-0.974548
11.3067,311.455,-0.974646
11.3083,311.472,-0.974748
11.31,311.488,-0.974857
11.3117,311.505,-0.974975
11.3133,311.521,-0.975097
11.315,311.538,-0.97527
11.3167,311.555,-0.975449
11.3183,311.571,-0.975761
11.32,311.588,-0.976086
11.3217,311.605,-0.976309
11.3233,311.622,-0.976485
11.325,311.638,-0.976616
11.3267,311.655,-0.976738
11.3283,311.671,-0.976848
11.33,311.688,-0.976953
11.3317,311.705,-0.97705
11.3333,311.721,-0.977149
11.335,311.738,-0.977247
11.3367,311.755,-0.977352
11.3383,311.771,-0.977457
11.34,311.788,-0.977566
11.3417,311.805,-0.97767
11.3433,311.822,-0.977774
11.345,311.838,-0.977875
11.3467,311.855,-0.977966
11.3483,311.872,-0.978049
11.35,311.888,-0.978127
11.3517,311.905,-0.97821
11.3533,311.922,-0.978301
11.355,311.938,-0.978389
11.3567,311.955,-0.978476
11.3583,311.972,-0.978569
11.36,311.988,-0.978668
11.3617,312.006,-0.978774
11.3633,312.022,-0.978876
11.365,312.039,-0.978983
11.3667,312.055,-0.97909
11.3683,312.072,-0.979191
11.37,312.089,-0.979283
11.3717,312.105,-0.979376
11.3733,312.122,-0.979466
11.375,312.138,-0.979551
11.3767,312.155,-0.979631
11.3783,312.172,-0.979714
11.38,312.189,-0.979797
11.3817,312.206,-0.979889
11.3833,312.222,-0.979998
11.385,312.239,-0.98011
11.3867,312.255,-0.980228
11.3883,312.272,-0.980345
11.39,312.288,-0.980453
11.3917,312.305,-0.980559
11.3933,312.322,-0.980661
11.395,312.338,-0.980759
11.3967,312.355,-0.980852
11.3983,312.372,-0.980951
11.4,312.388,-0.981054
11.4017,312.405,-0.981156
11.4033,312.422,-0.981261
11.405,312.438,-0.981373
11.4067,312.455,-0.981483
11.4083,312.472,-0.981589
11.41,312.488,-0.981693
11.4117,312.505,-0.981792
11.4133,312.522,-0.981883
11.415,312.538,-0.981969
11.4167,312.555,-0.982044
11.4183,312.572,-0.982118
11.42,312.588,-0.9822
11.4217,312.605,-0.982276
11.4233,312.622,-0.982352
11.425,312.638,-0.982429
11.4267,312.655,-0.982518
11.4283,312.672,-0.982606
11.43,312.688,-0.982696
11.4317,312.705,-0.982786
11.4333,312.722,-0.982876
11.435,312.739,-0.982956
11.4367,312.755,-0.98303
11.4383,312.772,-0.983098
11.44,312.788,-0.983165
11.4417,312.805,-0.983241
11.4433,312.822,-0.983324
11.445,312.838,-0.983411
11.4467,312.855,-0.983501
11.4483,312.872,-0.983596
11.45,312.889,-0.983694
11.4517,312.905,-0.983799
11.4533,312.922,-0.983909
11.455,312.939,-0.984016
11.4567,312.955,-0.984119
11.4583,312.972,-0.984215
11.46,312.988,-0.984309
11.4617,313.005,-0.984401
11.4633,313.021,-0.984481
11.465,313.038,-0.984563
11.4667,313.055,-0.984638
11.4683,313.072,-0.984715
11.47,313.088,-0.984796
11.4717,313.105,-0.984883
11.4733,313.122,-0.984956
11.475,313.138,-0.985026
11.4767,313.155,-0.985096
11.4783,313.171,-0.985166
11.48,313.188,-0.985243
11.4817,313.205,-0.985317
11.4833,313.221,-0.985394
11.485,313.238,-0.985474
11.4867,313.254,-0.985552
11.4883,313.271,-0.985627
11.49,313.288,-0.985702
11.4917,313.305,-0.985775
11.4933,313.321,-0.985844
11.495,313.338,-0.985907
11.4967,313.355,-0.985969
11.4983,313.371,-0.986038
11.5,313.388,-0.986111
11.5017,313.405,-0.986192
11.5033,313.422,-0.986283
11.505,313.438,-0.98638
11.5067,313.455,-0.986472
11.5083,313.471,-0.986562
11.51,313.488,-0.98665
11.5117,313.505,-0.986739
11.5133,313.521,-0.986822
11.515,313.538,-0.98691
11.5167,313.554,-0.986998
11.5183,313.571,-0.987085
11.52,313.588,-0.987177
11.5217,313.605,-0.987266
11.5233,313.621,-0.987356
11.525,313.638,-0.98744
11.5267,313.655,-0.98752
11.5283,313.671,-0.987589
11.53,313.688,-0.987654
11.5317,313.704,-0.987723
11.5333,313.721,-0.987781
11.535,313.738,-0.987838
11.5367,313.754,-0.987899
11.5383,313.771,-0.987962
11.54,313.788,-0.988024
11.5417,313.804,-0.988092
11.5433,313.821,-0.988164
11.545,313.837,-0.988246
11.5467,313.854,-0.98833
11.5483,313.871,-0.988416
11.55,313.887,-0.988503
11.5517,313.904,-0.988592
11.5533,313.921,-0.988675
11.555,313.938,-0.98876
11.5567,313.954,-0.988843
11.5583,313.971,-0.988927
11.56,313.987,-0.989011
11.5617,314.004,-0.989103
11.5633,314.021,-0.989191
11.565,314.037,-0.989286
11.5667,314.054,-0.989383
11.5683,314.071,-0.989485
11.57,314.087,-0.989577
11.5717,314.104,-0.989674
11.5733,314.121,-0.989772
11.575,314.137,-0.989858
11.5767,314.154,-0.989936
11.5783,314.17,-0.99001
11.58,314.187,-0.99008
11.5817,314.204,-0.990148
11.5833,314.22,-0.990207
11.585,314.237,-0.990257
11.5867,314.254,-0.990306
11.5883,314.271,-0.990342
11.59,314.287,-0.990376
11.5917,314.304,-0.990419
11.5933,314.321,-0.990461
11.595,314.337,-0.990502
11.5967,314.354,-0.990544
11.5983,314.371,-0.99059
11.6,314.387,-0.990638
11.6017,314.404,-0.990696
11.6033,314.42,-0.99076
11.605,314.437,-0.990832
11.6067,314.454,-0.990909
11.6083,314.47,-0.990993
11.61,314.487,-0.991082
11.6117,314.504,-0.991165
11.6133,314.521,-0.991244
11.615,314.537,-0.991313
11.6167,314.554,-0.991377
11.6183,314.57,-0.991444
11.62,314.587,-0.991512
11.6217,314.603,-0.991591
11.6233,314.62,-0.991663
11.625,314.637,-0.991737
11.6267,314.654,-0.991819
11.6283,314.67,-0.991895
11.63,314.687,-0.991973
11.6317,314.703,-0.992046
11.6333,314.72,-0.992106
11.635,314.737,-0.992164
11.6367,314.753,-0.992222
11.6383,314.77,-0.992284
11.64,314.787,-0.992356
11.6417,314.803,-0.992428
11.6433,314.82,-0.992505
11.645,314.837,-0.992584
11.6467,314.853,-0.992661
11.6483,314.87,-0.992737
11.65,314.887,-0.992813
11.6517,314.903,-0.992889
11.6533,314.92,-0.99296
11.655,314.937,-0.993027
11.6567,314.953,-0.993101
11.6583,314.97,-0.993172
11.66,314.987,-0.993248
11.6617,315.003,-0.993321
11.6633,315.02,-0.993399
11.665,315.036,-0.993469
11.6667,315.053,-0.993533
11.6683,315.069,-0.993592
11.67,315.086,-0.993655
11.6717,315.103,-0.993708
11.6733,315.119,-0.993755
11.675,315.136,-0.993809
11.6767,315.153,-0.993873
11.6783,315.17,-0.993947
11.68,315.186,-0.994033
11.6817,315.203,-0.994125
11.6833,315.22,-0.994261
11.685,315.236,-0.994447
11.6867,315.253,-0.994537
11.6883,315.269,-0.99462
11.69,315.286,-0.994691
11.6917,315.303,-0.994747
11.6933,315.319,-0.994792
11.695,315.336,-0.994824
11.6967,315.352,-0.994849
11.6983,315.369,-0.994882
11.7,315.385,-0.994919
11.7017,315.402,-0.994965
11.7033,315.419,-0.995025
11.705,315.435,-0.995098
11.7067,315.452,-0.99518
11.7083,315.469,-0.995262
11.71,315.485,-0.995352
11.7117,315.502,-0.995442
11.7133,315.519,-0.995528
11.715,315.535,-0.995616
11.7167,315.552,-0.9957
11.7183,315.569,-0.995779
11.72,315.586,-0.995841
11.7217,315.602,-0.995903
11.7233,315.619,-0.995969
11.725,315.636,-0.996034
11.7267,315.652,-0.996103
11.7283,315.669,-0.99617
11.73,315.685,-0.996243
11.7317,315.702,-0.996313
11.7333,315.719,-0.996389
11.735,315.735,-0.996461
11.7367,315.752,-0.996533
11.7383,315.769,-0.996601
11.74,315.786,-0.996664
11.7417,315.802,-0.996714
11.7433,315.819,-0.996759
11.745,315.835,-0.996798
11.7467,315.852,-0.996835
11.7483,315.869,-0.996877
11.75,315.885,-0.99694
11.7517,315.902,-0.997002
11.7533,315.918,-0.997066
11.755,315.935,-0.997131
11.7567,315.951,-0.997201
11.7583,315.968,-0.997276
11.76,315.984,-0.997356
11.7617,316.001,-0.997438
11.7633,316.018,-0.997517
11.765,316.035,-0.997603
11.7667,316.051,-0.99769
11.7683,316.068,-0.99777
11.77,316.085,-0.997844
11.7717,316.102,-0.997908
11.7733,316.118,-0.997963
11.775,316.135,-0.998019
11.7767,316.152,-0.99808
11.7783,316.168,-0.998139
11.78,316.185,-0.998201
11.7817,316.201,-0.998269
11.7833,316.218,-0.998349
11.785,316.234,-0.998437
11.7867,316.251,-0.998526
11.7883,316.268,-0.998618
11.79,316.284,-0.998707
11.7917,316.301,-0.998794
11.7933,316.318,-0.998873
11.795,316.334,-0.998941
11.7967,316.351,-0.999014
11.7983,316.367,-0.999082
11.8,316.384,-0.999149
11.8017,316.401,-0.99922
11.8033,316.417,-0.99929
11.805,316.434,-0.999347
11.8067,316.451,-0.999397
11.8083,316.468,-0.999451
11.81,316.484,-0.999509
11.8117,316.501,-0.999575
11.8133,316.517,-0.999641
11.815,316.534,-0.999711
11.8167,316.551,-0.999788
11.8183,316.567,-0.999873
11.82,316.584,-0.999952
11.8217,316.601,-1.00004
11.8233,316.617,-1.00012
11.825,316.634,-1.00019
11.8267,316.651,-1.00026
11.8283,316.667,-1.00033
11.83,316.684,-1.0004
11.8317,316.701,-1.00046
11.8333,316.717,-1.00052
11.835,316.734,-1.00058
11.8367,316.751,-1.00063
11.8383,316.767,-1.0007
11.84,316.783,-1.00077
11.8417,316.8,-1.00085
11.8433,316.817,-1.00093
11.845,316.834,-1.001
11.8467,316.85,-1.00108
11.8483,316.867,-1.00115
11.85,316.884,-1.00122
11.8517,316.9,-1.00128
11.8533,316.916,-1.00135
11.855,316.933,-1.00141
11.8567,316.95,-1.00147
11.8583,316.967,-1.00154
11.86,316.983,-1.00161
11.8617,317,-1.00169
11.8633,317.017,-1.00177
11.865,317.034,-1.00185
11.8667,317.05,-1.00195
11.8683,317.067,-1.00204
11.87,317.083,-1.00213
11.8717,317.1,-1.00223
11.8733,317.116,-1.00232
11.875,317.133,-1.0024
11.8767,317.15,-1.0025
11.8783,317.166,-1.00258
11.88,317.183,-1.00266
11.8817,317.2,-1.00273
11.8833,317.216,-1.00279
11.885,317.233,-1.00286
11.8867,317.25,-1.00293
11.8883,317.267,-1.003
11.89,317.283,-1.00308
11.8917,317.3,-1.00315
11.8933,317.316,-1.00323
11.895,317.333,-1.00331
11.8967,317.349,-1.00341
11.8983,317.366,-1.00355
11.9,317.383,-1.00372
11.9017,317.4,-1.00396
11.9033,317.417,-1.0041
11.905,317.433,-1.00421
11.9067,317.45,-1.0043
11.9083,317.467,-1.00438
11.91,317.483,-1.00445
11.9117,317.5,-1.00452
11.9133,317.516,-1.00458
11.915,317.533,-1.00464
11.9167,317.55,-1.00471
11.9183,317.567,-1.00477
11.92,317.583,-1.00485
11.9217,317.6,-1.00494
11.9233,317.616,-1.00503
11.925,317.633,-1.00511
11.9267,317.649,-1.00521
11.9283,317.666,-1.0053
11.93,317.682,-1.00538
11.9317,317.699,-1.00545
11.9333,317.716,-1.00553
11.935,317.733,-1.00559
11.9367,317.749,-1.00566
11.9383,317.766,-1.00573
11.94,317.783,-1.0058
11.9417,317.799,-1.00588
11.9433,317.816,-1.00595
11.945,317.833,-1.00604
11.9467,317.85,-1.00613
11.9483,317.866,-1.00625
11.95,317.883,-1.00635
11.9517,317.899,-1.00646
11.9533,317.916,-1.00661
11.955,317.932,-1.00673
11.9567,317.949,-1.00683
11.9583,317.966,-1.00692
11.96,317.982,-1.007
11.9617,317.999,-1.00708
11.9633,318.015,-1.00714
11.965,318.032,-1.00721
11.9667,318.049,-1.00727
11.9683,318.066,-1.00733
11.97,318.082,-1.0074
11.9717,318.099,-1.00748
11.9733,318.115,-1.00756
11.975,318.132,-1.00764
11.9767,318.149,-1.00773
11.9783,318.165,-1.00781
11.98,318.182,-1.00789
11.9817,318.199,-1.00797
11.9833,318.215,-1.00805
11.985,318.232,-1.00813
11.9867,318.249,-1.00823
11.9883,318.266,-1.00833
11.99,318.282,-1.00842
11.9917,318.299,-1.00851
11.9933,318.315,-1.00859
11.995,318.332,-1.00868
11.9967,318.349,-1.00877
11.9983,318.366,-1.00886
12,318.382,-1.00895
12.0017,318.399,-1.00902
12.0033,318.416,-1.00909
12.005,318.432,-1.00917
12.0067,318.449,-1.00925
12.0083,318.465,-1.00932
12.01,318.482,-1.00939
12.0117,318.498,-1.00946
12.0133,318.515,-1.00954
12.015,318.532,-1.00963
12.0167,318.548,-1.00972
12.0183,318.565,-1.00981
12.02,318.582,-1.00989
12.0217,318.598,-1.00998
12.0233,318.615,-1.01007
12.025,318.632,-1.01015
12.0267,318.649,-1.01024
12.0283,318.665,-1.01032
12.03,318.682,-1.0104
12.0317,318.698,-1.01048
12.0333,318.714,-1.01057
12.035,318.731,-1.01065
12.0367,318.748,-1.01075
12.0383,318.764,-1.01085
12.04,318.781,-1.01095
12.0417,318.798,-1.01105
12.0433,318.814,-1.01115
12.045,318.831,-1.01125
12.0467,318.848,-1.01136
12.0483,318.865,-1.01146
12.05,318.881,-1.01156
12.0517,318.898,-1.01165
12.0533,318.914,-1.01173
12.055,318.931,-1.01181
12.0567,318.948,-1.0119
12.0583,318.965,-1.01198
12.06,318.981,-1.01207
12.0617,318.998,-1.01214
12.0633,319.014,-1.01223
12.065,319.031,-1.01233
12.0667,319.047,-1.01242
12.0683,319.064,-1.01252
12.07,319.081,-1.01262
12.0717,319.098,-1.01271
12.0733,319.114,-1.01281
12.075,319.131,-1.01291
12.0767,319.148,-1.01302
12.0783,319.164,-1.01312
12.08,319.181,-1.01321
12.0817,319.198,-1.0133
12.0833,319.214,-1.0134
12.085,319.231,-1.0135
12.0867,319.247,-1.01359
12.0883,319.264,-1.01369
12.09,319.281,-1.01378
12.0917,319.297,-1.01388
12.0933,319.314,-1.01397
12.095,319.33,-1.01407
12.0967,319.347,-1.01417
12.0983,319.364,-1.01427
12.1,319.38,-1.01437
12.1017,319.397,-1.01447
12.1033,319.414,-1.01457
12.105,319.431,-1.01467
12.1067,319.447,-1.01478
12.1083,319.464,-1.01491
12.11,319.48,-1.01502
12.1117,319.497,-1.01514
12.1133,319.513,-1.01525
12.115,319.53,-1.01534
12.1167,319.547,-1.01543
12.1183,319.563,-1.01552
12.12,319.58,-1.0156
12.1217,319.597,-1.01569
12.1233,319.613,-1.01578
12.125,319.63,-1.01586
12.1267,319.646,-1.01595
12.1283,319.663,-1.01605
12.13,319.68,-1.01616
12.1317,319.697,-1.01626
12.1333,319.713,-1.01638
12.135,319.729,-1.0165
12.1367,319.745,-1.01662
12.1383,319.763,-1.01673
12.14,319.78,-1.01685
12.1417,319.796,-1.01697
12.1433,319.813,-1.01708
12.145,319.829,-1.0172
12.1467,319.846,-1.01731
12.1483,319.863,-1.01741
12.15,319.879,-1.01751
12.1517,319.896,-1.01761
12.1533,319.912,-1.01771
12.155,319.929,-1.01781
12.1567,319.946,-1.0179
12.1583,319.963,-1.01799
12.16,319.979,-1.01806
12.1617,319.996,-1.01812
12.1633,320.013,-1.0182
12.165,320.03,-1.01828
12.1667,320.046,-1.01835
12.1683,320.063,-1.01844
12.17,320.079,-1.01853
12.1717,320.096,-1.01864
12.1733,320.113,-1.01874
12.175,320.129,-1.01885
12.1767,320.146,-1.01896
12.1783,320.162,-1.01908
12.18,320.179,-1.01922
12.1817,320.196,-1.01936
12.1833,320.212,-1.01952
12.185,320.229,-1.01969
12.1867,320.246,-1.01989
12.1883,320.262,-1.02017
12.19,320.279,-1.02043
12.1917,320.295,-1.02059
12.1933,320.312,-1.02071
12.195,320.329,-1.02083
12.1967,320.346,-1.02095
12.1983,320.362,-1.02106
12.2,320.379,-1.02116
12.2017,320.395,-1.02126
12.2033,320.412,-1.02135
12.205,320.429,-1.02145
12.2067,320.445,-1.02155
12.2083,320.462,-1.02165
12.21,320.478,-1.02176
12.2117,320.495,-1.02186
12.2133,320.512,-1.02197
12.215,320.529,-1.02208
12.2167,320.545,-1.02221
12.2183,320.562,-1.02233
12.22,320.579,-1.02249
12.2217,320.597,-1.02265
12.2233,320.613,-1.02278
12.225,320.629,-1.02289
12.2267,320.646,-1.023
12.2283,320.662,-1.02312
12.23,320.679,-1.02322
12.2317,320.696,-1.02332
12.2333,320.712,-1.02342
12.235,320.729,-1.02351
12.2367,320.746,-1.02361
12.2383,320.762,-1.02371
12.24,320.778,-1.0238
12.2417,320.795,-1.0239
12.2433,320.812,-1.024
12.245,320.828,-1.02411
12.2467,320.845,-1.02423
12.2483,320.861,-1.02434
12.25,320.878,-1.02445
12.2517,320.895,-1.02457
12.2533,320.911,-1.02475
12.255,320.928,-1.02489
12.2567,320.944,-1.02504
12.2583,320.961,-1.02517
12.26,320.978,-1.0253
12.2617,320.994,-1.02545
12.2633,321.011,-1.02559
12.265,321.028,-1.02573
12.2667,321.044,-1.02586
12.2683,321.061,-1.02599
12.27,321.078,-1.02611
12.2717,321.094,-1.02624
12.2733,321.111,-1.02636
12.275,321.128,-1.02649
12.2767,321.144,-1.02661
12.2783,321.161,-1.02674
12.28,321.178,-1.02687
12.2817,321.194,-1.027
12.2833,321.211,-1.02716
12.285,321.227,-1.0273
12.2867,321.244,-1.02744
12.2883,321.26,-1.02756
12.29,321.277,-1.02769
12.2917,321.293,-1.02782
12.2933,321.31,-1.02795
12.295,321.327,-1.02807
12.2967,321.343,-1.02819
12.2983,321.36,-1.0283
12.3,321.377,-1.02841
12.3017,321.393,-1.02852
12.3033,321.41,-1.02863
12.305,321.427,-1.02874
12.3067,321.443,-1.02885
12.3083,321.46,-1.02896
12.31,321.476,-1.02909
12.3117,321.493,-1.02921
12.3133,321.509,-1.02934
12.315,321.526,-1.02947
12.3167,321.542,-1.0296
12.3183,321.559,-1.02973
12.32,321.576,-1.02989
12.3217,321.593,-1.03004
12.3233,321.609,-1.03019
12.325,321.626,-1.03031
12.3267,321.643,-1.03044
12.3283,321.659,-1.03057
12.33,321.676,-1.03069
12.3317,321.693,-1.03082
12.3333,321.71,-1.03095
12.335,321.726,-1.03108
12.3367,321.743,-1.03121
12.3383,321.759,-1.03135
12.34,321.776,-1.03149
12.3417,321.792,-1.03168
12.3433,321.809,-1.03202
12.345,321.826,-1.03227
12.3467,321.842,-1.03241
12.3483,321.859,-1.03256
12.35,321.875,-1.0327
12.3517,321.892,-1.03288
12.3533,321.909,-1.0332
12.355,321.925,-1.0336
12.3567,321.942,-1.03399
12.3583,321.959,-1.03433
12.36,321.975,-1.03459
12.3617,321.992,-1.03488
12.3633,322.008,-1.03504
12.365,322.025,-1.03518
12.3667,322.042,-1.03531
12.3683,322.058,-1.03545
12.37,322.075,-1.03558
12.3717,322.091,-1.03573
12.3733,322.108,-1.03587
12.375,322.125,-1.03601
12.3767,322.142,-1.03614
12.3783,322.158,-1.03627
12.38,322.175,-1.03639
12.3817,322.192,-1.03651
12.3833,322.208,-1.03664
12.385,322.225,-1.03677
12.3867,322.241,-1.0369
12.3883,322.258,-1.03704
12.39,322.275,-1.03731
12.3917,322.291,-1.0377
12.3933,322.308,-1.03815
12.395,322.324,-1.03861
12.3967,322.341,-1.03888
12.3983,322.358,-1.0391
12.4,322.374,-1.03938
12.4017,322.391,-1.03963
12.4033,322.408,-1.03985
12.405,322.424,-1.04006
12.4067,322.441,-1.04029
12.4083,322.457,-1.04053
12.41,322.474,-1.04079
12.4117,322.49,-1.041
12.4133,322.507,-1.04123
12.415,322.524,-1.04137
12.4167,322.541,-1.04157
12.4183,322.557,-1.04175
12.42,322.574,-1.04189
12.4217,322.591,-1.04203
12.4233,322.607,-1.04217
12.425,322.624,-1.04239
12.4267,322.64,-1.043
12.4283,322.657,-1.0439
12.43,322.674,-1.04471
12.4317,322.69,-1.04544
12.4333,322.707,-1.04601
12.435,322.723,-1.04641
12.4367,322.74,-1.0466
12.4383,322.757,-1.04673
12.44,322.773,-1.04687
12.4417,322.79,-1.047
12.4433,322.806,-1.04713
12.445,322.824,-1.0474
12.4467,322.84,-1.04771
12.4483,322.857,-1.04802
12.45,322.873,-1.04846
12.4517,322.89,-1.04901
12.4533,322.907,-1.04947
12.455,322.923,-1.04975
12.4567,322.94,-1.04996
12.4583,322.956,-1.0502
12.46,322.973,-1.05033
12.4617,322.989,-1.05054
12.4633,323.006,-1.05077
12.465,323.023,-1.0509
12.4667,323.039,-1.05104
12.4683,323.056,-1.05118
12.47,323.073,-1.05135
12.4717,323.089,-1.05171
12.4733,323.106,-1.05221
12.475,323.123,-1.05285
12.4767,323.139,-1.05372
12.4783,323.156,-1.0545
12.48,323.172,-1.05542
12.4817,323.189,-1.05602
12.4833,323.206,-1.05676
12.485,323.223,-1.05727
12.4867,323.239,-1.05764
12.4883,323.255,-1.0581
12.49,323.272,-1.05863
12.4917,323.289,-1.05922
12.4933,323.305,-1.05964
12.495,323.322,-1.06002
12.4967,323.339,-1.06034
12.4983,323.355,-1.06053
12.5,323.372,-1.06071
12.5017,323.388,-1.06084
12.5033,323.405,-1.06099
12.505,323.422,-1.0612
12.5067,323.438,-1.06145
12.5083,323.455,-1.06173
12.51,323.472,-1.06194
12.5117,323.488,-1.06226
12.5133,323.505,-1.06263
12.515,323.521,-1.06301
12.5167,323.538,-1.06347
12.5183,323.554,-1.06397
12.52,323.571,-1.06439
12.5217,323.588,-1.06472
12.5233,323.604,-1.06501
12.525,323.621,-1.0652
12.5267,323.637,-1.06534
12.5283,323.654,-1.06547
12.53,323.671,-1.06564
12.5317,323.687,-1.06587
12.5333,323.704,-1.06617
12.535,323.721,-1.0665
12.5367,323.738,-1.06678
12.5383,323.754,-1.06713
12.54,323.771,-1.0675
12.5417,323.788,-1.068
12.5433,323.804,-1.0685
12.545,323.82,-1.06912
12.5467,323.837,-1.06978
12.5483,323.854,-1.07066
12.55,323.871,-1.07163
12.5517,323.888,-1.07278
12.5533,323.904,-1.07349
12.555,323.921,-1.07407
12.5567,323.937,-1.07459
12.5583,323.954,-1.07511
12.56,323.971,-1.07558
12.5617,323.988,-1.07589
12.5633,324.004,-1.07613
12.565,324.021,-1.0763
12.5667,324.037,-1.07665
12.5683,324.054,-1.0769
12.57,324.07,-1.0772
12.5717,324.087,-1.0776
12.5733,324.103,-1.0782
12.575,324.12,-1.07896
12.5767,324.137,-1.07965
12.5783,324.154,-1.08032
12.58,324.17,-1.08087
12.5817,324.187,-1.08146
12.5833,324.203,-1.08213
12.585,324.22,-1.0829
12.5867,324.237,-1.0836
12.5883,324.253,-1.0844
12.59,324.27,-1.08517
12.5917,324.286,-1.08609
12.5933,324.303,-1.08703
12.595,324.319,-1.08791
12.5967,324.336,-1.08871
12.5983,324.353,-1.08964
12.6,324.369,-1.09062
12.6017,324.386,-1.09133
12.6033,324.403,-1.09206
12.605,324.419,-1.09266
12.6067,324.436,-1.0935
12.6083,324.453,-1.09446
12.61,324.469,-1.09534
12.6117,324.486,-1.09594
12.6133,324.503,-1.0966
12.615,324.519,-1.09719
12.6167,324.536,-1.09774
12.6183,324.553,-1.09845
12.62,324.569,-1.09901
12.6217,324.586,-1.09957
12.6233,324.602,-1.09993
12.625,324.619,-1.10033
12.6267,324.636,-1.10089
12.6283,324.652,-1.10182
12.63,324.668,-1.10273
12.6317,324.685,-1.10391
12.6333,324.702,-1.1051
12.635,324.719,-1.10652
12.6367,324.735,-1.10786
12.6383,324.752,-1.10887
12.64,324.768,-1.10966
12.6417,324.785,-1.11041
12.6433,324.802,-1.11109
12.645,324.818,-1.11185
12.6467,324.835,-1.1127
12.6483,324.851,-1.11375
12.65,324.868,-1.11497
12.6517,324.884,-1.11592
12.6533,324.901,-1.11696
12.655,324.918,-1.1179
12.6567,324.934,-1.11878
12.6583,324.951,-1.1194
12.66,324.968,-1.12011
12.6617,324.984,-1.12079
12.6633,325.001,-1.12152
12.665,325.017,-1.12225
12.6667,325.034,-1.12314
12.6683,325.051,-1.12422
12.67,325.067,-1.12545
12.6717,325.084,-1.12679
12.6733,325.1,-1.12826
12.675,325.117,-1.12969
12.6767,325.133,-1.13099
12.6783,325.15,-1.13212
12.68,325.167,-1.13327
12.6817,325.183,-1.13428
12.6833,325.2,-1.13479
12.685,325.217,-1.13514
12.6867,325.234,-1.13546
12.6883,325.25,-1.13564
12.69,325.267,-1.13582
12.6917,325.283,-1.13609
12.6933,325.3,-1.13633
12.695,325.316,-1.1369
12.6967,325.333,-1.13781
12.6983,325.35,-1.13931
12.7,325.367,-1.14086
12.7017,325.383,-1.14252
12.7033,325.399,-1.14437
12.705,325.416,-1.14637
12.7067,325.433,-1.14808
12.7083,325.449,-1.14935
12.71,325.466,-1.15021
12.7117,325.482,-1.15089
12.7133,325.499,-1.15147
12.715,325.515,-1.15213
12.7167,325.532,-1.15275
12.7183,325.549,-1.15361
12.72,325.565,-1.15469
12.7217,325.582,-1.15611
12.7233,325.598,-1.15771
12.725,325.614,-1.15969
12.7267,325.631,-1.16167
12.7283,325.647,-1.16337
12.73,325.664,-1.16471
12.7317,325.68,-1.16592
12.7333,325.696,-1.16675
12.735,325.713,-1.16761
12.7367,325.73,-1.16859
12.7383,325.746,-1.16968
12.74,325.763,-1.17094
12.7417,325.78,-1.17229
12.7433,325.797,-1.17387
12.745,325.813,-1.17559
12.7467,325.83,-1.17754
12.7483,325.846,-1.17952
12.75,325.863,-1.18143
12.7517,325.879,-1.18295
12.7533,325.896,-1.18412
12.755,325.913,-1.18544
12.7567,325.929,-1.18693
12.7583,325.946,-1.18814
12.76,325.963,-1.18925
12.7617,325.979,-1.19042
12.7633,325.996,-1.19129
12.765,326.012,-1.19199
12.7667,326.029,-1.19254
12.7683,326.045,-1.19291
12.77,326.062,-1.19343
12.7717,326.078,-1.19397
12.7733,326.095,-1.19482
12.775,326.112,-1.19604
12.7767,326.128,-1.19717
12.7783,326.144,-1.19856
12.78,326.161,-1.20036
12.7817,326.178,-1.20216
12.7833,326.195,-1.20394
12.785,326.211,-1.20616
12.7867,326.228,-1.20819
12.7883,326.244,-1.21025
12.79,326.261,-1.21238
12.7917,326.278,-1.21471
12.7933,326.294,-1.21685
12.795,326.311,-1.21921
12.7967,326.327,-1.22107
12.7983,326.344,-1.22267
12.8,326.36,-1.22397
12.8017,326.377,-1.22503
12.8033,326.394,-1.22586
12.805,326.41,-1.22754
12.8067,326.427,-1.22917
12.8083,326.443,-1.2307
12.81,326.46,-1.23262
12.8117,326.476,-1.23505
12.8133,326.493,-1.23723
12.815,326.509,-1.23972
12.8167,326.526,-1.24251
12.8183,326.543,-1.24475
12.82,326.559,-1.24608
12.8217,326.576,-1.24761
12.8233,326.592,-1.24965
12.825,326.609,-1.2515
12.8267,326.625,-1.25341
12.8283,326.642,-1.25555
12.83,326.659,-1.25727
12.8317,326.675,-1.25863
12.8333,326.692,-1.26001
12.835,326.708,-1.26162
12.8367,326.725,-1.2624
12.8383,326.742,-1.26332
12.84,326.758,-1.26443
12.8417,326.774,-1.26617
12.8433,326.791,-1.26846
12.845,326.808,-1.27088
12.8467,326.824,-1.27445
12.8483,326.841,-1.2782
12.85,326.858,-1.28158
12.8517,326.874,-1.28476
12.8533,326.89,-1.28733
12.855,326.907,-1.29
12.8567,326.923,-1.29241
12.8583,326.94,-1.29356
12.86,326.956,-1.29434
12.8617,326.973,-1.29548
12.8633,326.989,-1.29684
12.865,327.006,-1.29798
12.8667,327.022,-1.29928
12.8683,327.039,-1.30103
12.87,327.055,-1.30337
12.8717,327.072,-1.30549
12.8733,327.089,-1.30796
12.875,327.105,-1.31058
12.8767,327.122,-1.31318
12.8783,327.138,-1.3161
12.88,327.155,-1.31916
12.8817,327.171,-1.32309
12.8833,327.188,-1.32612
12.885,327.204,-1.32855
12.8867,327.221,-1.33083
12.8883,327.237,-1.33293
12.89,327.254,-1.33423
12.8917,327.27,-1.33621
12.8933,327.287,-1.33789
12.895,327.303,-1.33975
12.8967,327.32,-1.34199
12.8983,327.336,-1.345
12.9,327.353,-1.34863
12.9017,327.369,-1.35132
12.9033,327.386,-1.35362
12.905,327.402,-1.35573
12.9067,327.419,-1.3573
12.9083,327.435,-1.35996
12.91,327.452,-1.36297
12.9117,327.469,-1.36646
12.9133,327.485,-1.36866
12.915,327.501,-1.37274
12.9167,327.518,-1.37687
12.9183,327.535,-1.37945
12.92,327.551,-1.38249
12.9217,327.567,-1.38575
12.9233,327.584,-1.38789
12.925,327.601,-1.39063
12.9267,327.617,-1.39368
12.9283,327.634,-1.39782
12.93,327.65,-1.40053
12.9317,327.666,-1.4025
12.9333,327.683,-1.40534
12.935,327.699,-1.40894
12.9367,327.716,-1.41115
12.9383,327.732,-1.41378
12.94,327.749,-1.41628
12.9417,327.765,-1.4184
12.9433,327.782,-1.42029
12.945,327.798,-1.42301
12.9467,327.814,-1.42411
12.9483,327.831,-1.42823
12.95,327.847,-1.43179
12.9517,327.864,-1.43466
12.9533,327.881,-1.43833
12.955,327.897,-1.44284
12.9567,327.913,-1.44807
12.9583,327.93,-1.4518
12.96,327.946,-1.45588
12.9617,327.963,-1.45891
12.9633,327.979,-1.46226
12.965,327.995,-1.46539
12.9667,328.012,-1.46857
12.9683,328.028,-1.47214
12.97,328.045,-1.47565
12.9717,328.061,-1.47878
12.9733,328.078,-1.48293
12.975,328.094,-1.48552
12.9767,328.11,-1.48788
12.9783,328.127,-1.49261
12.98,328.144,-1.49589
12.9817,328.16,-1.49758
12.9833,328.176,-1.5014
12.985,328.193,-1.50499
12.9867,328.209,-1.5083
12.9883,328.226,-1.51051
12.99,328.242,-1.51301
12.9917,328.258,-1.51702
12.9933,328.275,-1.52058
12.995,328.291,-1.5231
12.9967,328.308,-1.52752
12.9983,328.324,-1.53069
13,328.34,-1.53455
13.0017,328.357,-1.53936
13.0033,328.373,-1.54461
13.005,328.389,-1.54875
13.0067,328.406,-1.55155
13.0083,328.422,-1.55501
13.01,328.438,-1.55752
13.0117,328.455,-1.55856
13.0133,328.471,-1.55995
13.015,328.488,-1.56259
13.0167,328.505,-1.565
13.0183,328.521,-1.56892
13.02,328.537,-1.57239
13.0217,328.554,-1.57545
13.0233,328.57,-1.57964
13.025,328.586,-1.58511
13.0267,328.603,-1.58969
13.0283,328.619,-1.59365
13.03,328.636,-1.59788
13.0317,328.652,-1.60144
13.0333,328.669,-1.60515
13.035,328.685,-1.60751
13.0367,328.701,-1.61176
13.0383,328.718,-1.61307
13.04,328.734,-1.61628
13.0417,328.751,-1.6193
13.0433,328.767,-1.62181
13.045,328.783,-1.62631
13.0467,328.8,-1.62908
13.0483,328.816,-1.6309
13.05,328.832,-1.63459
13.0517,328.849,-1.63678
13.0533,328.866,-1.63908
13.055,328.882,-1.64196
13.0567,328.898,-1.64491
13.0583,328.915,-1.64908
13.06,328.931,-1.65143
13.0617,328.948,-1.6539
13.0633,328.964,-1.65733
13.065,328.98,-1.65979
13.0667,328.997,-1.66288
13.0683,329.013,-1.66615
13.07,329.03,-1.66876
13.0717,329.046,-1.67257
13.0733,329.062,-1.67484
13.075,329.079,-1.67857
13.0767,329.095,-1.68097
13.0783,329.112,-1.68298
13.08,329.128,-1.6843
13.0817,329.145,-1.68595
13.0833,329.161,-1.68846
13.085,329.178,-1.69049
13.0867,329.194,-1.6922
13.0883,329.21,-1.69598
13.09,329.227,-1.69797
13.0917,329.243,-1.69901
13.0933,329.26,-1.70119
13.095,329.276,-1.70221
13.0967,329.293,-1.70345
13.0983,329.309,-1.70399
13.1,329.325,-1.70444
13.1017,329.342,-1.70723
13.1033,329.358,-1.70907
13.105,329.375,-1.71121
13.1067,329.391,-1.71253
13.1083,329.408,-1.71443
13.11,329.424,-1.71591
13.1117,329.441,-1.71645
13.1133,329.457,-1.71801
13.115,329.474,-1.71908
13.1167,329.49,-1.72029
13.1183,329.507,-1.72095
13.12,329.523,-1.72156
13.1217,329.54,-1.72171
13.1233,329.556,-1.72197
13.125,329.573,-1.72197
13.1267,329.589,-1.72174
13.1283,329.606,-1.72143
13.13,329.622,-1.72126
13.1317,329.639,-1.72121
13.1333,329.655,-1.72115
13.135,329.671,-1.72095
13.1367,329.688,-1.72081
13.1383,329.704,-1.72075
13.14,329.721,-1.72069
13.1417,329.738,-1.72056
13.1433,329.754,-1.72046
13.145,329.771,-1.71824
13.1467,329.788,-1.71662
13.1483,329.804,-1.71574
13.15,329.821,-1.71511
13.1517,329.838,-1.71433
13.1533,329.854,-1.71338
13.155,329.87,-1.71251
13.1567,329.887,-1.71176
13.1583,329.903,-1.71113
13.16,329.92,-1.71033
13.1617,329.936,-1.70926
13.1633,329.953,-1.70811
13.165,329.97,-1.7067
13.1667,329.986,-1.70493
13.1683,330.003,-1.70286
13.17,330.019,-1.70054
13.1717,330.036,-1.69807
13.1733,330.053,-1.6954
13.175,330.069,-1.69248
13.1767,330.086,-1.6895
13.1783,330.103,-1.68657
13.18,330.12,-1.68289
13.1817,330.137,-1.67903
13.1833,330.153,-1.67426
13.185,330.17,-1.6696
13.1867,330.187,-1.66468
13.1883,330.203,-1.66029
13.19,330.22,-1.65685
13.1917,330.236,-1.65324
13.1933,330.253,-1.6498
13.195,330.27,-1.64617
13.1967,330.287,-1.64258
13.1983,330.304,-1.63805
13.2,330.32,-1.63366
13.2017,330.337,-1.62795
13.2033,330.354,-1.62335
13.205,330.371,-1.6187
13.2067,330.387,-1.6138
13.2083,330.404,-1.61008
13.21,330.421,-1.60647
13.2117,330.437,-1.60223
13.2133,330.454,-1.59722
13.215,330.471,-1.5925
13.2167,330.488,-1.58802
13.2183,330.505,-1.583
13.22,330.522,-1.57955
13.2217,330.539,-1.57457
13.2233,330.555,-1.5711
13.225,330.572,-1.56606
13.2267,330.589,-1.56261
13.2283,330.606,-1.55841
13.23,330.623,-1.55319
13.2317,330.64,-1.54817
13.2333,330.657,-1.54323
13.235,330.673,-1.53636
13.2367,330.69,-1.52988
13.2383,330.707,-1.52489
13.24,330.724,-1.51948
13.2417,330.741,-1.51352
13.2433,330.758,-1.50894
13.245,330.775,-1.50328
13.2467,330.792,-1.49737
13.2483,330.808,-1.49256
13.25,330.825,-1.48778
13.2517,330.842,-1.48364
13.2533,330.859,-1.47873
13.255,330.876,-1.4732
13.2567,330.893,-1.46921
13.2583,330.909,-1.46399
13.26,330.927,-1.45896
13.2617,330.943,-1.45383
13.2633,330.96,-1.44876
13.265,330.977,-1.44291
13.2667,330.994,-1.43732
13.2683,331.011,-1.43199
13.27,331.028,-1.42706
13.2717,331.045,-1.42137
13.2733,331.062,-1.41637
13.275,331.079,-1.41058
13.2767,331.096,-1.40492
13.2783,331.113,-1.39915
13.28,331.13,-1.39362
13.2817,331.147,-1.38915
13.2833,331.164,-1.38411
13.285,331.181,-1.37918
13.2867,331.198,-1.37481
13.2883,331.215,-1.37063
13.29,331.231,-1.36522
13.2917,331.248,-1.36108
13.2933,331.265,-1.35614
13.295,331.282,-1.3512
13.2967,331.299,-1.34605
13.2983,331.316,-1.34043
13.3,331.333,-1.33556
13.3017,331.35,-1.32857
13.3033,331.367,-1.32324
13.305,331.384,-1.31791
13.3067,331.401,-1.31232
13.3083,331.418,-1.30692
13.31,331.435,-1.30275
13.3117,331.452,-1.29884
13.3133,331.469,-1.29423
13.315,331.486,-1.29063
13.3167,331.503,-1.28596
13.3183,331.52,-1.28146
13.32,331.537,-1.27655
13.3217,331.554,-1.27224
13.3233,331.571,-1.2664
13.325,331.588,-1.26119
13.3267,331.605,-1.25634
13.3283,331.621,-1.25367
13.33,331.639,-1.24963
13.3317,331.656,-1.24595
13.3333,331.673,-1.24284
13.335,331.69,-1.23933
13.3367,331.707,-1.23564
13.3383,331.724,-1.23046
13.34,331.741,-1.22702
13.3417,331.757,-1.22257
13.3433,331.774,-1.21696
13.345,331.791,-1.2125
13.3467,331.808,-1.20882
13.3483,331.825,-1.20508
13.35,331.842,-1.20155
13.3517,331.859,-1.19835
13.3533,331.876,-1.19633
13.355,331.893,-1.1936
13.3567,331.91,-1.19145
13.3583,331.927,-1.18727
13.36,331.943,-1.18301
13.3617,331.961,-1.17987
13.3633,331.978,-1.17643
13.365,331.995,-1.17354
13.3667,332.011,-1.17033
13.3683,332.029,-1.1656
13.37,332.046,-1.16246
13.3717,332.063,-1.15886
13.3733,332.08,-1.15635
13.375,332.096,-1.15239
13.3767,332.113,-1.1478
13.3783,332.13,-1.14438
13.38,332.147,-1.1412
13.3817,332.164,-1.13799
13.3833,332.181,-1.13517
13.385,332.198,-1.13268
13.3867,332.215,-1.12998
13.3883,332.232,-1.12876
13.39,332.249,-1.12719
13.3917,332.266,-1.12569
13.3933,332.283,-1.12265
13.395,332.3,-1.12008
13.3967,332.316,-1.11764
13.3983,332.333,-1.11499
13.4,332.35,-1.11204
13.4017,332.367,-1.10868
13.4033,332.384,-1.10594
13.405,332.401,-1.10285
13.4067,332.418,-1.10124
13.4083,332.435,-1.09943
13.41,332.452,-1.098
13.4117,332.469,-1.09612
13.4133,332.486,-1.09391
13.415,332.503,-1.09167
13.4167,332.52,-1.08954
13.4183,332.537,-1.08587
13.42,332.554,-1.08216
13.4217,332.571,-1.07972
13.4233,332.588,-1.07684
13.425,332.604,-1.07441
13.4267,332.621,-1.07356
13.4283,332.638,-1.07097
13.43,332.655,-1.06933
13.4317,332.672,-1.06755
13.4333,332.688,-1.06631
13.435,332.706,-1.06481
13.4367,332.722,-1.06331
13.4383,332.739,-1.06187
13.44,332.756,-1.06051
13.4417,332.772,-1.05893
13.4433,332.789,-1.05762
13.445,332.806,-1.05713
13.4467,332.824,-1.05628
13.4483,332.84,-1.05517
13.45,332.857,-1.05444
13.4517,332.874,-1.05293
13.4533,332.89,-1.05139
13.455,332.907,-1.05002
13.4567,332.924,-1.04821
13.4583,332.941,-1.04623
13.46,332.958,-1.04351
13.4617,332.975,-1.04075
13.4633,332.992,-1.03818
13.465,333.009,-1.03665
13.4667,333.025,-1.03573
13.4683,333.042,-1.03462
13.47,333.059,-1.03356
13.4717,333.076,-1.03274
13.4733,333.093,-1.03191
13.475,333.109,-1.03107
13.4767,333.126,-1.03017
13.4783,333.143,-1.02857
13.48,333.16,-1.02681
13.4817,333.177,-1.02502
13.4833,333.193,-1.02313
13.485,333.21,-1.02128
13.4867,333.227,-1.02007
13.4883,333.244,-1.01856
13.49,333.261,-1.01744
13.4917,333.277,-1.01609
13.4933,333.294,-1.01537
13.495,333.311,-1.01516
13.4967,333.328,-1.01485
13.4983,333.344,-1.01468
13.5,333.361,-1.01387
13.5017,333.378,-1.01312
13.5033,333.395,-1.01228
13.505,333.412,-1.01144
13.5067,333.428,-1.01037
13.5083,333.445,-1.00943
13.51,333.462,-1.00874
13.5117,333.479,-1.00843
13.5133,333.495,-1.00804
13.515,333.512,-1.00766
13.5167,333.529,-1.0071
13.5183,333.546,-1.00605
13.52,333.563,-1.00482
13.5217,333.579,-1.00355
13.5233,333.596,-1.00227
13.525,333.613,-1.0008
13.5267,333.63,-0.999268
13.5283,333.647,-0.998427
13.53,333.663,-0.997508
13.5317,333.68,-0.996809
13.5333,333.697,-0.996065
13.535,333.714,-0.995505
13.5367,333.731,-0.995087
13.5383,333.747,-0.994542
13.54,333.764,-0.993914
13.5417,333.781,-0.993427
13.5433,333.798,-0.992852
13.545,333.814,-0.992333
13.5467,333.831,-0.991832
13.5483,333.848,-0.991442
13.55,333.864,-0.990839
13.5517,333.881,-0.990173
13.5533,333.898,-0.989314
13.555,333.915,-0.988557
13.5567,333.931,-0.987582
13.5583,333.948,-0.986583
13.56,333.965,-0.985833
13.5617,333.982,-0.985131
13.5633,333.998,-0.984408
13.565,334.015,-0.9838
13.5667,334.032,-0.983358
13.5683,334.049,-0.983051
13.57,334.066,-0.982718
13.5717,334.082,-0.982361
13.5733,334.099,-0.982115
13.575,334.115,-0.981774
13.5767,334.133,-0.981432
13.5783,334.149,-0.981154
13.58,334.166,-0.980889
13.5817,334.183,-0.980611
13.5833,334.2,-0.980254
13.585,334.216,-0.979887
13.5867,334.233,-0.979524
13.5883,334.249,-0.979189
13.59,334.266,-0.978874
13.5917,334.283,-0.978548
13.5933,334.299,-0.978247
13.595,334.316,-0.977943
13.5967,334.333,-0.977563
13.5983,334.35,-0.977111
13.6,334.367,-0.976781
13.6017,334.383,-0.976368
13.6033,334.4,-0.975972
13.605,334.417,-0.975603
13.6067,334.434,-0.97528
13.6083,334.45,-0.974981
13.61,334.467,-0.974738
13.6117,334.484,-0.974471
13.6133,334.501,-0.974129
13.615,334.517,-0.973774
13.6167,334.534,-0.973191
13.6183,334.551,-0.972722
13.62,334.568,-0.972267
13.6217,334.584,-0.971953
13.6233,334.601,-0.971619
13.625,334.618,-0.971344
13.6267,334.634,-0.971067
13.6283,334.651,-0.9708
13.63,334.668,-0.970574
13.6317,334.685,-0.970331
13.6333,334.701,-0.970161
13.635,334.718,-0.969961
13.6367,334.735,-0.96978
13.6383,334.752,-0.969625
13.64,334.769,-0.969515
13.6417,334.785,-0.969383
13.6433,334.802,-0.969242
13.645,334.819,-0.969174
13.6467,334.835,-0.969107
13.6483,334.852,-0.969015
13.65,334.869,-0.968936
13.6517,334.885,-0.968884
13.6533,334.902,-0.968817
13.655,334.918,-0.968715
13.6567,334.935,-0.968579
13.6583,334.952,-0.968435
13.66,334.969,-0.968264
13.6617,334.985,-0.9681
13.6633,335.002,-0.967932
13.665,335.019,-0.967814
13.6667,335.035,-0.967671
13.6683,335.052,-0.967477
13.67,335.069,-0.967394
13.6717,335.085,-0.967331
13.6733,335.102,-0.967273
13.675,335.119,-0.967211
13.6767,335.136,-0.967144
13.6783,335.152,-0.96706
13.68,335.169,-0.966991
13.6817,335.186,-0.966918
13.6833,335.202,-0.966831
13.685,335.219,-0.966719
13.6867,335.236,-0.96656
13.6883,335.252,-0.966344
13.69,335.269,-0.966055
13.6917,335.286,-0.965804
13.6933,335.302,-0.965655
13.695,335.319,-0.965507
13.6967,335.336,-0.965304
13.6983,335.352,-0.965118
13.7,335.369,-0.964956
13.7017,335.386,-0.964796
13.7033,335.403,-0.964704
13.705,335.419,-0.964621
13.7067,335.436,-0.96454
13.7083,335.453,-0.964454
13.71,335.47,-0.964378
13.7117,335.486,-0.964303
13.7133,335.503,-0.964118
13.715,335.519,-0.963978
13.7167,335.536,-0.963785
13.7183,335.553,-0.963707
13.72,335.569,-0.963625
13.7217,335.586,-0.963541
13.7233,335.603,-0.96346
13.725,335.619,-0.963378
13.7267,335.636,-0.963293
13.7283,335.653,-0.963207
13.73,335.67,-0.963121
13.7317,335.687,-0.963036
13.7333,335.703,-0.962945
13.735,335.72,-0.962812
13.7367,335.736,-0.962636
13.7383,335.753,-0.962503
13.74,335.77,-0.962383
13.7417,335.786,-0.962217
13.7433,335.803,-0.962015
13.745,335.82,-0.961915
13.7467,335.836,-0.96182
13.7483,335.853,-0.96173
13.75,335.87,-0.96166
13.7517,335.887,-0.961597
13.7533,335.903,-0.961548
13.755,335.92,-0.961501
13.7567,335.937,-0.961459
13.7583,335.954,-0.961418
13.76,335.97,-0.961366
13.7617,335.987,-0.961311
13.7633,336.003,-0.961248
13.765,336.02,-0.961174
13.7667,336.037,-0.961089
13.7683,336.053,-0.960994
13.77,336.07,-0.960898
13.7717,336.086,-0.960805
13.7733,336.103,-0.96071
13.775,336.12,-0.960615
13.7767,336.137,-0.960522
13.7783,336.153,-0.960433
13.78,336.17,-0.960351
13.7817,336.187,-0.960269
13.7833,336.203,-0.960198
13.785,336.22,-0.960127
13.7867,336.237,-0.960061
13.7883,336.253,-0.959998
13.79,336.27,-0.959922
13.7917,336.287,-0.959846
13.7933,336.303,-0.959773
13.795,336.32,-0.959693
13.7967,336.337,-0.959611
13.7983,336.353,-0.959526
13.8,336.37,-0.959438
13.8017,336.386,-0.95936
13.8033,336.403,-0.959297
13.805,336.42,-0.959238
13.8067,336.437,-0.959172
13.8083,336.453,-0.959096
13.81,336.47,-0.959019
13.8117,336.487,-0.95894
13.8133,336.503,-0.958861
13.815,336.52,-0.958779
13.8167,336.537,-0.958696
13.8183,336.553,-0.95861
13.82,336.57,-0.958524
13.8217,336.587,-0.958438
13.8233,336.604,-0.958351
13.825,336.62,-0.958267
13.8267,336.637,-0.958192
13.8283,336.654,-0.958118
13.83,336.67,-0.958049
13.8317,336.687,-0.957986
13.8333,336.703,-0.957924
13.835,336.72,-0.957859
13.8367,336.737,-0.957789
13.8383,336.753,-0.957715
13.84,336.77,-0.957639
13.8417,336.787,-0.957558
13.8433,336.804,-0.957474
13.845,336.821,-0.957397
13.8467,336.837,-0.95732
13.8483,336.853,-0.95724
13.85,336.87,-0.957164
13.8517,336.887,-0.957093
13.8533,336.904,-0.957034
13.855,336.921,-0.956973
13.8567,336.937,-0.956912
13.8583,336.954,-0.956858
13.86,336.971,-0.956798
13.8617,336.987,-0.95674
13.8633,337.004,-0.956685
13.865,337.021,-0.95663
13.8667,337.037,-0.956567
13.8683,337.054,-0.956508
13.87,337.07,-0.956456
13.8717,337.087,-0.956407
13.8733,337.103,-0.956355
13.875,337.12,-0.956306
13.8767,337.137,-0.956255
13.8783,337.154,-0.956206
13.88,337.17,-0.956152
13.8817,337.187,-0.956101
13.8833,337.204,-0.956049
13.885,337.22,-0.956001
13.8867,337.237,-0.955945
13.8883,337.254,-0.955884
13.89,337.27,-0.955822
13.8917,337.286,-0.955759
13.8933,337.303,-0.955692
13.895,337.32,-0.955622
13.8967,337.337,-0.955552
13.8983,337.353,-0.955487
13.9,337.37,-0.955425
13.9017,337.387,-0.955376
13.9033,337.404,-0.955337
13.905,337.42,-0.955304
13.9067,337.437,-0.955271
13.9083,337.454,-0.955246
13.91,337.47,-0.955228
13.9117,337.487,-0.955211
13.9133,337.503,-0.955189
13.915,337.52,-0.955167
13.9167,337.537,-0.955137
13.9183,337.553,-0.955093
13.92,337.57,-0.955044
13.9217,337.587,-0.954997
13.9233,337.603,-0.954949
13.925,337.62,-0.954898
13.9267,337.637,-0.954842
13.9283,337.654,-0.954781
13.93,337.67,-0.954719
13.9317,337.687,-0.954665
13.9333,337.703,-0.954609
13.935,337.72,-0.954547
13.9367,337.737,-0.954482
13.9383,337.753,-0.954418
13.94,337.77,-0.954359
13.9417,337.787,-0.954314
13.9433,337.803,-0.954285
13.945,337.82,-0.954268
13.9467,337.837,-0.954249
13.9483,337.854,-0.954235
13.95,337.87,-0.954232
13.9517,337.887,-0.954231
13.9533,337.903,-0.954226
13.955,337.92,-0.954211
13.9567,337.937,-0.954182
13.9583,337.954,-0.954151
13.96,337.97,-0.954115
13.9617,337.987,-0.954076
13.9633,338.003,-0.954045
13.965,338.02,-0.954014
13.9667,338.037,-0.953974
13.9683,338.053,-0.953935
13.97,338.07,-0.953898
13.9717,338.087,-0.953849
13.9733,338.103,-0.953802
13.975,338.12,-0.953759
13.9767,338.137,-0.953712
13.9783,338.153,-0.953681
13.98,338.17,-0.953648
13.9817,338.187,-0.953613
13.9833,338.203,-0.953573
13.985,338.22,-0.953536
13.9867,338.237,-0.953502
13.9883,338.253,-0.953471
13.99,338.27,-0.953434
13.9917,338.287,-0.9534
13.9933,338.303,-0.953361
13.995,338.32,-0.953321
13.9967,338.336,-0.953284
13.9983,338.353,-0.953239
14,338.37,-0.953198
14.0017,338.387,-0.953151
14.0033,338.403,-0.953106
14.005,338.42,-0.953063
14.0067,338.436,-0.953027
14.0083,338.453,-0.952986
14.01,338.47,-0.952949
14.0117,338.486,-0.95292
14.0133,338.503,-0.952897
14.015,338.52,-0.952879
14.0167,338.536,-0.95286
14.0183,338.553,-0.952847
14.02,338.57,-0.952837
14.0217,338.587,-0.952838
14.0233,338.603,-0.952829
14.025,338.62,-0.952823
14.0267,338.637,-0.952817
14.0283,338.653,-0.952813
14.03,338.67,-0.952794
14.0317,338.687,-0.95277
14.0333,338.703,-0.95274
14.035,338.72,-0.952701
14.0367,338.736,-0.952659
14.0383,338.753,-0.952623
14.04,338.77,-0.95259
14.0417,338.787,-0.952559
14.0433,338.803,-0.952531
14.045,338.82,-0.952498
14.0467,338.837,-0.952473
14.0483,338.854,-0.952459
14.05,338.87,-0.952449
14.0517,338.887,-0.952444
14.0533,338.904,-0.952448
14.055,338.92,-0.952451
14.0567,338.937,-0.952461
14.0583,338.953,-0.95248
14.06,338.97,-0.952498
14.0617,338.987,-0.95251
14.0633,339.003,-0.952518
14.065,339.02,-0.952522
14.0667,339.037,-0.952518
14.0683,339.053,-0.952511
14.07,339.07,-0.952504
14.0717,339.087,-0.952488
14.0733,339.103,-0.952473
14.075,339.12,-0.952458
14.0767,339.137,-0.952449
14.0783,339.153,-0.952443
14.08,339.17,-0.952435
14.0817,339.187,-0.95243
14.0833,339.203,-0.952412
14.085,339.22,-0.952377
14.0867,339.236,-0.952339
14.0883,339.253,-0.952296
14.09,339.27,-0.952259
14.0917,339.286,-0.95222
14.0933,339.303,-0.952175
14.095,339.32,-0.952134
14.0967,339.337,-0.952099
14.0983,339.354,-0.952065
14.1,339.37,-0.952031
14.1017,339.387,-0.952001
14.1033,339.403,-0.95197
14.105,339.419,-0.951944
14.1067,339.436,-0.951925
14.1083,339.453,-0.95191
14.11,339.47,-0.951905
14.1117,339.486,-0.951915
14.1133,339.503,-0.951926
14.115,339.52,-0.951944
14.1167,339.537,-0.951956
14.1183,339.553,-0.951967
14.12,339.57,-0.951973
14.1217,339.587,-0.951976
14.1233,339.603,-0.951976
14.125,339.62,-0.951974
14.1267,339.637,-0.951959
14.1283,339.653,-0.951936
14.13,339.67,-0.95192
14.1317,339.686,-0.951912
14.1333,339.703,-0.951911
14.135,339.719,-0.951912
14.1367,339.736,-0.951916
14.1383,339.753,-0.951927
14.14,339.77,-0.95195
14.1417,339.786,-0.951971
14.1433,339.803,-0.951995
14.145,339.819,-0.952017
14.1467,339.836,-0.952042
14.1483,339.853,-0.952065
14.15,339.869,-0.952086
14.1517,339.886,-0.952099
14.1533,339.902,-0.952111
14.155,339.919,-0.952115
14.1567,339.936,-0.95212
14.1583,339.953,-0.952129
14.16,339.969,-0.952124
14.1617,339.986,-0.952113
14.1633,340.003,-0.952106
14.165,340.019,-0.952097
14.1667,340.036,-0.952089
14.1683,340.053,-0.952098
14.17,340.069,-0.952108
14.1717,340.086,-0.952113
14.1733,340.103,-0.952114
14.175,340.119,-0.952123
14.1767,340.136,-0.952119
14.1783,340.152,-0.952113
14.18,340.169,-0.952109
14.1817,340.186,-0.952105
14.1833,340.202,-0.952101
14.185,340.219,-0.952105
14.1867,340.236,-0.952115
14.1883,340.253,-0.952128
14.19,340.269,-0.952138
14.1917,340.285,-0.952137
14.1933,340.302,-0.952133
14.195,340.319,-0.952123
14.1967,340.336,-0.952102
14.1983,340.352,-0.952082
14.2,340.369,-0.952058
14.2017,340.385,-0.952046
14.2033,340.402,-0.952038
14.205,340.419,-0.952037
14.2067,340.435,-0.952038
14.2083,340.452,-0.952043
14.21,340.469,-0.952047
14.2117,340.485,-0.952047
14.2133,340.502,-0.952034
14.215,340.519,-0.95202
14.2167,340.536,-0.952021
14.2183,340.552,-0.952016
14.22,340.569,-0.952011
14.2217,340.585,-0.952006
14.2233,340.602,-0.952006
14.225,340.618,-0.952014
14.2267,340.635,-0.952026
14.2283,340.652,-0.952044
14.23,340.668,-0.952068
14.2317,340.685,-0.952095
14.2333,340.702,-0.952121
14.235,340.719,-0.952146
14.2367,340.735,-0.952172
14.2383,340.752,-0.952199
14.24,340.768,-0.952223
14.2417,340.785,-0.952244
14.2433,340.802,-0.952259
14.245,340.818,-0.952267
14.2467,340.835,-0.952277
14.2483,340.852,-0.95229
14.25,340.869,-0.952301
14.2517,340.885,-0.952308
14.2533,340.903,-0.952322
14.255,340.919,-0.952336
14.2567,340.936,-0.952343
14.2583,340.952,-0.952353
14.26,340.969,-0.952356
14.2617,340.985,-0.952353
14.2633,341.002,-0.952351
14.265,341.019,-0.952361
14.2667,341.036,-0.952378
14.2683,341.053,-0.952402
14.27,341.069,-0.952421
14.2717,341.086,-0.952437
14.2733,341.103,-0.952459
14.275,341.119,-0.952474
14.2767,341.135,-0.952487
14.2783,341.152,-0.952496
14.28,341.169,-0.952502
14.2817,341.185,-0.952497
14.2833,341.202,-0.952488
14.285,341.218,-0.952483
14.2867,341.235,-0.952476
14.2883,341.252,-0.952468
14.29,341.268,-0.952469
14.2917,341.285,-0.952474
14.2933,341.302,-0.95248
14.295,341.318,-0.952492
14.2967,341.335,-0.952514
14.2983,341.352,-0.952542
14.3,341.369,-0.952573
14.3017,341.385,-0.952609
14.3033,341.402,-0.952651
14.305,341.419,-0.952694
14.3067,341.435,-0.952738
14.3083,341.452,-0.952786
14.31,341.468,-0.952826
14.3117,341.485,-0.95286
14.3133,341.502,-0.952886
14.315,341.519,-0.952918
14.3167,341.535,-0.952942
14.3183,341.552,-0.952963
14.32,341.568,-0.952978
14.3217,341.585,-0.952994
14.3233,341.602,-0.953002
14.325,341.618,-0.953006
14.3267,341.635,-0.953012
14.3283,341.652,-0.953011
14.33,341.668,-0.953019
14.3317,341.685,-0.953026
14.3333,341.702,-0.953038
14.335,341.718,-0.953037
14.3367,341.735,-0.953037
14.3383,341.751,-0.953042
14.34,341.768,-0.953052
14.3417,341.785,-0.953049
14.3433,341.801,-0.953045
14.345,341.818,-0.953047
14.3467,341.835,-0.953045
14.3483,341.852,-0.953048
14.35,341.868,-0.953054
14.3517,341.885,-0.953065
14.3533,341.901,-0.953083
14.355,341.918,-0.95311
14.3567,341.935,-0.953139
14.3583,341.952,-0.953171
14.36,341.968,-0.953203
14.3617,341.985,-0.953239
14.3633,342.001,-0.953273
14.365,342.018,-0.953308
14.3667,342.035,-0.953339
14.3683,342.051,-0.953366
14.37,342.068,-0.953386
14.3717,342.085,-0.953412
14.3733,342.101,-0.953432
14.375,342.118,-0.953451
14.3767,342.135,-0.953462
14.3783,342.151,-0.953475
14.38,342.168,-0.95349
14.3817,342.185,-0.95351
14.3833,342.201,-0.953526
14.385,342.218,-0.953546
14.3867,342.234,-0.953555
14.3883,342.251,-0.953562
14.39,342.268,-0.953568
14.3917,342.285,-0.953577
14.3933,342.301,-0.95358
14.395,342.318,-0.953577
14.3967,342.335,-0.953584
14.3983,342.351,-0.953603
14.4,342.368,-0.953616
14.4017,342.384,-0.953627
14.4033,342.401,-0.953643
14.405,342.418,-0.95366
14.4067,342.434,-0.953674
14.4083,342.451,-0.953688
14.41,342.467,-0.953703
14.4117,342.484,-0.953718
14.4133,342.501,-0.953738
14.415,342.517,-0.953753
14.4167,342.534,-0.953774
14.4183,342.551,-0.953793
14.42,342.568,-0.953814
14.4217,342.584,-0.953848
14.4233,342.601,-0.95389
14.425,342.618,-0.953932
14.4267,342.634,-0.953968
14.4283,342.651,-0.954006
14.43,342.667,-0.954043
14.4317,342.684,-0.954081
14.4333,342.701,-0.954109
14.435,342.717,-0.954136
14.4367,342.734,-0.954159
14.4383,342.751,-0.954176
14.44,342.768,-0.954203
14.4417,342.784,-0.954238
14.4433,342.801,-0.954283
14.445,342.818,-0.954322
14.4467,342.835,-0.954351
14.4483,342.851,-0.954381
14.45,342.868,-0.954407
14.4517,342.884,-0.954428
14.4533,342.901,-0.954446
14.455,342.917,-0.95447
14.4567,342.934,-0.954487
14.4583,342.951,-0.95451
14.46,342.968,-0.954531
14.4617,342.984,-0.954547
14.4633,343.001,-0.954568
14.465,343.018,-0.954594
14.4667,343.034,-0.954621
14.4683,343.051,-0.954648
14.47,343.067,-0.954674
14.4717,343.084,-0.954703
14.4733,343.101,-0.954744
14.475,343.117,-0.954787
14.4767,343.134,-0.954829
14.4783,343.15,-0.954868
14.48,343.167,-0.954912
14.4817,343.184,-0.954957
14.4833,343.2,-0.95501
14.485,343.217,-0.955056
14.4867,343.234,-0.955093
14.4883,343.25,-0.955134
14.49,343.267,-0.955167
14.4917,343.283,-0.955188
14.4933,343.3,-0.955205
14.495,343.317,-0.955218
14.4967,343.333,-0.955233
14.4983,343.35,-0.955245
14.5,343.367,-0.955251
14.5017,343.384,-0.955254
14.5033,343.4,-0.955264
14.505,343.417,-0.955284
14.5067,343.434,-0.955305
14.5083,343.45,-0.955338
14.51,343.467,-0.95538
14.5117,343.484,-0.955427
14.5133,343.501,-0.955466
14.515,343.517,-0.955512
14.5167,343.534,-0.955549
14.5183,343.551,-0.955584
14.52,343.567,-0.955614
14.5217,343.584,-0.95564
14.5233,343.6,-0.955664
14.525,343.617,-0.955674
14.5267,343.634,-0.955685
14.5283,343.65,-0.955695
14.53,343.667,-0.955706
14.5317,343.683,-0.955713
14.5333,343.7,-0.955716
14.535,343.716,-0.955726
14.5367,343.733,-0.955736
14.5383,343.75,-0.95575
14.54,343.766,-0.955766
14.5417,343.783,-0.955786
14.5433,343.8,-0.955814
14.545,343.816,-0.955855
14.5467,343.833,-0.955904
14.5483,343.85,-0.955954
14.55,343.867,-0.955984
14.5517,343.883,-0.956018
14.5533,343.9,-0.95606
14.555,343.916,-0.956096
14.5567,343.933,-0.956122
14.5583,343.95,-0.956145
14.56,343.967,-0.956168
14.5617,343.983,-0.956198
14.5633,344,-0.956236
14.565,344.016,-0.956277
14.5667,344.033,-0.956326
14.5683,344.05,-0.956373
14.57,344.066,-0.956421
14.5717,344.083,-0.956468
14.5733,344.1,-0.956517
14.575,344.117,-0.956567
14.5767,344.133,-0.956622
14.5783,344.15,-0.956685
14.58,344.166,-0.956741
14.5817,344.183,-0.95679
14.5833,344.2,-0.95683
14.585,344.216,-0.956857
14.5867,344.233,-0.956875
14.5883,344.25,-0.956888
14.59,344.266,-0.956893
14.5917,344.283,-0.956893
14.5933,344.3,-0.956888
14.595,344.316,-0.956891
14.5967,344.333,-0.9569
14.5983,344.349,-0.956925
14.6,344.366,-0.956955
14.6017,344.383,-0.956986
14.6033,344.399,-0.957032
14.605,344.416,-0.957078
14.6067,344.433,-0.957124
14.6083,344.449,-0.957167
14.61,344.466,-0.957198
14.6117,344.483,-0.957226
14.6133,344.499,-0.957256
14.615,344.516,-0.957279
14.6167,344.533,-0.957305
14.6183,344.549,-0.957336
14.62,344.566,-0.957372
14.6217,344.582,-0.957422
14.6233,344.599,-0.957469
14.625,344.616,-0.95751
14.6267,344.633,-0.957544
14.6283,344.649,-0.957571
14.63,344.665,-0.957592
14.6317,344.682,-0.957612
14.6333,344.699,-0.957625
14.635,344.716,-0.957638
14.6367,344.732,-0.95765
14.6383,344.749,-0.957664
14.64,344.766,-0.957686
14.6417,344.782,-0.957717
14.6433,344.799,-0.957761
14.645,344.816,-0.957811
14.6467,344.832,-0.957863
14.6483,344.848,-0.957916
14.65,344.865,-0.957966
14.6517,344.882,-0.958002
14.6533,344.899,-0.958035
14.655,344.915,-0.95806
14.6567,344.932,-0.958076
14.6583,344.948,-0.958088
14.66,344.965,-0.958101
14.6617,344.982,-0.958119
14.6633,344.998,-0.958144
14.665,345.015,-0.958162
14.6667,345.032,-0.958189
14.6683,345.048,-0.958216
14.67,345.065,-0.958242
14.6717,345.082,-0.958265
14.6733,345.099,-0.958299
14.675,345.115,-0.958327
14.6767,345.132,-0.958356
14.6783,345.149,-0.95838
14.68,345.165,-0.958405
14.6817,345.182,-0.958444
14.6833,345.198,-0.958478
14.685,345.215,-0.958505
14.6867,345.232,-0.958529
14.6883,345.248,-0.958549
14.69,345.265,-0.958566
14.6917,345.281,-0.958591
14.6933,345.298,-0.958616
14.695,345.315,-0.95864
14.6967,345.332,-0.958664
14.6983,345.349,-0.958693
14.7,345.365,-0.958737
14.7017,345.382,-0.958772
14.7033,345.399,-0.9588
14.705,345.415,-0.958827
14.7067,345.431,-0.958855
14.7083,345.448,-0.958876
14.71,345.465,-0.958892
14.7117,345.481,-0.958913
14.7133,345.498,-0.958938
14.715,345.515,-0.958963
14.7167,345.531,-0.958997
14.7183,345.548,-0.95903
14.72,345.565,-0.959068
14.7217,345.581,-0.959111
14.7233,345.598,-0.959148
14.725,345.615,-0.959186
14.7267,345.632,-0.959224
14.7283,345.649,-0.959262
14.73,345.665,-0.959299
14.7317,345.682,-0.959332
14.7333,345.698,-0.959365
14.735,345.715,-0.959398
14.7367,345.731,-0.959433
14.7383,345.748,-0.959464
14.74,345.764,-0.959494
14.7417,345.782,-0.959519
14.7433,345.798,-0.959555
14.745,345.814,-0.959605
14.7467,345.831,-0.959656
14.7483,345.848,-0.959717
14.75,345.864,-0.959778
14.7517,345.881,-0.959841
14.7533,345.898,-0.95991
14.755,345.914,-0.959979
14.7567,345.931,-0.960041
14.7583,345.948,-0.960091
14.76,345.964,-0.960142
14.7617,345.981,-0.960192
14.7633,345.997,-0.96024
14.765,346.014,-0.960287
14.7667,346.031,-0.960338
14.7683,346.048,-0.960374
14.77,346.064,-0.9604
14.7717,346.081,-0.960414
14.7733,346.097,-0.96043
14.775,346.114,-0.960443
14.7767,346.131,-0.960451
14.7783,346.148,-0.96046
14.78,346.164,-0.960475
14.7817,346.181,-0.960493
14.7833,346.198,-0.960522
14.785,346.214,-0.960551
14.7867,346.231,-0.960584
14.7883,346.248,-0.960619
14.79,346.264,-0.960664
14.7917,346.28,-0.960707
14.7933,346.297,-0.960758
14.795,346.314,-0.960797
14.7967,346.331,-0.960827
14.7983,346.347,-0.960856
14.8,346.364,-0.960889
14.8017,346.381,-0.960913
14.8033,346.398,-0.96092
14.805,346.414,-0.960921
14.8067,346.431,-0.960924
14.8083,346.447,-0.960936
14.81,346.464,-0.960958
14.8117,346.48,-0.960983
14.8133,346.497,-0.961014
14.815,346.514,-0.961042
14.8167,346.53,-0.961081
14.8183,346.547,-0.961125
14.82,346.564,-0.961167
14.8217,346.58,-0.961207
14.8233,346.597,-0.961244
14.825,346.614,-0.961292
14.8267,346.631,-0.961331
14.8283,346.647,-0.961359
14.83,346.663,-0.961382
14.8317,346.68,-0.961408
14.8333,346.697,-0.961432
14.835,346.713,-0.961464
14.8367,346.73,-0.961485
14.8383,346.747,-0.9615
14.84,346.763,-0.961512
14.8417,346.78,-0.961522
14.8433,346.797,-0.961535
14.845,346.813,-0.961553
14.8467,346.83,-0.961572
14.8483,346.847,-0.961595
14.85,346.863,-0.961621
14.8517,346.88,-0.961654
14.8533,346.897,-0.961691
14.855,346.913,-0.961727
14.8567,346.93,-0.961763
14.8583,346.946,-0.961802
14.86,346.963,-0.96184
14.8617,346.98,-0.961882
14.8633,346.997,-0.961931
14.865,347.013,-0.961987
14.8667,347.03,-0.962036
14.8683,347.047,-0.962084
14.87,347.063,-0.96213
14.8717,347.08,-0.962177
14.8733,347.097,-0.962214
14.875,347.113,-0.962244
14.8767,347.13,-0.962273
14.8783,347.147,-0.9623
14.88,347.163,-0.962318
14.8817,347.179,-0.962325
14.8833,347.196,-0.962325
14.885,347.213,-0.962331
14.8867,347.229,-0.962343
14.8883,347.246,-0.962363
14.89,347.263,-0.962386
14.8917,347.28,-0.962404
14.8933,347.296,-0.962428
14.895,347.313,-0.962463
14.8967,347.33,-0.962499
14.8983,347.346,-0.962536
14.9,347.363,-0.962572
14.9017,347.379,-0.962609
14.9033,347.396,-0.962647
14.905,347.413,-0.962683
14.9067,347.429,-0.962718
14.9083,347.446,-0.962756
14.91,347.462,-0.962786
14.9117,347.479,-0.962816
14.9133,347.495,-0.962845
14.915,347.512,-0.962867
14.9167,347.529,-0.962884
14.9183,347.545,-0.962898
14.92,347.562,-0.962904
14.9217,347.578,-0.962919
14.9233,347.595,-0.962942
14.925,347.612,-0.962968
14.9267,347.629,-0.963007
14.9283,347.645,-0.963051
14.93,347.662,-0.963099
14.9317,347.679,-0.963158
14.9333,347.695,-0.963228
14.935,347.712,-0.963281
14.9367,347.729,-0.963337
14.9383,347.745,-0.96339
14.94,347.762,-0.963445
14.9417,347.779,-0.963502
14.9433,347.795,-0.963563
14.945,347.812,-0.963624
14.9467,347.829,-0.96367
14.9483,347.845,-0.96371
14.95,347.862,-0.963746
14.9517,347.879,-0.963778
14.9533,347.895,-0.963804
14.955,347.912,-0.963828
14.9567,347.928,-0.963853
14.9583,347.945,-0.96387
14.96,347.962,-0.963889
14.9617,347.978,-0.963907
14.9633,347.995,-0.963934
14.965,348.011,-0.963958
14.9667,348.028,-0.963986
14.9683,348.045,-0.964021
14.97,348.062,-0.964052
14.9717,348.078,-0.964083
14.9733,348.095,-0.964116
14.975,348.112,-0.96415
14.9767,348.128,-0.96419
14.9783,348.145,-0.964234
14.98,348.161,-0.964274
14.9817,348.178,-0.964312
14.9833,348.194,-0.964346
14.985,348.211,-0.964375
14.9867,348.228,-0.964403
14.9883,348.245,-0.964438
14.99,348.261,-0.964478
14.9917,348.278,-0.964526
14.9933,348.295,-0.964575
14.995,348.311,-0.964622
14.9967,348.328,-0.96467
14.9983,348.344,-0.964721
15,348.361,-0.964765
15.0017,348.378,-0.964803
15.0033,348.395,-0.964834
15.005,348.411,-0.964865
15.0067,348.428,-0.9649
15.0083,348.444,-0.964945
15.01,348.461,-0.964986
15.0117,348.478,-0.965027
15.0133,348.494,-0.965065
15.015,348.511,-0.965106
15.0167,348.528,-0.96514
15.0183,348.544,-0.965166
15.02,348.561,-0.965185
15.0217,348.578,-0.965202
15.0233,348.594,-0.965218
15.025,348.611,-0.965233
15.0267,348.628,-0.965248
15.0283,348.644,-0.965267
15.03,348.661,-0.965292
15.0317,348.678,-0.965328
15.0333,348.694,-0.965367
15.035,348.711,-0.965412
15.0367,348.727,-0.965454
15.0383,348.744,-0.965494
15.04,348.761,-0.965527
15.0417,348.777,-0.965553
15.0433,348.794,-0.965587
15.045,348.81,-0.965621
15.0467,348.827,-0.965652
15.0483,348.844,-0.965678
15.05,348.86,-0.965705
15.0517,348.877,-0.965734
15.0533,348.894,-0.96577
15.055,348.91,-0.965807
15.0567,348.927,-0.965844
15.0583,348.944,-0.965881
15.06,348.961,-0.965917
15.0617,348.977,-0.965962
15.0633,348.994,-0.966017
15.065,349.011,-0.966065
15.0667,349.027,-0.966119
15.0683,349.044,-0.966158
15.07,349.06,-0.966197
15.0717,349.077,-0.966228
15.0733,349.094,-0.966253
15.075,349.111,-0.966281
15.0767,349.127,-0.966308
15.0783,349.144,-0.966339
15.08,349.161,-0.966372
15.0817,349.178,-0.966404
15.0833,349.194,-0.966435
15.085,349.211,-0.966467
15.0867,349.228,-0.966503
15.0883,349.244,-0.966547
15.09,349.261,-0.966586
15.0917,349.277,-0.966611
15.0933,349.294,-0.966633
15.095,349.31,-0.966663
15.0967,349.327,-0.9667
15.0983,349.343,-0.966736
15.1,349.36,-0.966767
15.1017,349.377,-0.966795
15.1033,349.393,-0.966825
15.105,349.41,-0.966867
15.1067,349.427,-0.966914
15.1083,349.444,-0.966956
15.11,349.46,-0.967
15.1117,349.477,-0.967043
15.1133,349.493,-0.967091
15.115,349.51,-0.967139
15.1167,349.526,-0.96719
15.1183,349.543,-0.96724
15.12,349.56,-0.967275
15.1217,349.576,-0.967307
15.1233,349.593,-0.967346
15.125,349.609,-0.967375
15.1267,349.626,-0.967399
15.1283,349.643,-0.967432
15.13,349.659,-0.967454
15.1317,349.676,-0.967484
15.1333,349.693,-0.967518
15.135,349.71,-0.967559
15.1367,349.726,-0.967593
15.1383,349.742,-0.967625
15.14,349.759,-0.967657
15.1417,349.776,-0.967695
15.1433,349.793,-0.967742
15.145,349.81,-0.967788
15.1467,349.826,-0.967842
15.1483,349.843,-0.967901
15.15,349.859,-0.967959
15.1517,349.876,-0.968025
15.1533,349.892,-0.968086
15.155,349.909,-0.968139
15.1567,349.926,-0.968179
15.1583,349.943,-0.968218
15.16,349.959,-0.968249
15.1617,349.976,-0.968281
15.1633,349.993,-0.968299
15.165,350.009,-0.96831
15.1667,350.026,-0.968317
15.1683,350.042,-0.968329
15.17,350.059,-0.968346
15.1717,350.076,-0.968373
15.1733,350.092,-0.968409
15.175,350.109,-0.968458
15.1767,350.126,-0.968521
15.1783,350.142,-0.968598
15.18,350.159,-0.968661
15.1817,350.175,-0.968727
15.1833,350.192,-0.968813
15.185,350.208,-0.968882
15.1867,350.225,-0.968934
15.1883,350.242,-0.968978
15.19,350.258,-0.969019
15.1917,350.275,-0.969058
15.1933,350.292,-0.969099
15.195,350.308,-0.969142
15.1967,350.325,-0.969179
15.1983,350.341,-0.969211
15.2,350.358,-0.969242
15.2017,350.375,-0.969274
15.2033,350.391,-0.96931
15.205,350.408,-0.96935
15.2067,350.425,-0.96939
15.2083,350.441,-0.969435
15.21,350.458,-0.96948
15.2117,350.475,-0.969522
15.2133,350.492,-0.969564
15.215,350.508,-0.969611
15.2167,350.525,-0.969657
15.2183,350.542,-0.969706
15.22,350.558,-0.96975
15.2217,350.575,-0.969787
15.2233,350.591,-0.969818
15.225,350.608,-0.969853
15.2267,350.624,-0.969897
15.2283,350.641,-0.96994
15.23,350.658,-0.969978
15.2317,350.675,-0.97002
15.2333,350.691,-0.970059
15.235,350.708,-0.970104
15.2367,350.725,-0.970141
15.2383,350.741,-0.970177
15.24,350.758,-0.970211
15.2417,350.774,-0.970243
15.2433,350.791,-0.970274
15.245,350.808,-0.970306
15.2467,350.824,-0.970331
15.2483,350.841,-0.970351
15.25,350.858,-0.97037
15.2517,350.874,-0.970398
15.2533,350.891,-0.970434
15.255,350.907,-0.970472
15.2567,350.924,-0.970513
15.2583,350.94,-0.970552
15.26,350.957,-0.970599
15.2617,350.974,-0.97065
15.2633,350.99,-0.970695
15.265,351.007,-0.970746
15.2667,351.024,-0.970795
15.2683,351.04,-0.97084
15.27,351.057,-0.970895
15.2717,351.074,-0.970952
15.2733,351.09,-0.971002
15.275,351.108,-0.971053
15.2767,351.124,-0.971094
15.2783,351.14,-0.971119
15.28,351.157,-0.97114
15.2817,351.174,-0.971165
15.2833,351.19,-0.971181
15.285,351.207,-0.971197
15.2867,351.224,-0.971212
15.2883,351.24,-0.971235
15.29,351.257,-0.971271
15.2917,351.274,-0.971303
15.2933,351.29,-0.971346
15.295,351.307,-0.971391
15.2967,351.324,-0.971428
15.2983,351.34,-0.971465
15.3,351.357,-0.971516
15.3017,351.374,-0.971569
15.3033,351.391,-0.97162
15.305,351.407,-0.971677
15.3067,351.424,-0.971736
15.3083,351.44,-0.971814
15.31,351.457,-0.971877
15.3117,351.474,-0.971936
15.3133,351.491,-0.971987
15.315,351.507,-0.972031
15.3167,351.523,-0.972066
15.3183,351.54,-0.9721
15.32,351.557,-0.972139
15.3217,351.573,-0.972179
15.3233,351.59,-0.972221
15.325,351.607,-0.972267
15.3267,351.623,-0.972318
15.3283,351.64,-0.972369
15.33,351.657,-0.972417
15.3317,351.673,-0.972447
15.3333,351.69,-0.972469
15.335,351.706,-0.972477
15.3367,351.723,-0.972486
15.3383,351.74,-0.972499
15.34,351.756,-0.972515
15.3417,351.773,-0.972532
15.3433,351.79,-0.97256
15.345,351.807,-0.972593
15.3467,351.823,-0.972625
15.3483,351.84,-0.972671
15.35,351.857,-0.972728
15.3517,351.873,-0.972789
15.3533,351.89,-0.97284
15.355,351.907,-0.972901
15.3567,351.923,-0.972957
15.3583,351.94,-0.973014
15.36,351.957,-0.973065
15.3617,351.973,-0.97312
15.3633,351.99,-0.973175
15.365,352.006,-0.973214
15.3667,352.023,-0.973246
15.3683,352.039,-0.973273
15.37,352.056,-0.973297
15.3717,352.073,-0.973317
15.3733,352.089,-0.973339
15.375,352.106,-0.973366
15.3767,352.123,-0.97339
15.3783,352.139,-0.973414
15.38,352.156,-0.973456
15.3817,352.173,-0.973508
15.3833,352.189,-0.973571
15.385,352.206,-0.973637
15.3867,352.223,-0.973704
15.3883,352.239,-0.973765
15.39,352.256,-0.973823
15.3917,352.273,-0.973868
15.3933,352.29,-0.973905
15.395,352.306,-0.973939
15.3967,352.323,-0.973972
15.3983,352.339,-0.973994
15.4,352.356,-0.97401
15.4017,352.372,-0.974041
15.4033,352.389,-0.974082
15.405,352.405,-0.974136
15.4067,352.422,-0.974193
15.4083,352.439,-0.974246
15.41,352.456,-0.974297
15.4117,352.472,-0.974349
15.4133,352.489,-0.974399
15.415,352.506,-0.974441
15.4167,352.523,-0.974468
15.4183,352.539,-0.974496
15.42,352.556,-0.974518
15.4217,352.572,-0.974538
15.4233,352.589,-0.974559
15.425,352.606,-0.974582
15.4267,352.622,-0.974604
15.4283,352.639,-0.974632
15.43,352.656,-0.97467
15.4317,352.672,-0.974712
15.4333,352.689,-0.974752
15.435,352.705,-0.974792
15.4367,352.722,-0.974831
15.4383,352.739,-0.97487
15.44,352.756,-0.974906
15.4417,352.772,-0.974939
15.4433,352.789,-0.974977
15.445,352.805,-0.975002
15.4467,352.822,-0.97503
15.4483,352.839,-0.975061
15.45,352.855,-0.975088
15.4517,352.872,-0.975115
15.4533,352.888,-0.975153
15.455,352.905,-0.975191
15.4567,352.922,-0.975227
15.4583,352.938,-0.975261
15.46,352.955,-0.975294
15.4617,352.972,-0.975328
15.4633,352.988,-0.975368
15.465,353.005,-0.975414
15.4667,353.022,-0.975458
15.4683,353.039,-0.975509
15.47,353.055,-0.975561
15.4717,353.071,-0.975613
15.4733,353.088,-0.975665
15.475,353.104,-0.975715
15.4767,353.121,-0.97576
15.4783,353.138,-0.975803
15.48,353.155,-0.975847
15.4817,353.171,-0.975893
15.4833,353.188,-0.975934
15.485,353.205,-0.975975
15.4867,353.221,-0.976016
15.4883,353.238,-0.976056
15.49,353.255,-0.976094
15.4917,353.271,-0.976131
15.4933,353.288,-0.976173
15.495,353.305,-0.976211
15.4967,353.321,-0.976243
15.4983,353.338,-0.976279
15.5,353.355,-0.976314
15.5017,353.371,-0.976344
15.5033,353.388,-0.976379
15.505,353.404,-0.976419
15.5067,353.421,-0.976457
15.5083,353.438,-0.976491
15.51,353.454,-0.976522
15.5117,353.471,-0.976554
15.5133,353.488,-0.976596
15.515,353.504,-0.97664
15.5167,353.521,-0.976692
15.5183,353.538,-0.976742
15.52,353.555,-0.976787
15.5217,353.571,-0.97683
15.5233,353.588,-0.976879
15.525,353.604,-0.976931
15.5267,353.621,-0.97698
15.5283,353.637,-0.977027
15.53,353.654,-0.977071
15.5317,353.671,-0.977108
15.5333,353.688,-0.977148
15.535,353.704,-0.977185
15.5367,353.721,-0.97723
15.5383,353.737,-0.977271
15.54,353.754,-0.97731
15.5417,353.771,-0.977348
15.5433,353.787,-0.977387
15.545,353.804,-0.977424
15.5467,353.821,-0.97746
15.5483,353.838,-0.977499
15.55,353.854,-0.977537
15.5517,353.871,-0.977568
15.5533,353.887,-0.97759
15.555,353.904,-0.977611
15.5567,353.921,-0.977633
15.5583,353.938,-0.977665
15.56,353.954,-0.977693
15.5617,353.971,-0.977717
15.5633,353.988,-0.97775
15.565,354.004,-0.977784
15.5667,354.021,-0.977822
15.5683,354.038,-0.97786
15.57,354.054,-0.977912
15.5717,354.071,-0.977956
15.5733,354.087,-0.978
15.575,354.104,-0.978038
15.5767,354.121,-0.978078
15.5783,354.137,-0.978115
15.58,354.154,-0.978147
15.5817,354.171,-0.978175
15.5833,354.187,-0.978197
15.585,354.204,-0.978216
15.5867,354.221,-0.978238
15.5883,354.238,-0.978266
15.59,354.254,-0.978304
15.5917,354.271,-0.978352
15.5933,354.287,-0.978403
15.595,354.304,-0.978458
15.5967,354.321,-0.978522
15.5983,354.338,-0.978624
15.6,354.354,-0.978688
15.6017,354.371,-0.978754
15.6033,354.388,-0.978818
15.605,354.404,-0.978875
15.6067,354.421,-0.978934
15.6083,354.437,-0.978995
15.61,354.454,-0.979056
15.6117,354.471,-0.979112
15.6133,354.487,-0.979168
15.615,354.504,-0.979223
15.6167,354.521,-0.979273
15.6183,354.537,-0.979316
15.62,354.554,-0.979353
15.6217,354.571,-0.979395
15.6233,354.587,-0.979432
15.625,354.604,-0.979465
15.6267,354.621,-0.979487
15.6283,354.638,-0.979505
15.63,354.654,-0.979516
15.6317,354.671,-0.979528
15.6333,354.687,-0.979529
15.635,354.704,-0.979534
15.6367,354.721,-0.979534
15.6383,354.737,-0.979527
15.64,354.754,-0.97952
15.6417,354.77,-0.979526
15.6433,354.787,-0.979538
15.645,354.804,-0.979554
15.6467,354.82,-0.979576
15.6483,354.837,-0.979613
15.65,354.853,-0.979648
15.6517,354.87,-0.979693
15.6533,354.887,-0.979745
15.655,354.904,-0.979816
15.6567,354.92,-0.979888
15.6583,354.937,-0.979987
15.66,354.954,-0.980102
15.6617,354.97,-0.980167
15.6633,354.987,-0.98022
15.665,355.003,-0.980274
15.6667,355.02,-0.980317
15.6683,355.036,-0.980352
15.67,355.053,-0.980376
15.6717,355.069,-0.980388
15.6733,355.086,-0.980397
15.675,355.103,-0.980405
15.6767,355.12,-0.980419
15.6783,355.136,-0.980438
15.68,355.153,-0.980463
15.6817,355.17,-0.980487
15.6833,355.187,-0.980512
15.685,355.203,-0.980534
15.6867,355.22,-0.980559
15.6883,355.237,-0.980581
15.69,355.253,-0.980602
15.6917,355.27,-0.980633
15.6933,355.286,-0.980674
15.695,355.303,-0.980716
15.6967,355.32,-0.980761
15.6983,355.337,-0.980818
15.7,355.353,-0.980877
15.7017,355.37,-0.980932
15.7033,355.386,-0.980975
15.705,355.403,-0.981014
15.7067,355.419,-0.981043
15.7083,355.436,-0.981072
15.71,355.453,-0.981102
15.7117,355.469,-0.981144
15.7133,355.486,-0.981189
15.715,355.503,-0.981229
15.7167,355.519,-0.981267
15.7183,355.536,-0.981303
15.72,355.553,-0.981327
15.7217,355.569,-0.981349
15.7233,355.586,-0.981362
15.725,355.602,-0.981377
15.7267,355.619,-0.98139
15.7283,355.635,-0.981404
15.73,355.652,-0.981434
15.7317,355.669,-0.981477
15.7333,355.686,-0.98153
15.735,355.702,-0.981596
15.7367,355.719,-0.981659
15.7383,355.736,-0.981718
15.74,355.753,-0.981767
15.7417,355.769,-0.981804
15.7433,355.786,-0.981835
15.745,355.802,-0.981863
15.7467,355.819,-0.981884
15.7483,355.836,-0.981917
15.75,355.852,-0.981947
15.7517,355.869,-0.981981
15.7533,355.885,-0.982021
15.755,355.902,-0.982059
15.7567,355.919,-0.982095
15.7583,355.935,-0.982133
15.76,355.952,-0.982161
15.7617,355.969,-0.982184
15.7633,355.985,-0.98221
15.765,356.003,-0.982234
15.7667,356.019,-0.982259
15.7683,356.036,-0.982274
15.77,356.053,-0.982288
15.7717,356.069,-0.982307
15.7733,356.086,-0.98233
15.775,356.102,-0.982348
15.7767,356.119,-0.98237
15.7783,356.135,-0.982391
15.78,356.152,-0.982417
15.7817,356.169,-0.982442
15.7833,356.185,-0.982479
15.785,356.202,-0.982519
15.7867,356.219,-0.982556
15.7883,356.235,-0.982599
15.79,356.253,-0.982636
15.7917,356.269,-0.982673
15.7933,356.285,-0.982709
15.795,356.302,-0.98275
15.7967,356.319,-0.982789
15.7983,356.335,-0.982823
15.8,356.352,-0.982856
15.8017,356.369,-0.982883
15.8033,356.385,-0.982907
15.805,356.402,-0.982931
15.8067,356.418,-0.982954
15.8083,356.435,-0.982968
15.81,356.452,-0.982975
15.8117,356.469,-0.982987
15.8133,356.485,-0.983007
15.815,356.502,-0.98303
15.8167,356.519,-0.983065
15.8183,356.536,-0.983107
15.82,356.552,-0.983155
15.8217,356.569,-0.983213
15.8233,356.585,-0.983269
15.825,356.602,-0.983323
15.8267,356.618,-0.983376
15.8283,356.635,-0.983422
15.83,356.652,-0.983463
15.8317,356.668,-0.983495
15.8333,356.685,-0.983524
15.835,356.701,-0.983554
15.8367,356.718,-0.98359
15.8383,356.735,-0.983624
15.84,356.751,-0.983662
15.8417,356.768,-0.983697
15.8433,356.784,-0.983734
15.845,356.801,-0.983773
15.8467,356.818,-0.983819
15.8483,356.834,-0.983867
15.85,356.851,-0.98391
15.8517,356.867,-0.983954
15.8533,356.884,-0.983996
15.855,356.901,-0.984037
15.8567,356.918,-0.98407
15.8583,356.935,-0.984097
15.86,356.951,-0.984121
15.8617,356.968,-0.984133
15.8633,356.984,-0.984133
15.865,357.001,-0.984141
15.8667,357.018,-0.984157
15.8683,357.034,-0.984178
15.87,357.051,-0.984203
15.8717,357.068,-0.984235
15.8733,357.084,-0.984269
15.875,357.101,-0.984304
15.8767,357.117,-0.984346
15.8783,357.134,-0.984395
15.88,357.151,-0.984438
15.8817,357.167,-0.984483
15.8833,357.184,-0.984524
15.885,357.201,-0.984561
15.8867,357.217,-0.984594
15.8883,357.234,-0.984613
15.89,357.25,-0.984632
15.8917,357.267,-0.984659
15.8933,357.284,-0.984678
15.895,357.3,-0.984696
15.8967,357.317,-0.984717
15.8983,357.334,-0.984734
15.9,357.35,-0.984755
15.9017,357.367,-0.984776
15.9033,357.384,-0.984803
15.905,357.4,-0.984825
15.9067,357.417,-0.984847
15.9083,357.433,-0.984881
15.91,357.45,-0.984915
15.9117,357.467,-0.984936
15.9133,357.483,-0.984962
15.915,357.5,-0.984996
15.9167,357.517,-0.985033
15.9183,357.533,-0.985077
15.92,357.55,-0.985128
15.9217,357.566,-0.985184
15.9233,357.583,-0.985237
15.925,357.6,-0.985284
15.9267,357.616,-0.985334
15.9283,357.633,-0.985374
15.93,357.65,-0.985404
15.9317,357.666,-0.985425
15.9333,357.683,-0.985432
15.935,357.699,-0.985434
15.9367,357.716,-0.985433
15.9383,357.733,-0.985448
15.94,357.75,-0.985471
15.9417,357.766,-0.985499
15.9433,357.783,-0.985529
15.945,357.799,-0.985563
15.9467,357.816,-0.985597
15.9483,357.833,-0.985644
15.95,357.849,-0.985689
15.9517,357.866,-0.985735
15.9533,357.883,-0.985776
15.955,357.9,-0.985806
15.9567,357.916,-0.985827
15.9583,357.933,-0.985842
15.96,357.949,-0.985852
15.9617,357.966,-0.985861
15.9633,357.983,-0.985864
15.965,357.999,-0.985873
15.9667,358.016,-0.985884
15.9683,358.032,-0.985892
15.97,358.049,-0.985909
15.9717,358.066,-0.985937
15.9733,358.083,-0.985966
15.975,358.099,-0.986002
15.9767,358.116,-0.986028
15.9783,358.133,-0.986061
15.98,358.15,-0.986098
15.9817,358.166,-0.986138
15.9833,358.183,-0.986179
15.985,358.199,-0.986209
15.9867,358.216,-0.98624
15.9883,358.232,-0.986269
15.99,358.249,-0.986297
15.9917,358.265,-0.986324
15.9933,358.282,-0.986358
15.995,358.299,-0.98639
15.9967,358.315,-0.986426
15.9983,358.332,-0.986466
16,358.349,-0.986506
16.0017,358.366,-0.986548
16.0033,358.382,-0.986581
16.005,358.399,-0.986616
16.0067,358.416,-0.986654
16.0083,358.432,-0.986697
16.01,358.449,-0.986736
16.0117,358.465,-0.986771
16.0133,358.482,-0.986809
16.015,358.499,-0.986844
16.0167,358.515,-0.986879
16.0183,358.532,-0.986898
16.02,358.549,-0.986922
16.0217,358.565,-0.98694
16.0233,358.582,-0.98696
16.025,358.599,-0.986979
16.0267,358.616,-0.987002
16.0283,358.633,-0.987042
16.03,358.649,-0.987087
16.0317,358.666,-0.98713
16.0333,358.682,-0.987174
16.035,358.699,-0.987221
16.0367,358.715,-0.987264
16.0383,358.733,-0.987302
16.04,358.749,-0.987336
16.0417,358.765,-0.987363
16.0433,358.782,-0.987384
16.045,358.799,-0.987391
16.0467,358.815,-0.987405
16.0483,358.832,-0.987423
16.05,358.848,-0.987431
16.0517,358.865,-0.987434
16.0533,358.882,-0.987441
16.055,358.898,-0.987457
16.0567,358.915,-0.987486
16.0583,358.932,-0.987523
16.06,358.948,-0.987566
16.0617,358.965,-0.987609
16.0633,358.982,-0.987661
16.065,358.999,-0.987715
16.0667,359.015,-0.987761
16.0683,359.032,-0.987796
16.07,359.048,-0.987823
16.0717,359.065,-0.98785
16.0733,359.082,-0.987872
16.075,359.098,-0.987889
16.0767,359.115,-0.987909
16.0783,359.132,-0.987938
16.08,359.149,-0.987974
16.0817,359.165,-0.98802
16.0833,359.182,-0.98806
16.085,359.198,-0.988092
16.0867,359.215,-0.988125
16.0883,359.232,-0.988155
16.09,359.248,-0.988181
16.0917,359.265,-0.988208
16.0933,359.281,-0.988239
16.095,359.298,-0.988268
16.0967,359.315,-0.988298
16.0983,359.331,-0.988334
16.1,359.348,-0.988376
16.1017,359.365,-0.98842
16.1033,359.382,-0.988462
16.105,359.398,-0.988502
16.1067,359.415,-0.988546
16.1083,359.431,-0.988585
16.11,359.448,-0.988622
16.1117,359.465,-0.988661
16.1133,359.481,-0.988698
16.115,359.498,-0.988737
16.1167,359.514,-0.988777
16.1183,359.531,-0.988812
16.12,359.547,-0.988835
16.1217,359.564,-0.988851
16.1233,359.581,-0.988875
16.125,359.597,-0.988898
16.1267,359.614,-0.988917
16.1283,359.631,-0.988942
16.13,359.648,-0.988966
16.1317,359.664,-0.988985
16.1333,359.681,-0.989002
16.135,359.697,-0.989021
16.1367,359.714,-0.989049
16.1383,359.731,-0.989068
16.14,359.747,-0.989096
16.1417,359.765,-0.989125
16.1433,359.781,-0.98916
16.145,359.798,-0.989204
16.1467,359.814,-0.989253
16.1483,359.831,-0.989307
16.15,359.848,-0.989354
16.1517,359.864,-0.989402
16.1533,359.881,-0.989446
16.155,359.897,-0.98948
16.1567,359.914,-0.989513
16.1583,359.93,-0.989538
16.16,359.947,-0.989558
16.1617,359.964,-0.989573
16.1633,359.98,-0.989584
16.165,359.997,-0.989592
16.1667,360.014,-0.989602
16.1683,360.03,-0.989609
16.17,360.047,-0.989621
16.1717,360.064,-0.98964
16.1733,360.08,-0.989665
16.175,360.097,-0.989697
16.1767,360.114,-0.989742
16.1783,360.13,-0.989806
16.18,360.147,-0.989862
16.1817,360.164,-0.989921
16.1833,360.18,-0.989978
16.185,360.197,-0.990034
16.1867,360.213,-0.990084
16.1883,360.231,-0.990134
16.19,360.247,-0.990176
16.1917,360.263,-0.990204
16.1933,360.28,-0.99023
16.195,360.297,-0.990261
16.1967,360.313,-0.990291
16.1983,360.33,-0.99032
16.2,360.346,-0.990347
16.2017,360.363,-0.990382
16.2033,360.38,-0.990415
16.205,360.396,-0.990446
16.2067,360.413,-0.990476
16.2083,360.429,-0.9905
16.21,360.446,-0.990515
16.2117,360.463,-0.990531
16.2133,360.48,-0.990552
16.215,360.496,-0.990578
16.2167,360.513,-0.990609
16.2183,360.53,-0.990637
16.22,360.546,-0.990681
16.2217,360.563,-0.990729
16.2233,360.58,-0.990779
16.225,360.596,-0.990826
16.2267,360.613,-0.990875
16.2283,360.63,-0.990922
16.23,360.646,-0.990968
16.2317,360.663,-0.99101
16.2333,360.68,-0.991046
16.235,360.697,-0.991084
16.2367,360.713,-0.991115
16.2383,360.73,-0.991139
16.24,360.746,-0.991159
16.2417,360.763,-0.991185
16.2433,360.78,-0.991211
16.245,360.796,-0.991237
16.2467,360.813,-0.99127
16.2483,360.829,-0.991305
16.25,360.846,-0.991335
16.2517,360.863,-0.991376
16.2533,360.88,-0.991419
16.255,360.896,-0.991469
16.2567,360.913,-0.991519
16.2583,360.929,-0.99157
16.26,360.946,-0.991622
16.2617,360.963,-0.991672
16.2633,360.979,-0.991713
16.265,360.996,-0.991748
16.2667,361.013,-0.991764
16.2683,361.029,-0.991777
16.27,361.046,-0.991792
16.2717,361.063,-0.991808
16.2733,361.079,-0.99182
16.275,361.096,-0.991844
16.2767,361.113,-0.991867
16.2783,361.129,-0.991898
16.28,361.146,-0.991937
16.2817,361.162,-0.99198
16.2833,361.178,-0.992033
16.285,361.195,-0.992077
16.2867,361.212,-0.992121
16.2883,361.229,-0.992172
16.29,361.246,-0.992212
16.2917,361.262,-0.992252
16.2933,361.279,-0.992285
16.295,361.296,-0.992313
16.2967,361.312,-0.992341
16.2983,361.329,-0.992367
16.3,361.346,-0.992408
16.3017,361.362,-0.992451
16.3033,361.379,-0.992487
16.305,361.396,-0.992528
16.3067,361.412,-0.992577
16.3083,361.429,-0.992615
16.31,361.446,-0.992643
16.3117,361.462,-0.992661
16.3133,361.479,-0.992667
16.315,361.495,-0.99267
16.3167,361.512,-0.992672
16.3183,361.529,-0.992675
16.32,361.545,-0.992679
16.3217,361.562,-0.992686
16.3233,361.579,-0.992704
16.325,361.595,-0.992736
16.3267,361.612,-0.992775
16.3283,361.629,-0.992814
16.33,361.645,-0.99285
16.3317,361.662,-0.992879
16.3333,361.679,-0.992911
16.335,361.695,-0.992943
16.3367,361.712,-0.992971
16.3383,361.728,-0.992993
16.34,361.745,-0.993018
16.3417,361.762,-0.993045
16.3433,361.778,-0.99307
16.345,361.795,-0.993104
16.3467,361.811,-0.993132
16.3483,361.828,-0.993158
16.35,361.845,-0.993181
16.3517,361.862,-0.993215
16.3533,361.878,-0.993252
16.355,361.895,-0.993277
16.3567,361.911,-0.993301
16.3583,361.928,-0.993321
16.36,361.945,-0.993341
16.3617,361.961,-0.993365
16.3633,361.978,-0.993398
16.365,361.994,-0.993437
16.3667,362.011,-0.993471
16.3683,362.028,-0.993508
16.37,362.045,-0.993548
16.3717,362.062,-0.993584
16.3733,362.078,-0.993613
16.375,362.094,-0.99364
16.3767,362.112,-0.993658
16.3783,362.128,-0.993677
16.38,362.145,-0.993704
16.3817,362.161,-0.993738
16.3833,362.178,-0.993782
16.385,362.194,-0.993834
16.3867,362.211,-0.993914
16.3883,362.228,-0.993995
16.39,362.244,-0.994122
16.3917,362.261,-0.994228
16.3933,362.278,-0.994286
16.395,362.294,-0.994331
16.3967,362.311,-0.994369
16.3983,362.328,-0.994395
16.4,362.345,-0.994402
16.4017,362.361,-0.994409
16.4033,362.378,-0.99442
16.405,362.395,-0.994431
16.4067,362.411,-0.994443
16.4083,362.428,-0.994459
16.41,362.444,-0.994479
16.4117,362.46,-0.994502
16.4133,362.477,-0.99452
16.415,362.494,-0.994546
16.4167,362.51,-0.994566
16.4183,362.527,-0.994589
16.42,362.544,-0.994612
16.4217,362.56,-0.994644
16.4233,362.577,-0.994689
16.425,362.594,-0.994734
16.4267,362.611,-0.99479
16.4283,362.627,-0.994839
16.43,362.644,-0.994888
16.4317,362.661,-0.994942
16.4333,362.677,-0.994996
16.435,362.694,-0.99505
16.4367,362.711,-0.995101
16.4383,362.727,-0.995146
16.44,362.744,-0.99519
16.4417,362.76,-0.995235
16.4433,362.777,-0.995275
16.445,362.794,-0.995312
16.4467,362.811,-0.995344
16.4483,362.827,-0.995371
16.45,362.844,-0.99539
16.4517,362.86,-0.995403
16.4533,362.877,-0.995418
16.455,362.894,-0.995434
16.4567,362.91,-0.995434
16.4583,362.927,-0.995426
16.46,362.944,-0.995424
16.4617,362.961,-0.995426
16.4633,362.977,-0.995432
16.465,362.994,-0.995439
16.4667,363.01,-0.995445
16.4683,363.027,-0.995462
16.47,363.043,-0.995483
16.4717,363.06,-0.995514
16.4733,363.077,-0.995555
16.475,363.093,-0.995599
16.4767,363.11,-0.995645
16.4783,363.127,-0.995686
16.48,363.143,-0.995726
16.4817,363.16,-0.995768
16.4833,363.176,-0.995803
16.485,363.193,-0.99584
16.4867,363.21,-0.99588
16.4883,363.226,-0.99592
16.49,363.243,-0.995963
16.4917,363.26,-0.996004
16.4933,363.277,-0.996041
16.495,363.293,-0.996078
16.4967,363.31,-0.996117
16.4983,363.327,-0.996151
16.5,363.343,-0.996179
16.5017,363.36,-0.996211
16.5033,363.377,-0.99625
16.505,363.393,-0.996292
16.5067,363.41,-0.996335
16.5083,363.426,-0.996378
16.51,363.443,-0.996405
16.5117,363.46,-0.996435
16.5133,363.477,-0.996468
16.515,363.493,-0.996502
16.5167,363.51,-0.996538
16.5183,363.527,-0.996555
16.52,363.543,-0.996567
16.5217,363.56,-0.996573
16.5233,363.577,-0.996584
16.525,363.593,-0.99659
16.5267,363.61,-0.996589
16.5283,363.627,-0.996586
16.53,363.643,-0.996582
16.5317,363.66,-0.996576
16.5333,363.676,-0.996577
16.535,363.693,-0.996583
16.5367,363.709,-0.996595
16.5383,363.726,-0.996609
16.54,363.743,-0.996626
16.5417,363.759,-0.996653
16.5433,363.776,-0.996686
16.545,363.793,-0.996715
16.5467,363.809,-0.996747
16.5483,363.826,-0.996783
16.55,363.843,-0.996821
16.5517,363.859,-0.996859
16.5533,363.876,-0.996894
16.555,363.893,-0.996926
16.5567,363.91,-0.996963
16.5583,363.926,-0.997005
16.56,363.943,-0.997047
16.5617,363.959,-0.997089
16.5633,363.976,-0.997133
16.565,363.993,-0.997182
16.5667,364.009,-0.997241
16.5683,364.026,-0.997298
16.57,364.043,-0.997356
16.5717,364.059,-0.997403
16.5733,364.076,-0.997443
16.575,364.093,-0.997468
16.5767,364.109,-0.997484
16.5783,364.126,-0.997485
16.58,364.142,-0.997482
16.5817,364.159,-0.997472
16.5833,364.175,-0.997468
16.585,364.192,-0.997458
16.5867,364.209,-0.997454
16.5883,364.226,-0.997461
16.59,364.242,-0.997472
16.5917,364.259,-0.99748
16.5933,364.276,-0.997488
16.595,364.293,-0.997502
16.5967,364.309,-0.997514
16.5983,364.326,-0.997523
16.6,364.342,-0.997532
16.6017,364.359,-0.997551
16.6033,364.376,-0.997568
16.605,364.392,-0.997589
16.6067,364.409,-0.997621
16.6083,364.426,-0.997661
16.61,364.442,-0.997707
16.6117,364.459,-0.997759
16.6133,364.476,-0.997839
16.615,364.492,-0.997951
16.6167,364.509,-0.998039
16.6183,364.525,-0.998092
16.62,364.542,-0.998144
16.6217,364.559,-0.998181
16.6233,364.575,-0.998208
16.625,364.592,-0.998221
16.6267,364.609,-0.998227
16.6283,364.625,-0.99823
16.63,364.642,-0.998237
16.6317,364.658,-0.998245
16.6333,364.675,-0.998259
16.635,364.692,-0.998271
16.6367,364.708,-0.998292
16.6383,364.725,-0.998311
16.64,364.742,-0.99833
16.6417,364.758,-0.998349
16.6433,364.775,-0.998366
16.645,364.792,-0.99839
16.6467,364.808,-0.998402
16.6483,364.825,-0.998414
16.65,364.842,-0.998427
16.6517,364.858,-0.998444
16.6533,364.875,-0.998456
16.655,364.892,-0.99846
16.6567,364.908,-0.998467
16.6583,364.925,-0.998476
16.66,364.942,-0.998488
16.6617,364.959,-0.9985
16.6633,364.975,-0.998515
16.665,364.992,-0.998529
16.6667,365.008,-0.998546
16.6683,365.025,-0.998569
16.67,365.041,-0.998602
16.6717,365.058,-0.998633
16.6733,365.075,-0.998665
16.675,365.091,-0.99871
16.6767,365.108,-0.998755
16.6783,365.125,-0.998791
16.68,365.141,-0.998828
16.6817,365.158,-0.998865
16.6833,365.175,-0.998892
16.685,365.191,-0.998908
16.6867,365.208,-0.998917
16.6883,365.224,-0.998926
16.69,365.241,-0.998931
16.6917,365.258,-0.99893
16.6933,365.274,-0.998932
16.695,365.291,-0.99894
16.6967,365.308,-0.998955
16.6983,365.324,-0.998969
16.7,365.341,-0.998994
16.7017,365.358,-0.999022
16.7033,365.375,-0.999052
16.705,365.391,-0.999079
16.7067,365.408,-0.999109
16.7083,365.425,-0.999136
16.71,365.441,-0.999162
16.7117,365.458,-0.99918
16.7133,365.474,-0.999198
16.715,365.491,-0.999204
16.7167,365.508,-0.999215
16.7183,365.524,-0.999229
16.72,365.541,-0.999233
16.7217,365.558,-0.999244
16.7233,365.574,-0.999257
16.725,365.591,-0.999274
16.7267,365.608,-0.999294
16.7283,365.624,-0.999321
16.73,365.641,-0.999353
16.7317,365.658,-0.999383
16.7333,365.674,-0.99942
16.735,365.691,-0.99945
16.7367,365.707,-0.99948
16.7383,365.724,-0.999494
16.74,365.741,-0.999507
16.7417,365.758,-0.999511
16.7433,365.774,-0.999511
16.745,365.791,-0.999519
16.7467,365.808,-0.999533
16.7483,365.825,-0.999552
16.75,365.841,-0.999569
16.7517,365.858,-0.999597
16.7533,365.874,-0.999624
16.755,365.891,-0.999656
16.7567,365.908,-0.999688
16.7583,365.925,-0.999728
16.76,365.941,-0.999771
16.7617,365.958,-0.999802
16.7633,365.975,-0.99983
16.765,365.991,-0.999861
16.7667,366.008,-0.999893
16.7683,366.024,-0.999925
16.77,366.041,-0.999958
16.7717,366.057,-0.999986
16.7733,366.073,-1.00001
16.775,366.09,-1.00003
16.7767,366.106,-1.00006
16.7783,366.123,-1.00008
16.78,366.139,-1.0001
16.7817,366.156,-1.00012
16.7833,366.173,-1.00015
16.785,366.19,-1.00018
16.7867,366.207,-1.00021
16.7883,366.224,-1.00024
16.79,366.24,-1.00027
16.7917,366.257,-1.0003
16.7933,366.274,-1.00033
16.795,366.29,-1.00036
16.7967,366.307,-1.0004
16.7983,366.324,-1.00044
16.8,366.341,-1.00048
16.8017,366.357,-1.00053
16.8033,366.374,-1.00058
16.805,366.39,-1.00063
16.8067,366.407,-1.00067
16.8083,366.424,-1.00071
16.81,366.44,-1.00075
16.8117,366.457,-1.00078
16.8133,366.473,-1.0008
16.815,366.49,-1.00082
16.8167,366.507,-1.00084
16.8183,366.523,-1.00086
16.82,366.54,-1.00087
16.8217,366.557,-1.00087
16.8233,366.574,-1.00088
16.825,366.59,-1.00087
16.8267,366.607,-1.00087
16.8283,366.623,-1.00087
16.83,366.64,-1.00087
16.8317,366.657,-1.00088
16.8333,366.673,-1.00088
16.835,366.69,-1.00089
16.8367,366.706,-1.0009
16.8383,366.723,-1.00091
16.84,366.74,-1.00093
16.8417,366.757,-1.00096
16.8433,366.773,-1.00098
16.845,366.79,-1.00099
16.8467,366.807,-1.00101
16.8483,366.823,-1.00104
16.85,366.84,-1.00107
16.8517,366.857,-1.00112
16.8533,366.873,-1.00117
16.855,366.89,-1.00123
16.8567,366.906,-1.00129
16.8583,366.923,-1.00134
16.86,366.94,-1.00139
16.8617,366.957,-1.00142
16.8633,366.973,-1.00142
16.865,366.99,-1.00143
16.8667,367.007,-1.00143
16.8683,367.023,-1.00144
16.87,367.04,-1.00144
16.8717,367.056,-1.00145
16.8733,367.073,-1.00147
16.875,367.09,-1.00149
16.8767,367.107,-1.00153
16.8783,367.123,-1.00158
16.88,367.14,-1.00163
16.8817,367.156,-1.00169
16.8833,367.173,-1.00174
16.885,367.19,-1.00179
16.8867,367.206,-1.00184
16.8883,367.223,-1.00187
16.89,367.239,-1.00189
16.8917,367.256,-1.00191
16.8933,367.273,-1.00194
16.895,367.289,-1.00196
16.8967,367.306,-1.00198
16.8983,367.323,-1.002
16.9,367.34,-1.00202
16.9017,367.356,-1.00205
16.9033,367.373,-1.00208
16.905,367.389,-1.0021
16.9067,367.406,-1.00212
16.9083,367.422,-1.00214
16.91,367.439,-1.00216
16.9117,367.456,-1.00217
16.9133,367.473,-1.00219
16.915,367.489,-1.00222
16.9167,367.506,-1.00224
16.9183,367.522,-1.00226
16.92,367.539,-1.00227
16.9217,367.556,-1.00228
16.9233,367.572,-1.0023
16.925,367.589,-1.00233
16.9267,367.605,-1.00235
16.9283,367.622,-1.00237
16.93,367.639,-1.00239
16.9317,367.656,-1.0024
16.9333,367.673,-1.00241
16.935,367.689,-1.00243
16.9367,367.706,-1.00245
16.9383,367.722,-1.00246
16.94,367.739,-1.00247
16.9417,367.755,-1.00249
16.9433,367.772,-1.00252
16.945,367.789,-1.00255
16.9467,367.806,-1.00258
16.9483,367.822,-1.00261
16.95,367.839,-1.00264
16.9517,367.855,-1.00268
16.9533,367.872,-1.00273
16.955,367.889,-1.00278
16.9567,367.905,-1.00282
16.9583,367.922,-1.00284
16.96,367.939,-1.00287
16.9617,367.955,-1.0029
16.9633,367.972,-1.00292
16.965,367.989,-1.00293
16.9667,368.006,-1.00294
16.9683,368.022,-1.00295
16.97,368.039,-1.00296
16.9717,368.056,-1.00297
16.9733,368.072,-1.003
16.975,368.089,-1.00303
16.9767,368.105,-1.00306
16.9783,368.122,-1.0031
16.98,368.139,-1.00313
16.9817,368.155,-1.00317
16.9833,368.172,-1.00319
16.985,368.188,-1.00322
16.9867,368.205,-1.00323
16.9883,368.221,-1.00325
16.99,368.238,-1.00326
16.9917,368.255,-1.00328
16.9933,368.272,-1.0033
16.995,368.288,-1.00332
16.9967,368.305,-1.00334
16.9983,368.322,-1.00337
17,368.338,-1.0034
17.0017,368.355,-1.00343
17.0033,368.372,-1.00344
17.005,368.389,-1.00346
17.0067,368.406,-1.00347
17.0083,368.422,-1.00348
17.01,368.438,-1.00348
17.0117,368.455,-1.00349
17.0133,368.472,-1.00348
17.015,368.488,-1.00348
17.0167,368.505,-1.00349
17.0183,368.521,-1.00349
17.02,368.538,-1.0035
17.0217,368.555,-1.0035
17.0233,368.571,-1.00351
17.025,368.588,-1.00352
17.0267,368.605,-1.00353
17.0283,368.622,-1.00356
17.03,368.638,-1.00358
17.0317,368.655,-1.00362
17.0333,368.672,-1.00365
17.035,368.688,-1.0037
17.0367,368.705,-1.00375
17.0383,368.722,-1.00379
17.04,368.738,-1.00381
17.0417,368.755,-1.00384
17.0433,368.771,-1.00385
17.045,368.788,-1.00386
17.0467,368.804,-1.00387
17.0483,368.821,-1.00387
17.05,368.838,-1.00387
17.0517,368.855,-1.00388
17.0533,368.871,-1.0039
17.055,368.888,-1.00392
17.0567,368.905,-1.00394
17.0583,368.921,-1.00397
17.06,368.938,-1.00399
17.0617,368.955,-1.00402
17.0633,368.971,-1.00405
17.065,368.988,-1.00406
17.0667,369.004,-1.00408
17.0683,369.021,-1.00412
17.07,369.038,-1.00415
17.0717,369.054,-1.0042
17.0733,369.071,-1.00423
17.075,369.088,-1.00427
17.0767,369.105,-1.00431
17.0783,369.121,-1.00435
17.08,369.138,-1.00439
17.0817,369.154,-1.00442
17.0833,369.171,-1.00444
17.085,369.188,-1.00446
17.0867,369.204,-1.00448
17.0883,369.221,-1.00449
17.09,369.237,-1.00449
17.0917,369.254,-1.00449
17.0933,369.271,-1.00448
17.095,369.287,-1.00447
17.0967,369.304,-1.00448
17.0983,369.321,-1.00449
17.1,369.338,-1.0045
17.1017,369.354,-1.00453
17.1033,369.371,-1.00456
17.105,369.387,-1.00459
17.1067,369.404,-1.00462
17.1083,369.421,-1.00466
17.11,369.437,-1.00469
17.1117,369.454,-1.00472
17.1133,369.471,-1.00475
17.115,369.487,-1.00477
17.1167,369.504,-1.00479
17.1183,369.52,-1.00481
17.12,369.537,-1.00483
17.1217,369.553,-1.00484
17.1233,369.571,-1.00486
17.125,369.587,-1.00488
17.1267,369.604,-1.00491
17.1283,369.621,-1.00492
17.13,369.637,-1.00493
17.1317,369.654,-1.00494
17.1333,369.67,-1.00494
17.135,369.687,-1.00495
17.1367,369.704,-1.00496
17.1383,369.721,-1.00497
17.14,369.737,-1.00499
17.1417,369.754,-1.00501
17.1433,369.77,-1.00505
17.145,369.787,-1.00509
17.1467,369.804,-1.00513
17.1483,369.82,-1.00517
17.15,369.837,-1.00522
17.1517,369.854,-1.00527
17.1533,369.87,-1.0053
17.155,369.887,-1.00533
17.1567,369.904,-1.00536
17.1583,369.92,-1.0054
17.16,369.937,-1.00543
17.1617,369.953,-1.00545
17.1633,369.97,-1.00548
17.165,369.987,-1.0055
17.1667,370.004,-1.00553
17.1683,370.02,-1.00555
17.17,370.037,-1.00557
17.1717,370.053,-1.00559
17.1733,370.07,-1.00561
17.175,370.087,-1.00562
17.1767,370.103,-1.00564
17.1783,370.12,-1.00565
17.18,370.137,-1.00567
17.1817,370.153,-1.00568
17.1833,370.169,-1.0057
17.185,370.186,-1.00573
17.1867,370.203,-1.00576
17.1883,370.219,-1.00578
17.19,370.236,-1.00582
17.1917,370.253,-1.00585
17.1933,370.269,-1.00589
17.195,370.286,-1.00593
17.1967,370.303,-1.00597
17.1983,370.319,-1.00599
17.2,370.336,-1.00601
17.2017,370.353,-1.00602
17.2033,370.369,-1.00603
17.205,370.386,-1.00603
17.2067,370.403,-1.00602
17.2083,370.419,-1.00601
17.21,370.436,-1.006
17.2117,370.453,-1.00599
17.2133,370.469,-1.00599
17.215,370.486,-1.00598
17.2167,370.502,-1.00598
17.2183,370.52,-1.00598
17.22,370.536,-1.00597
17.2217,370.553,-1.00596
17.2233,370.569,-1.00594
17.225,370.586,-1.00593
17.2267,370.602,-1.00591
17.2283,370.619,-1.00591
17.23,370.636,-1.00591
17.2317,370.653,-1.00592
17.2333,370.669,-1.00594
17.235,370.686,-1.00597
17.2367,370.702,-1.006
17.2383,370.719,-1.00602
17.24,370.735,-1.00605
17.2417,370.752,-1.00608
17.2433,370.769,-1.0061
17.245,370.785,-1.00612
17.2467,370.802,-1.00612
17.2483,370.819,-1.00613
17.25,370.835,-1.00614
17.2517,370.852,-1.00615
17.2533,370.869,-1.00616
17.255,370.885,-1.00617
17.2567,370.902,-1.00618
17.2583,370.919,-1.0062
17.26,370.935,-1.00622
17.2617,370.952,-1.00624
17.2633,370.968,-1.00626
17.265,370.985,-1.00629
17.2667,371.002,-1.00633
17.2683,371.019,-1.00637
17.27,371.035,-1.00643
17.2717,371.052,-1.00648
17.2733,371.069,-1.00652
17.275,371.085,-1.00657
17.2767,371.102,-1.00661
17.2783,371.119,-1.00665
17.28,371.136,-1.00668
17.2817,371.152,-1.00671
17.2833,371.169,-1.00673
17.285,371.185,-1.00675
17.2867,371.202,-1.00677
17.2883,371.219,-1.00678
17.29,371.235,-1.00679
17.2917,371.252,-1.0068
17.2933,371.269,-1.00681
17.295,371.285,-1.00681
17.2967,371.302,-1.00683
17.2983,371.318,-1.00684
17.3,371.335,-1.00685
17.3017,371.352,-1.00687
17.3033,371.368,-1.00688
17.305,371.385,-1.00689
17.3067,371.402,-1.0069
17.3083,371.419,-1.00691
17.31,371.435,-1.00692
17.3117,371.452,-1.00693
17.3133,371.469,-1.00694
17.315,371.485,-1.00696
17.3167,371.502,-1.00699
17.3183,371.518,-1.00702
17.32,371.535,-1.00706
17.3217,371.552,-1.0071
17.3233,371.568,-1.00713
17.325,371.585,-1.00716
17.3267,371.601,-1.00719
17.3283,371.618,-1.00722
17.33,371.635,-1.00725
17.3317,371.651,-1.00728
17.3333,371.668,-1.00731
17.335,371.685,-1.00736
17.3367,371.701,-1.00739
17.3383,371.718,-1.00744
17.34,371.735,-1.0075
17.3417,371.752,-1.00755
17.3433,371.769,-1.00759
17.345,371.785,-1.00764
17.3467,371.801,-1.00768
17.3483,371.818,-1.00771
17.35,371.834,-1.00773
17.3517,371.851,-1.00775
17.3533,371.867,-1.00776
17.355,371.884,-1.00776
17.3567,371.901,-1.00777
17.3583,371.917,-1.00779
17.36,371.934,-1.0078
17.3617,371.951,-1.00782
17.3633,371.967,-1.00784
17.365,371.984,-1.00788
17.3667,372.001,-1.00792
17.3683,372.018,-1.00795
17.37,372.034,-1.00798
17.3717,372.051,-1.00802
17.3733,372.067,-1.00805
17.375,372.084,-1.00809
17.3767,372.101,-1.00811
17.3783,372.117,-1.00813
17.38,372.134,-1.00814
17.3817,372.15,-1.00814
17.3833,372.167,-1.00813
17.385,372.184,-1.00812
17.3867,372.201,-1.0081
17.3883,372.217,-1.00808
17.39,372.234,-1.00807
17.3917,372.251,-1.00809
17.3933,372.268,-1.00811
17.395,372.284,-1.00814
17.3967,372.301,-1.00818
17.3983,372.317,-1.00822
17.4,372.334,-1.00826
17.4017,372.35,-1.00829
17.4033,372.367,-1.00832
17.405,372.384,-1.00834
17.4067,372.4,-1.00835
17.4083,372.417,-1.00836
17.41,372.433,-1.00838
17.4117,372.45,-1.00839
17.4133,372.467,-1.0084
17.415,372.484,-1.00842
17.4167,372.5,-1.00844
17.4183,372.517,-1.00845
17.42,372.534,-1.00847
17.4217,372.55,-1.0085
17.4233,372.567,-1.00852
17.425,372.583,-1.00855
17.4267,372.6,-1.00857
17.4283,372.617,-1.00859
17.43,372.633,-1.00861
17.4317,372.65,-1.00862
17.4333,372.667,-1.00863
17.435,372.683,-1.00863
17.4367,372.7,-1.00863
17.4383,372.716,-1.00864
17.44,372.733,-1.00864
17.4417,372.75,-1.00866
17.4433,372.767,-1.00868
17.445,372.783,-1.00871
17.4467,372.8,-1.00875
17.4483,372.817,-1.00881
17.45,372.833,-1.00887
17.4517,372.85,-1.00892
17.4533,372.867,-1.00897
17.455,372.883,-1.00902
17.4567,372.9,-1.00905
17.4583,372.916,-1.00908
17.46,372.933,-1.00911
17.4617,372.95,-1.00913
17.4633,372.966,-1.00914
17.465,372.983,-1.00915
17.4667,373,-1.00917
17.4683,373.016,-1.0092
17.47,373.032,-1.00922
17.4717,373.049,-1.00924
17.4733,373.066,-1.00928
17.475,373.083,-1.00932
17.4767,373.099,-1.00935
17.4783,373.116,-1.00939
17.48,373.133,-1.00943
17.4817,373.149,-1.00947
17.4833,373.166,-1.00951
17.485,373.182,-1.00954
17.4867,373.199,-1.00957
17.4883,373.216,-1.00959
17.49,373.232,-1.00961
17.4917,373.249,-1.00962
17.4933,373.266,-1.00962
17.495,373.282,-1.00963
17.4967,373.299,-1.00963
17.4983,373.316,-1.00964
17.5,373.333,-1.00966
17.5017,373.349,-1.00969
17.5033,373.366,-1.00972
17.505,373.382,-1.00975
