Ramp 10.00 °C/min to 375.00 °C,,
Time,Temperature,Heat Flow (Normalized)
min,°C,W/g
5.00333,249.88,-0.167765
5.005,249.88,-0.167776
5.00667,249.879,-0.167785
5.00833,249.88,-0.167792
5.01,249.879,-0.167799
5.01167,249.88,-0.1678
5.01333,249.88,-0.16779
5.015,249.88,-0.167787
5.01667,249.879,-0.167783
5.01833,249.88,-0.167786
5.02,249.88,-0.167794
5.02167,249.881,-0.167811
5.02333,249.881,-0.167834
5.025,249.881,-0.167868
5.02667,249.881,-0.167916
5.02833,249.882,-0.167981
5.03,249.883,-0.168021
5.03167,249.883,-0.168063
5.03333,249.884,-0.168123
5.035,249.885,-0.168187
5.03667,249.886,-0.168234
5.03833,249.886,-0.168275
5.04,249.888,-0.16831
5.04167,249.889,-0.168353
5.04333,249.89,-0.168387
5.045,249.892,-0.168417
5.04667,249.893,-0.168429
5.04833,249.895,-0.168428
5.05,249.897,-0.168411
5.05167,249.898,-0.168323
5.05333,249.9,-0.168116
5.055,249.903,-0.167707
5.05667,249.905,-0.166921
5.05833,249.907,-0.1658
5.06,249.91,-0.164136
5.06167,249.912,-0.161785
5.06333,249.915,-0.158173
5.065,249.918,-0.153362
5.06667,249.921,-0.148014
5.06833,249.924,-0.142572
5.07,249.928,-0.137188
5.07167,249.932,-0.132645
5.07333,249.935,-0.128536
5.075,249.94,-0.123269
5.07667,249.944,-0.119775
5.07833,249.949,-0.116531
5.08,249.953,-0.114197
5.08167,249.958,-0.111766
5.08333,249.963,-0.10946
5.085,249.969,-0.107943
5.08667,249.974,-0.10667
5.08833,249.979,-0.105874
5.09,249.985,-0.105301
5.09167,249.991,-0.105007
5.09333,249.997,-0.105195
5.095,250.004,-0.105618
5.09667,250.01,-0.106081
5.09833,250.017,-0.106577
5.1,250.024,-0.107131
5.10167,250.032,-0.107646
5.10333,250.039,-0.108095
5.105,250.047,-0.109757
5.10667,250.054,-0.110862
5.10833,250.063,-0.111534
5.11,250.071,-0.111839
5.11167,250.079,-0.112604
5.11333,250.087,-0.114024
5.115,250.096,-0.116691
5.11667,250.105,-0.121472
5.11833,250.113,-0.128465
5.12,250.123,-0.137275
5.12167,250.132,-0.147987
5.12333,250.142,-0.1593
5.125,250.151,-0.17142
5.12667,250.161,-0.183154
5.12833,250.171,-0.195011
5.13,250.181,-0.203867
5.13167,250.191,-0.210346
5.13333,250.201,-0.219389
5.135,250.212,-0.227363
5.13667,250.222,-0.235732
5.13833,250.233,-0.243185
5.14,250.244,-0.252027
5.14167,250.255,-0.260664
5.14333,250.266,-0.269917
5.145,250.278,-0.278429
5.14667,250.289,-0.288014
5.14833,250.3,-0.295913
5.15,250.312,-0.302286
5.15167,250.324,-0.30889
5.15333,250.336,-0.316781
5.155,250.347,-0.323776
5.15667,250.359,-0.329923
5.15833,250.372,-0.336597
5.16,250.383,-0.343514
5.16167,250.396,-0.351687
5.16333,250.408,-0.359636
5.165,250.421,-0.368379
5.16667,250.434,-0.376068
5.16833,250.446,-0.384058
5.17,250.459,-0.390623
5.17167,250.471,-0.397672
5.17333,250.484,-0.404422
5.175,250.497,-0.410676
5.17667,250.51,-0.4152
5.17833,250.523,-0.421568
5.18,250.536,-0.42795
5.18167,250.549,-0.433797
5.18333,250.562,-0.438862
5.185,250.576,-0.444773
5.18667,250.59,-0.450468
5.18833,250.603,-0.456299
5.19,250.617,-0.46236
5.19167,250.63,-0.468745
5.19333,250.644,-0.473775
5.195,250.657,-0.478589
5.19667,250.671,-0.483962
5.19833,250.685,-0.489914
5.2,250.699,-0.493251
5.20167,250.713,-0.496313
5.20333,250.727,-0.499164
5.205,250.741,-0.50266
5.20667,250.755,-0.507436
5.20833,250.769,-0.510523
5.21,250.783,-0.513573
5.21167,250.798,-0.51706
5.21333,250.812,-0.52111
5.215,250.826,-0.526865
5.21667,250.841,-0.531824
5.21833,250.855,-0.536189
5.22,250.87,-0.539821
5.22167,250.884,-0.543792
5.22333,250.899,-0.547625
5.225,250.913,-0.551926
5.22667,250.928,-0.555585
5.22833,250.943,-0.558316
5.23,250.957,-0.561971
5.23167,250.972,-0.565768
5.23333,250.987,-0.568855
5.235,251.001,-0.57243
5.23667,251.016,-0.576092
5.23833,251.031,-0.578477
5.24,251.047,-0.581389
5.24167,251.061,-0.585558
5.24333,251.076,-0.587438
5.245,251.092,-0.589371
5.24667,251.107,-0.59026
5.24833,251.122,-0.591377
5.25,251.137,-0.59371
5.25167,251.152,-0.595402
5.25333,251.167,-0.598063
5.255,251.182,-0.60087
5.25667,251.197,-0.603583
5.25833,251.212,-0.606431
5.26,251.228,-0.610159
5.26167,251.243,-0.614012
5.26333,251.258,-0.616517
5.265,251.274,-0.619787
5.26667,251.289,-0.622075
5.26833,251.305,-0.625765
5.27,251.32,-0.626893
5.27167,251.336,-0.62845
5.27333,251.351,-0.630155
5.275,251.367,-0.631386
5.27667,251.382,-0.634466
5.27833,251.397,-0.635938
5.28,251.413,-0.638037
5.28167,251.429,-0.638196
5.28333,251.444,-0.63936
5.285,251.46,-0.640954
5.28667,251.475,-0.643503
5.28833,251.491,-0.644437
5.29,251.507,-0.646178
5.29167,251.522,-0.649596
5.29333,251.538,-0.651907
5.295,251.554,-0.652922
5.29667,251.57,-0.654031
5.29833,251.585,-0.654543
5.3,251.601,-0.655253
5.30167,251.617,-0.656229
5.30333,251.633,-0.65736
5.305,251.648,-0.65801
5.30667,251.665,-0.659682
5.30833,251.68,-0.661474
5.31,251.696,-0.66353
5.31167,251.712,-0.664718
5.31333,251.727,-0.665781
5.315,251.743,-0.6669
5.31667,251.759,-0.667931
5.31833,251.775,-0.668993
5.32,251.791,-0.671106
5.32167,251.807,-0.67304
5.32333,251.823,-0.674407
5.325,251.839,-0.675409
5.32667,251.855,-0.676498
5.32833,251.871,-0.677571
5.33,251.886,-0.678952
5.33167,251.902,-0.680057
5.33333,251.918,-0.681217
5.335,251.934,-0.68216
5.33667,251.95,-0.683117
5.33833,251.967,-0.683865
5.34,251.983,-0.684635
5.34167,251.999,-0.685194
5.34333,252.014,-0.686016
5.345,252.031,-0.686536
5.34667,252.047,-0.687248
5.34833,252.063,-0.687941
5.35,252.079,-0.68876
5.35167,252.095,-0.689592
5.35333,252.111,-0.690273
5.355,252.127,-0.690701
5.35667,252.143,-0.690985
5.35833,252.159,-0.691239
5.36,252.175,-0.691455
5.36167,252.191,-0.691685
5.36333,252.207,-0.691885
5.365,252.223,-0.692032
5.36667,252.239,-0.692309
5.36833,252.256,-0.692585
5.37,252.272,-0.692878
5.37167,252.288,-0.693244
5.37333,252.304,-0.693689
5.375,252.321,-0.694439
5.37667,252.337,-0.695418
5.37833,252.353,-0.69659
5.38,252.369,-0.697821
5.38167,252.385,-0.699134
5.38333,252.402,-0.700402
5.385,252.418,-0.701546
5.38667,252.434,-0.702707
5.38833,252.45,-0.703518
5.39,252.467,-0.704142
5.39167,252.482,-0.704896
5.39333,252.499,-0.705418
5.395,252.515,-0.705844
5.39667,252.531,-0.706203
5.39833,252.547,-0.706501
5.4,252.563,-0.706729
5.40167,252.579,-0.706956
5.40333,252.596,-0.707201
5.405,252.612,-0.707313
5.40667,252.629,-0.707435
5.40833,252.645,-0.707518
5.41,252.661,-0.70765
5.41167,252.678,-0.707821
5.41333,252.694,-0.707986
5.415,252.71,-0.708222
5.41667,252.727,-0.70845
5.41833,252.742,-0.708636
5.42,252.759,-0.708824
5.42167,252.775,-0.70909
5.42333,252.791,-0.709309
5.425,252.808,-0.70951
5.42667,252.824,-0.709652
5.42833,252.841,-0.709792
5.43,252.857,-0.710028
5.43167,252.873,-0.710173
5.43333,252.889,-0.710403
5.435,252.905,-0.710675
5.43667,252.922,-0.711108
5.43833,252.938,-0.711614
5.44,252.954,-0.712331
5.44167,252.971,-0.713167
5.44333,252.987,-0.713934
5.445,253.003,-0.714614
5.44667,253.02,-0.715095
5.44833,253.036,-0.715475
5.45,253.053,-0.715739
5.45167,253.069,-0.715964
5.45333,253.086,-0.716234
5.455,253.102,-0.716459
5.45667,253.118,-0.716704
5.45833,253.134,-0.716978
5.46,253.15,-0.717284
5.46167,253.167,-0.717574
5.46333,253.183,-0.717821
5.465,253.2,-0.718078
5.46667,253.216,-0.718407
5.46833,253.232,-0.718652
5.47,253.249,-0.718881
5.47167,253.265,-0.719109
5.47333,253.282,-0.719272
5.475,253.298,-0.71943
5.47667,253.315,-0.719604
5.47833,253.33,-0.719797
5.48,253.347,-0.719963
5.48167,253.363,-0.720095
5.48333,253.379,-0.720248
5.485,253.396,-0.720397
5.48667,253.412,-0.720484
5.48833,253.429,-0.720556
5.49,253.445,-0.720624
5.49167,253.462,-0.720704
5.49333,253.478,-0.720793
5.495,253.494,-0.720921
5.49667,253.51,-0.721167
5.49833,253.527,-0.721412
5.5,253.544,-0.721589
5.50167,253.56,-0.721833
5.50333,253.576,-0.722053
5.505,253.593,-0.722343
5.50667,253.609,-0.72249
5.50833,253.625,-0.722584
5.51,253.642,-0.722644
5.51167,253.658,-0.722971
5.51333,253.675,-0.72303
5.515,253.691,-0.723311
5.51667,253.708,-0.723366
5.51833,253.724,-0.72342
5.52,253.741,-0.723474
5.52167,253.757,-0.723539
5.52333,253.773,-0.723607
5.525,253.79,-0.723671
5.52667,253.806,-0.723734
5.52833,253.822,-0.723799
5.53,253.839,-0.723867
5.53167,253.855,-0.723936
5.53333,253.872,-0.724009
5.535,253.888,-0.724116
5.53667,253.905,-0.724193
5.53833,253.921,-0.724265
5.54,253.937,-0.724339
5.54167,253.954,-0.724443
5.54333,253.97,-0.724608
5.545,253.986,-0.724742
5.54667,254.003,-0.724954
5.54833,254.019,-0.725211
5.55,254.036,-0.725554
5.55167,254.052,-0.726209
5.55333,254.068,-0.727035
5.555,254.085,-0.727555
5.55667,254.101,-0.72802
5.55833,254.118,-0.728373
5.56,254.135,-0.728655
5.56167,254.151,-0.728831
5.56333,254.167,-0.728914
5.565,254.184,-0.729138
5.56667,254.201,-0.729287
5.56833,254.217,-0.729424
5.57,254.233,-0.729596
5.57167,254.249,-0.729668
5.57333,254.266,-0.729826
5.575,254.282,-0.729895
5.57667,254.299,-0.729975
5.57833,254.315,-0.730053
5.58,254.332,-0.730138
5.58167,254.348,-0.730227
5.58333,254.364,-0.730304
5.585,254.381,-0.730387
5.58667,254.397,-0.730469
5.58833,254.414,-0.730551
5.59,254.43,-0.73063
5.59167,254.447,-0.730711
5.59333,254.463,-0.730798
5.595,254.48,-0.730891
5.59667,254.496,-0.730977
5.59833,254.513,-0.731061
5.6,254.529,-0.731137
5.60167,254.546,-0.731207
5.60333,254.562,-0.731315
5.605,254.579,-0.731382
5.60667,254.596,-0.73145
5.60833,254.612,-0.731513
5.61,254.628,-0.731577
5.61167,254.645,-0.731651
5.61333,254.661,-0.731729
5.615,254.677,-0.731811
5.61667,254.694,-0.73189
5.61833,254.71,-0.731962
5.62,254.727,-0.732044
5.62167,254.743,-0.732128
5.62333,254.759,-0.732213
5.625,254.776,-0.7323
5.62667,254.792,-0.732396
5.62833,254.809,-0.732492
5.63,254.825,-0.732591
5.63167,254.842,-0.732701
5.63333,254.858,-0.732857
5.635,254.875,-0.732958
5.63667,254.891,-0.733073
5.63833,254.908,-0.733187
5.64,254.925,-0.733292
5.64167,254.941,-0.733398
5.64333,254.958,-0.733499
5.645,254.974,-0.733599
5.64667,254.99,-0.733708
5.64833,255.007,-0.733815
5.65,255.023,-0.733924
5.65167,255.039,-0.734024
5.65333,255.056,-0.734139
5.655,255.073,-0.73423
5.65667,255.089,-0.734332
5.65833,255.106,-0.734427
5.66,255.122,-0.734519
5.66167,255.139,-0.734612
5.66333,255.155,-0.734706
5.665,255.172,-0.734803
5.66667,255.188,-0.734902
5.66833,255.205,-0.734997
5.67,255.221,-0.73509
5.67167,255.237,-0.735189
5.67333,255.254,-0.73528
5.675,255.271,-0.735369
5.67667,255.287,-0.735462
5.67833,255.304,-0.735558
5.68,255.32,-0.735657
5.68167,255.337,-0.735766
5.68333,255.353,-0.735873
5.685,255.369,-0.735978
5.68667,255.386,-0.736082
5.68833,255.402,-0.736178
5.69,255.419,-0.736281
5.69167,255.435,-0.736374
5.69333,255.452,-0.736462
5.695,255.468,-0.73656
5.69667,255.485,-0.736663
5.69833,255.501,-0.73677
5.7,255.518,-0.73688
5.70167,255.534,-0.73699
5.70333,255.551,-0.737099
5.705,255.567,-0.737216
5.70667,255.584,-0.737359
5.70833,255.6,-0.737501
5.71,255.617,-0.737611
5.71167,255.633,-0.737715
5.71333,255.65,-0.737819
5.715,255.667,-0.737914
5.71667,255.683,-0.738004
5.71833,255.699,-0.738096
5.72,255.715,-0.738191
5.72167,255.733,-0.738284
5.72333,255.749,-0.738379
5.725,255.766,-0.738479
5.72667,255.782,-0.738576
5.72833,255.799,-0.738674
5.73,255.815,-0.738773
5.73167,255.832,-0.738875
5.73333,255.848,-0.738975
5.735,255.864,-0.739083
5.73667,255.881,-0.739187
5.73833,255.897,-0.739299
5.74,255.914,-0.739418
5.74167,255.931,-0.739527
5.74333,255.947,-0.73964
5.745,255.964,-0.739753
5.74667,255.98,-0.739861
5.74833,255.997,-0.739959
5.75,256.014,-0.740061
5.75167,256.03,-0.740151
5.75333,256.046,-0.740242
5.755,256.063,-0.740327
5.75667,256.079,-0.7404
5.75833,256.095,-0.740479
5.76,256.112,-0.740557
5.76167,256.128,-0.740637
5.76333,256.145,-0.740724
5.765,256.162,-0.740811
5.76667,256.178,-0.740898
5.76833,256.195,-0.740992
5.77,256.211,-0.741092
5.77167,256.228,-0.741195
5.77333,256.244,-0.741301
5.775,256.261,-0.741416
5.77667,256.277,-0.741585
5.77833,256.294,-0.741701
5.78,256.311,-0.741819
5.78167,256.327,-0.741927
5.78333,256.344,-0.74203
5.785,256.36,-0.742131
5.78667,256.377,-0.742233
5.78833,256.393,-0.742329
5.79,256.41,-0.742422
5.79167,256.426,-0.742519
5.79333,256.443,-0.742624
5.795,256.459,-0.742734
5.79667,256.476,-0.742842
5.79833,256.493,-0.742945
5.8,256.509,-0.74304
5.80167,256.526,-0.743127
5.80333,256.542,-0.743214
5.805,256.559,-0.743301
5.80667,256.575,-0.743388
5.80833,256.592,-0.743469
5.81,256.609,-0.743552
5.81167,256.625,-0.743642
5.81333,256.642,-0.743738
5.815,256.658,-0.743836
5.81667,256.675,-0.743928
5.81833,256.691,-0.744025
5.82,256.708,-0.744123
5.82167,256.724,-0.744234
5.82333,256.741,-0.744365
5.825,256.757,-0.744552
5.82667,256.773,-0.744745
5.82833,256.79,-0.744895
5.83,256.807,-0.745012
5.83167,256.823,-0.745128
5.83333,256.84,-0.745243
5.835,256.857,-0.745345
5.83667,256.873,-0.745435
5.83833,256.89,-0.745521
5.84,256.906,-0.745604
5.84167,256.922,-0.74569
5.84333,256.939,-0.745782
5.845,256.955,-0.745864
5.84667,256.972,-0.745945
5.84833,256.989,-0.746024
5.85,257.005,-0.746104
5.85167,257.022,-0.74619
5.85333,257.038,-0.746269
5.855,257.055,-0.746353
5.85667,257.072,-0.746431
5.85833,257.089,-0.746509
5.86,257.105,-0.746592
5.86167,257.122,-0.746674
5.86333,257.138,-0.746755
5.865,257.154,-0.746842
5.86667,257.171,-0.746934
5.86833,257.188,-0.747023
5.87,257.205,-0.747126
5.87167,257.221,-0.747224
5.87333,257.238,-0.747322
5.875,257.254,-0.747426
5.87667,257.271,-0.747535
5.87833,257.287,-0.747639
5.88,257.304,-0.747734
5.88167,257.32,-0.747839
5.88333,257.337,-0.747939
5.885,257.353,-0.748035
5.88667,257.37,-0.74813
5.88833,257.386,-0.748229
5.89,257.403,-0.748329
5.89167,257.419,-0.748426
5.89333,257.436,-0.748512
5.895,257.453,-0.748596
5.89667,257.47,-0.748685
5.89833,257.486,-0.748763
5.9,257.503,-0.748838
5.90167,257.519,-0.748919
5.90333,257.536,-0.748998
5.905,257.552,-0.749077
5.90667,257.569,-0.749159
5.90833,257.586,-0.749247
5.91,257.602,-0.749337
5.91167,257.618,-0.749426
5.91333,257.635,-0.74952
5.915,257.652,-0.749618
5.91667,257.668,-0.749716
5.91833,257.685,-0.749803
5.92,257.701,-0.749891
5.92167,257.718,-0.749982
5.92333,257.734,-0.750078
5.925,257.751,-0.750166
5.92667,257.768,-0.750253
5.92833,257.784,-0.750339
5.93,257.801,-0.750419
5.93167,257.817,-0.750503
5.93333,257.834,-0.750576
5.935,257.85,-0.750641
5.93667,257.867,-0.750702
5.93833,257.883,-0.750771
5.94,257.9,-0.750845
5.94167,257.917,-0.750923
5.94333,257.933,-0.751008
5.945,257.95,-0.751101
5.94667,257.967,-0.751195
5.94833,257.983,-0.751296
5.95,258,-0.751402
5.95167,258.016,-0.751509
5.95333,258.033,-0.751616
5.955,258.049,-0.751722
5.95667,258.066,-0.751828
5.95833,258.082,-0.751935
5.96,258.099,-0.752034
5.96167,258.116,-0.752123
5.96333,258.132,-0.752199
5.965,258.149,-0.75226
5.96667,258.165,-0.752316
5.96833,258.182,-0.752361
5.97,258.199,-0.752409
5.97167,258.215,-0.752455
5.97333,258.232,-0.752508
5.975,258.248,-0.752563
5.97667,258.265,-0.752625
5.97833,258.281,-0.752689
5.98,258.298,-0.75277
5.98167,258.314,-0.752859
5.98333,258.331,-0.752953
5.985,258.347,-0.753051
5.98667,258.364,-0.753145
5.98833,258.381,-0.753242
5.99,258.397,-0.753336
5.99167,258.413,-0.75343
5.99333,258.43,-0.753522
5.995,258.447,-0.7536
5.99667,258.464,-0.75368
5.99833,258.48,-0.753753
6,258.497,-0.75382
6.00167,258.514,-0.75389
6.00333,258.53,-0.75396
6.005,258.547,-0.75402
6.00667,258.563,-0.754073
6.00833,258.579,-0.754129
6.01,258.596,-0.754183
6.01167,258.613,-0.754236
6.01333,258.629,-0.754285
6.015,258.646,-0.75434
6.01667,258.662,-0.754384
6.01833,258.679,-0.754429
6.02,258.696,-0.754479
6.02167,258.712,-0.754537
6.02333,258.729,-0.754607
6.025,258.746,-0.754688
6.02667,258.762,-0.754764
6.02833,258.779,-0.754838
6.03,258.795,-0.754917
6.03167,258.812,-0.755002
6.03333,258.828,-0.755085
6.035,258.845,-0.755169
6.03667,258.862,-0.755256
6.03833,258.879,-0.755343
6.04,258.895,-0.755432
6.04167,258.912,-0.755531
6.04333,258.928,-0.755657
6.045,258.945,-0.755759
6.04667,258.962,-0.75586
6.04833,258.978,-0.755953
6.05,258.995,-0.756046
6.05167,259.011,-0.756133
6.05333,259.028,-0.756208
6.055,259.045,-0.756277
6.05667,259.061,-0.75634
6.05833,259.078,-0.7564
6.06,259.095,-0.756458
6.06167,259.111,-0.75652
6.06333,259.128,-0.756583
6.065,259.144,-0.756657
6.06667,259.161,-0.756734
6.06833,259.177,-0.756805
6.07,259.194,-0.756868
6.07167,259.211,-0.756934
6.07333,259.227,-0.756997
6.075,259.244,-0.757055
6.07667,259.26,-0.757117
6.07833,259.277,-0.757177
6.08,259.293,-0.757242
6.08167,259.31,-0.757308
6.08333,259.326,-0.757375
6.085,259.343,-0.757451
6.08667,259.36,-0.757535
6.08833,259.376,-0.757626
6.09,259.393,-0.757729
6.09167,259.41,-0.757826
6.09333,259.427,-0.75792
6.095,259.443,-0.758018
6.09667,259.46,-0.758111
6.09833,259.476,-0.758188
6.1,259.493,-0.758248
6.10167,259.509,-0.758299
6.10333,259.526,-0.758338
6.105,259.543,-0.758376
6.10667,259.56,-0.758414
6.10833,259.576,-0.758446
6.11,259.593,-0.758476
6.11167,259.609,-0.758504
6.11333,259.626,-0.758539
6.115,259.642,-0.758584
6.11667,259.659,-0.758632
6.11833,259.675,-0.758686
6.12,259.692,-0.758736
6.12167,259.709,-0.758787
6.12333,259.725,-0.758841
6.125,259.742,-0.758905
6.12667,259.759,-0.758975
6.12833,259.775,-0.759048
6.13,259.791,-0.759126
6.13167,259.808,-0.759211
6.13333,259.825,-0.759296
6.135,259.841,-0.759402
6.13667,259.858,-0.759496
6.13833,259.875,-0.75958
6.14,259.891,-0.759654
6.14167,259.908,-0.759719
6.14333,259.924,-0.759779
6.145,259.941,-0.759835
6.14667,259.957,-0.759886
6.14833,259.974,-0.759945
6.15,259.991,-0.759997
6.15167,260.007,-0.760047
6.15333,260.024,-0.760095
6.155,260.041,-0.760155
6.15667,260.057,-0.760213
6.15833,260.074,-0.760266
6.16,260.09,-0.760319
6.16167,260.107,-0.760376
6.16333,260.124,-0.760424
6.165,260.14,-0.760472
6.16667,260.157,-0.760512
6.16833,260.173,-0.760547
6.17,260.19,-0.760583
6.17167,260.206,-0.760611
6.17333,260.223,-0.760649
6.175,260.24,-0.760691
6.17667,260.256,-0.760743
6.17833,260.273,-0.760791
6.18,260.29,-0.760843
6.18167,260.306,-0.760897
6.18333,260.323,-0.760954
6.185,260.34,-0.761019
6.18667,260.356,-0.761103
6.18833,260.373,-0.761254
6.19,260.39,-0.761473
6.19167,260.406,-0.761677
6.19333,260.423,-0.761791
6.195,260.439,-0.761884
6.19667,260.456,-0.761969
6.19833,260.473,-0.762052
6.2,260.489,-0.762125
6.20167,260.506,-0.762194
6.20333,260.522,-0.762259
6.205,260.539,-0.762318
6.20667,260.556,-0.76237
6.20833,260.572,-0.762421
6.21,260.589,-0.762466
6.21167,260.605,-0.762506
6.21333,260.622,-0.762547
6.215,260.638,-0.762591
6.21667,260.655,-0.762639
6.21833,260.672,-0.762689
6.22,260.688,-0.762743
6.22167,260.705,-0.762792
6.22333,260.722,-0.762843
6.225,260.738,-0.762893
6.22667,260.755,-0.762949
6.22833,260.771,-0.763001
6.23,260.788,-0.763051
6.23167,260.805,-0.763098
6.23333,260.821,-0.76314
6.235,260.838,-0.763185
6.23667,260.854,-0.76323
6.23833,260.871,-0.763275
6.24,260.888,-0.763317
6.24167,260.904,-0.763363
6.24333,260.921,-0.763406
6.245,260.938,-0.763444
6.24667,260.954,-0.763481
6.24833,260.97,-0.763512
6.25,260.987,-0.763544
6.25167,261.004,-0.763586
6.25333,261.02,-0.763624
6.255,261.037,-0.763666
6.25667,261.054,-0.763707
6.25833,261.07,-0.763755
6.26,261.087,-0.763812
6.26167,261.103,-0.763872
6.26333,261.12,-0.763922
6.265,261.136,-0.763965
6.26667,261.153,-0.763996
6.26833,261.17,-0.764031
6.27,261.187,-0.764056
6.27167,261.203,-0.764084
6.27333,261.22,-0.764118
6.275,261.237,-0.764152
6.27667,261.253,-0.76419
6.27833,261.27,-0.764236
6.28,261.286,-0.764279
6.28167,261.303,-0.764318
6.28333,261.32,-0.764358
6.285,261.336,-0.764399
6.28667,261.352,-0.764438
6.28833,261.369,-0.764478
6.29,261.386,-0.764528
6.29167,261.402,-0.764588
6.29333,261.419,-0.764652
6.295,261.436,-0.764722
6.29667,261.452,-0.764811
6.29833,261.469,-0.764894
6.3,261.485,-0.76497
6.30167,261.502,-0.765042
6.30333,261.519,-0.76511
6.305,261.535,-0.765179
6.30667,261.552,-0.765241
6.30833,261.568,-0.765298
6.31,261.585,-0.765337
6.31167,261.602,-0.765354
6.31333,261.618,-0.765362
6.315,261.635,-0.765364
6.31667,261.652,-0.765352
6.31833,261.668,-0.76535
6.32,261.685,-0.765362
6.32167,261.701,-0.765381
6.32333,261.718,-0.765409
6.325,261.735,-0.765453
6.32667,261.751,-0.765506
6.32833,261.768,-0.765558
6.33,261.785,-0.765618
6.33167,261.801,-0.765683
6.33333,261.818,-0.765743
6.335,261.835,-0.765806
6.33667,261.851,-0.76588
6.33833,261.868,-0.765951
6.34,261.884,-0.766016
6.34167,261.901,-0.76608
6.34333,261.918,-0.766133
6.345,261.934,-0.766181
6.34667,261.951,-0.766211
6.34833,261.968,-0.766241
6.35,261.985,-0.766276
6.35167,262.001,-0.766314
6.35333,262.018,-0.766348
6.355,262.034,-0.766384
6.35667,262.051,-0.766423
6.35833,262.068,-0.766458
6.36,262.084,-0.766505
6.36167,262.101,-0.766544
6.36333,262.117,-0.766578
6.365,262.134,-0.766601
6.36667,262.15,-0.766625
6.36833,262.167,-0.766652
6.37,262.183,-0.766684
6.37167,262.2,-0.76672
6.37333,262.216,-0.766769
6.375,262.233,-0.766825
6.37667,262.25,-0.766891
6.37833,262.267,-0.766958
6.38,262.283,-0.767031
6.38167,262.3,-0.76717
6.38333,262.317,-0.767242
6.385,262.333,-0.767307
6.38667,262.35,-0.76737
6.38833,262.366,-0.767434
6.39,262.383,-0.767489
6.39167,262.4,-0.767534
6.39333,262.416,-0.767582
6.395,262.433,-0.767624
6.39667,262.45,-0.76766
6.39833,262.466,-0.767686
6.4,262.483,-0.767713
6.40167,262.5,-0.767742
6.40333,262.516,-0.767777
6.405,262.532,-0.767815
6.40667,262.549,-0.767863
6.40833,262.565,-0.767913
6.41,262.582,-0.767957
6.41167,262.599,-0.768006
6.41333,262.616,-0.768046
6.415,262.633,-0.768076
6.41667,262.649,-0.7681
6.41833,262.666,-0.768121
6.42,262.683,-0.768132
6.42167,262.699,-0.768137
6.42333,262.716,-0.76814
6.425,262.732,-0.768154
6.42667,262.749,-0.768174
6.42833,262.766,-0.768207
6.43,262.782,-0.768242
6.43167,262.799,-0.768286
6.43333,262.815,-0.768319
6.435,262.832,-0.768351
6.43667,262.849,-0.768373
6.43833,262.865,-0.768392
6.44,262.882,-0.768401
6.44167,262.899,-0.768405
6.44333,262.915,-0.768414
6.445,262.932,-0.768421
6.44667,262.949,-0.768439
6.44833,262.965,-0.768465
6.45,262.982,-0.768502
6.45167,262.998,-0.768549
6.45333,263.015,-0.768592
6.455,263.031,-0.768636
6.45667,263.048,-0.768692
6.45833,263.064,-0.768744
6.46,263.081,-0.768779
6.46167,263.098,-0.768805
6.46333,263.115,-0.768825
6.465,263.131,-0.76885
6.46667,263.148,-0.768878
6.46833,263.165,-0.768909
6.47,263.181,-0.768947
6.47167,263.198,-0.768992
6.47333,263.215,-0.76905
6.475,263.231,-0.769129
6.47667,263.248,-0.769237
6.47833,263.264,-0.769383
6.48,263.281,-0.76945
6.48167,263.298,-0.769502
6.48333,263.314,-0.769549
6.485,263.331,-0.76959
6.48667,263.348,-0.769622
6.48833,263.364,-0.769653
6.49,263.381,-0.769674
6.49167,263.398,-0.769703
6.49333,263.414,-0.76973
6.495,263.431,-0.769765
6.49667,263.448,-0.769803
6.49833,263.464,-0.769826
6.5,263.481,-0.769852
6.50167,263.498,-0.769867
6.50333,263.514,-0.769875
6.505,263.531,-0.769875
6.50667,263.547,-0.769874
6.50833,263.564,-0.76988
6.51,263.58,-0.769896
6.51167,263.597,-0.769917
6.51333,263.614,-0.769948
6.515,263.63,-0.769986
6.51667,263.647,-0.770029
6.51833,263.664,-0.770075
6.52,263.681,-0.770117
6.52167,263.698,-0.770147
6.52333,263.714,-0.77016
6.525,263.731,-0.770161
6.52667,263.747,-0.770161
6.52833,263.764,-0.770166
6.53,263.781,-0.770168
6.53167,263.797,-0.770177
6.53333,263.813,-0.770189
6.535,263.83,-0.770208
6.53667,263.847,-0.770238
6.53833,263.864,-0.770275
6.54,263.88,-0.770319
6.54167,263.897,-0.770367
6.54333,263.914,-0.770421
6.545,263.93,-0.770475
6.54667,263.947,-0.770534
6.54833,263.963,-0.770593
6.55,263.98,-0.770664
6.55167,263.996,-0.770722
6.55333,264.013,-0.770766
6.555,264.029,-0.770813
6.55667,264.045,-0.770855
6.55833,264.062,-0.7709
6.56,264.078,-0.770937
6.56167,264.095,-0.770979
6.56333,264.112,-0.771011
6.565,264.128,-0.771036
6.56667,264.145,-0.771061
6.56833,264.162,-0.771092
6.57,264.179,-0.771122
6.57167,264.196,-0.771138
6.57333,264.212,-0.77115
6.575,264.229,-0.771153
6.57667,264.246,-0.771163
6.57833,264.262,-0.771165
6.58,264.279,-0.771168
6.58167,264.295,-0.771168
6.58333,264.312,-0.771165
6.585,264.328,-0.771171
6.58667,264.344,-0.771188
6.58833,264.361,-0.771221
6.59,264.378,-0.771268
6.59167,264.395,-0.77131
6.59333,264.412,-0.771352
6.595,264.429,-0.771398
6.59667,264.445,-0.771443
6.59833,264.462,-0.77149
6.6,264.479,-0.771522
6.60167,264.495,-0.771546
6.60333,264.512,-0.771564
6.605,264.529,-0.771577
6.60667,264.545,-0.77159
6.60833,264.562,-0.771599
6.61,264.579,-0.771603
6.61167,264.595,-0.771615
6.61333,264.612,-0.771636
6.615,264.628,-0.771658
6.61667,264.645,-0.771675
6.61833,264.661,-0.771703
6.62,264.677,-0.771734
6.62167,264.694,-0.771773
6.62333,264.711,-0.771817
6.625,264.728,-0.771857
6.62667,264.745,-0.771897
6.62833,264.761,-0.771937
6.63,264.778,-0.771975
6.63167,264.795,-0.77201
6.63333,264.811,-0.77204
6.635,264.828,-0.772059
6.63667,264.844,-0.772073
6.63833,264.861,-0.77209
6.64,264.878,-0.772108
6.64167,264.895,-0.772129
6.64333,264.911,-0.77215
6.645,264.928,-0.772174
6.64667,264.945,-0.772202
6.64833,264.962,-0.772248
6.65,264.978,-0.772304
6.65167,264.995,-0.772355
6.65333,265.011,-0.772409
6.655,265.028,-0.772462
6.65667,265.044,-0.772513
6.65833,265.061,-0.772561
6.66,265.078,-0.772604
6.66167,265.095,-0.772642
6.66333,265.111,-0.772669
6.665,265.128,-0.772692
6.66667,265.144,-0.772715
6.66833,265.161,-0.772739
6.67,265.178,-0.77276
6.67167,265.194,-0.772779
6.67333,265.211,-0.772799
6.675,265.228,-0.772829
6.67667,265.244,-0.772858
6.67833,265.261,-0.772881
6.68,265.278,-0.772904
6.68167,265.294,-0.772932
6.68333,265.311,-0.772965
6.685,265.328,-0.773001
6.68667,265.344,-0.773042
6.68833,265.361,-0.773081
6.69,265.377,-0.773121
6.69167,265.394,-0.773155
6.69333,265.411,-0.773192
6.695,265.428,-0.773226
6.69667,265.444,-0.773257
6.69833,265.461,-0.773291
6.7,265.477,-0.773324
6.70167,265.494,-0.773354
6.70333,265.51,-0.773381
6.705,265.527,-0.773408
6.70667,265.544,-0.773432
6.70833,265.56,-0.773463
6.71,265.577,-0.773499
6.71167,265.594,-0.77354
6.71333,265.61,-0.773577
6.715,265.627,-0.773614
6.71667,265.644,-0.77365
6.71833,265.66,-0.773673
6.72,265.677,-0.773686
6.72167,265.694,-0.773688
6.72333,265.711,-0.773689
6.725,265.727,-0.773691
6.72667,265.744,-0.773694
6.72833,265.76,-0.773704
6.73,265.777,-0.773727
6.73167,265.794,-0.773758
6.73333,265.811,-0.773805
6.735,265.827,-0.773861
6.73667,265.844,-0.773917
6.73833,265.861,-0.773968
6.74,265.877,-0.774018
6.74167,265.894,-0.774064
6.74333,265.911,-0.774106
6.745,265.927,-0.774134
6.74667,265.944,-0.774155
6.74833,265.961,-0.774171
6.75,265.977,-0.774185
6.75167,265.994,-0.774198
6.75333,266.01,-0.774213
6.755,266.027,-0.774235
6.75667,266.043,-0.774259
6.75833,266.06,-0.774294
6.76,266.077,-0.774334
6.76167,266.093,-0.77438
6.76333,266.11,-0.774436
6.765,266.126,-0.774492
6.76667,266.143,-0.774543
6.76833,266.16,-0.774587
6.77,266.176,-0.774622
6.77167,266.193,-0.774646
6.77333,266.21,-0.774659
6.775,266.226,-0.774672
6.77667,266.243,-0.774677
6.77833,266.26,-0.774678
6.78,266.276,-0.774677
6.78167,266.293,-0.774675
6.78333,266.31,-0.774672
6.785,266.326,-0.774679
6.78667,266.343,-0.774693
6.78833,266.36,-0.774707
6.79,266.376,-0.774724
6.79167,266.393,-0.77475
6.79333,266.409,-0.774777
6.795,266.426,-0.774809
6.79667,266.442,-0.774846
6.79833,266.459,-0.774879
6.8,266.475,-0.774907
6.80167,266.492,-0.774922
6.80333,266.509,-0.774929
6.805,266.526,-0.774932
6.80667,266.542,-0.774937
6.80833,266.559,-0.774952
6.81,266.576,-0.774969
6.81167,266.593,-0.774989
6.81333,266.609,-0.775015
6.815,266.626,-0.775043
6.81667,266.643,-0.775072
6.81833,266.66,-0.775103
6.82,266.676,-0.775127
6.82167,266.693,-0.775155
6.82333,266.709,-0.775181
6.825,266.726,-0.775206
6.82667,266.743,-0.775247
6.82833,266.759,-0.775283
6.83,266.775,-0.775323
6.83167,266.792,-0.775362
6.83333,266.809,-0.775407
6.835,266.825,-0.775452
6.83667,266.842,-0.775488
6.83833,266.859,-0.775521
6.84,266.876,-0.775542
6.84167,266.892,-0.775562
6.84333,266.909,-0.775578
6.845,266.925,-0.775598
6.84667,266.942,-0.77562
6.84833,266.959,-0.775644
6.85,266.975,-0.775668
6.85167,266.991,-0.775697
6.85333,267.008,-0.775717
6.855,267.025,-0.775735
6.85667,267.042,-0.775752
6.85833,267.058,-0.775768
6.86,267.075,-0.775783
6.86167,267.092,-0.775798
6.86333,267.108,-0.775813
6.865,267.125,-0.775842
6.86667,267.141,-0.775867
6.86833,267.158,-0.775885
6.87,267.175,-0.775901
6.87167,267.192,-0.775916
6.87333,267.208,-0.775923
6.875,267.225,-0.775936
6.87667,267.242,-0.775956
6.87833,267.258,-0.775979
6.88,267.275,-0.776006
6.88167,267.292,-0.776037
6.88333,267.308,-0.776078
6.885,267.325,-0.77612
6.88667,267.341,-0.776165
6.88833,267.357,-0.7762
6.89,267.374,-0.776231
6.89167,267.391,-0.776248
6.89333,267.407,-0.776254
6.895,267.424,-0.776257
6.89667,267.441,-0.776249
6.89833,267.458,-0.776237
6.9,267.474,-0.776224
6.90167,267.491,-0.776214
6.90333,267.508,-0.776217
6.905,267.524,-0.776232
6.90667,267.541,-0.776248
6.90833,267.557,-0.77627
6.91,267.574,-0.776293
6.91167,267.591,-0.776321
6.91333,267.607,-0.776353
6.915,267.624,-0.776393
6.91667,267.64,-0.776426
6.91833,267.657,-0.776455
6.92,267.674,-0.776476
6.92167,267.691,-0.776483
6.92333,267.707,-0.776489
6.925,267.724,-0.776501
6.92667,267.74,-0.776512
6.92833,267.757,-0.776531
6.93,267.774,-0.776559
6.93167,267.791,-0.776595
6.93333,267.807,-0.776633
6.935,267.824,-0.776677
6.93667,267.841,-0.776716
6.93833,267.857,-0.776745
6.94,267.874,-0.776768
6.94167,267.891,-0.776786
6.94333,267.907,-0.776806
6.945,267.923,-0.776816
6.94667,267.94,-0.776816
6.94833,267.957,-0.776826
6.95,267.974,-0.776841
6.95167,267.99,-0.776862
6.95333,268.007,-0.776886
6.955,268.023,-0.776913
6.95667,268.04,-0.776941
6.95833,268.057,-0.776967
6.96,268.074,-0.777002
6.96167,268.09,-0.77704
6.96333,268.107,-0.777066
6.965,268.124,-0.777091
6.96667,268.14,-0.77712
6.96833,268.157,-0.777156
6.97,268.173,-0.777187
6.97167,268.19,-0.777215
6.97333,268.207,-0.777241
6.975,268.223,-0.777262
6.97667,268.24,-0.777289
6.97833,268.257,-0.777312
6.98,268.273,-0.777329
6.98167,268.29,-0.777338
6.98333,268.307,-0.77735
6.985,268.323,-0.777363
6.98667,268.34,-0.777372
6.98833,268.357,-0.777378
6.99,268.374,-0.777383
6.99167,268.39,-0.777389
6.99333,268.407,-0.777391
6.995,268.424,-0.7774
6.99667,268.44,-0.7774
6.99833,268.456,-0.777401
7,268.473,-0.777402
7.00167,268.49,-0.777405
7.00333,268.506,-0.777406
7.005,268.523,-0.77741
7.00667,268.54,-0.777419
7.00833,268.556,-0.777428
7.01,268.573,-0.777432
7.01167,268.59,-0.77744
7.01333,268.607,-0.777441
7.015,268.623,-0.777446
7.01667,268.64,-0.777466
7.01833,268.656,-0.777481
7.02,268.673,-0.7775
7.02167,268.69,-0.777531
7.02333,268.706,-0.777563
7.025,268.723,-0.777604
7.02667,268.74,-0.777648
7.02833,268.756,-0.777714
7.03,268.773,-0.777768
7.03167,268.79,-0.777813
7.03333,268.806,-0.777855
7.035,268.823,-0.777895
7.03667,268.839,-0.777937
7.03833,268.856,-0.777977
7.04,268.872,-0.778008
7.04167,268.889,-0.778032
7.04333,268.905,-0.778052
7.045,268.922,-0.778066
7.04667,268.939,-0.778077
7.04833,268.956,-0.778085
7.05,268.972,-0.778091
7.05167,268.989,-0.778101
7.05333,269.006,-0.778107
7.055,269.022,-0.778119
7.05667,269.039,-0.778143
7.05833,269.056,-0.778174
7.06,269.072,-0.778207
7.06167,269.088,-0.778243
7.06333,269.105,-0.778279
7.065,269.122,-0.778319
7.06667,269.138,-0.778361
7.06833,269.155,-0.778397
7.07,269.172,-0.778435
7.07167,269.189,-0.778458
7.07333,269.205,-0.778466
7.075,269.222,-0.778466
7.07667,269.239,-0.778459
7.07833,269.256,-0.778455
7.08,269.273,-0.778449
7.08167,269.289,-0.778448
7.08333,269.306,-0.778456
7.085,269.322,-0.778467
7.08667,269.339,-0.778482
7.08833,269.356,-0.778502
7.09,269.372,-0.778524
7.09167,269.389,-0.778548
7.09333,269.405,-0.778565
7.095,269.422,-0.778579
7.09667,269.439,-0.778589
7.09833,269.455,-0.778589
7.1,269.472,-0.77859
7.10167,269.488,-0.778586
7.10333,269.505,-0.778586
7.105,269.522,-0.778585
7.10667,269.539,-0.778592
7.10833,269.555,-0.778602
7.11,269.572,-0.778621
7.11167,269.588,-0.778644
7.11333,269.605,-0.778672
7.115,269.622,-0.778701
7.11667,269.638,-0.778735
7.11833,269.655,-0.778774
7.12,269.671,-0.778807
7.12167,269.688,-0.778841
7.12333,269.705,-0.778855
7.125,269.722,-0.778863
7.12667,269.738,-0.778869
7.12833,269.755,-0.778865
7.13,269.771,-0.778854
7.13167,269.788,-0.778835
7.13333,269.805,-0.778818
7.135,269.821,-0.778817
7.13667,269.838,-0.778832
7.13833,269.854,-0.778861
7.14,269.871,-0.778889
7.14167,269.888,-0.778924
7.14333,269.904,-0.778965
7.145,269.921,-0.778999
7.14667,269.938,-0.779037
7.14833,269.954,-0.779076
7.15,269.971,-0.779104
7.15167,269.988,-0.779131
7.15333,270.004,-0.779169
7.155,270.021,-0.779212
7.15667,270.038,-0.779252
7.15833,270.054,-0.779287
7.16,270.071,-0.77931
7.16167,270.087,-0.779329
7.16333,270.104,-0.779337
7.165,270.121,-0.779336
7.16667,270.137,-0.779327
7.16833,270.154,-0.779299
7.17,270.17,-0.779275
7.17167,270.187,-0.779259
7.17333,270.204,-0.779254
7.175,270.22,-0.779261
7.17667,270.237,-0.779279
7.17833,270.253,-0.779306
7.18,270.27,-0.779341
7.18167,270.287,-0.779383
7.18333,270.304,-0.77943
7.185,270.32,-0.779516
7.18667,270.337,-0.779613
7.18833,270.354,-0.77975
7.19,270.37,-0.779818
7.19167,270.387,-0.779904
7.19333,270.404,-0.779952
7.195,270.42,-0.779994
7.19667,270.437,-0.780032
7.19833,270.453,-0.780057
7.2,270.47,-0.780061
7.20167,270.487,-0.780045
7.20333,270.503,-0.780027
7.205,270.52,-0.779998
7.20667,270.537,-0.779981
7.20833,270.553,-0.779954
7.21,270.57,-0.779938
7.21167,270.586,-0.779928
7.21333,270.603,-0.779924
7.215,270.62,-0.779926
7.21667,270.637,-0.779937
7.21833,270.653,-0.779967
7.22,270.67,-0.780004
7.22167,270.687,-0.780041
7.22333,270.704,-0.780079
7.225,270.72,-0.780126
7.22667,270.737,-0.780166
7.22833,270.753,-0.780203
7.23,270.77,-0.780243
7.23167,270.786,-0.780271
7.23333,270.803,-0.780288
7.235,270.82,-0.780304
7.23667,270.836,-0.780324
7.23833,270.853,-0.780347
7.24,270.87,-0.780374
7.24167,270.886,-0.780403
7.24333,270.903,-0.78043
7.245,270.92,-0.78046
7.24667,270.936,-0.780498
7.24833,270.953,-0.780537
7.25,270.97,-0.780563
7.25167,270.986,-0.780584
7.25333,271.003,-0.780608
7.255,271.02,-0.780618
7.25667,271.037,-0.780628
7.25833,271.053,-0.780634
7.26,271.07,-0.780633
7.26167,271.086,-0.780643
7.26333,271.103,-0.780662
7.265,271.12,-0.780693
7.26667,271.136,-0.780724
7.26833,271.153,-0.780754
7.27,271.17,-0.78079
7.27167,271.187,-0.780832
7.27333,271.203,-0.780864
7.275,271.22,-0.780897
7.27667,271.237,-0.780931
7.27833,271.253,-0.780971
7.28,271.269,-0.781013
7.28167,271.286,-0.781049
7.28333,271.303,-0.781083
7.285,271.32,-0.781117
7.28667,271.336,-0.781146
7.28833,271.353,-0.781176
7.29,271.37,-0.781206
7.29167,271.386,-0.781231
7.29333,271.403,-0.781255
7.295,271.419,-0.781276
7.29667,271.436,-0.781299
7.29833,271.452,-0.781322
7.3,271.469,-0.781347
7.30167,271.486,-0.781376
7.30333,271.502,-0.781405
7.305,271.519,-0.781438
7.30667,271.536,-0.781475
7.30833,271.553,-0.781512
7.31,271.569,-0.781536
7.31167,271.585,-0.781566
7.31333,271.602,-0.781592
7.315,271.619,-0.7816
7.31667,271.635,-0.781605
7.31833,271.652,-0.781607
7.32,271.668,-0.781611
7.32167,271.685,-0.781621
7.32333,271.702,-0.781632
7.325,271.719,-0.781645
7.32667,271.735,-0.781664
7.32833,271.752,-0.781688
7.33,271.769,-0.781722
7.33167,271.786,-0.78176
7.33333,271.802,-0.7818
7.335,271.819,-0.781844
7.33667,271.836,-0.781889
7.33833,271.852,-0.781935
7.34,271.869,-0.781977
7.34167,271.885,-0.782014
7.34333,271.902,-0.782045
7.345,271.919,-0.782068
7.34667,271.935,-0.782089
7.34833,271.952,-0.782107
7.35,271.969,-0.782124
7.35167,271.986,-0.782141
7.35333,272.002,-0.782162
7.355,272.019,-0.782177
7.35667,272.035,-0.782196
7.35833,272.052,-0.782218
7.36,272.069,-0.782241
7.36167,272.085,-0.782259
7.36333,272.102,-0.782276
7.365,272.119,-0.782302
7.36667,272.135,-0.782315
7.36833,272.152,-0.782333
7.37,272.169,-0.782346
7.37167,272.185,-0.78236
7.37333,272.202,-0.78238
7.375,272.218,-0.782399
7.37667,272.235,-0.782424
7.37833,272.252,-0.782456
7.38,272.269,-0.782495
7.38167,272.286,-0.782532
7.38333,272.302,-0.782563
7.385,272.319,-0.782595
7.38667,272.335,-0.782618
7.38833,272.352,-0.782634
7.39,272.368,-0.782645
7.39167,272.386,-0.782648
7.39333,272.402,-0.782644
7.395,272.418,-0.782646
7.39667,272.435,-0.782656
7.39833,272.452,-0.78268
7.4,272.468,-0.78271
7.40167,272.485,-0.782739
7.40333,272.501,-0.782766
7.405,272.518,-0.782795
7.40667,272.534,-0.782829
7.40833,272.551,-0.782863
7.41,272.568,-0.782893
7.41167,272.585,-0.782916
7.41333,272.601,-0.782937
7.415,272.618,-0.782961
7.41667,272.635,-0.782992
7.41833,272.652,-0.78303
7.42,272.668,-0.783062
7.42167,272.685,-0.783088
7.42333,272.701,-0.783115
7.425,272.718,-0.783143
7.42667,272.735,-0.783169
7.42833,272.751,-0.783192
7.43,272.768,-0.783211
7.43167,272.785,-0.783229
7.43333,272.802,-0.783244
7.435,272.818,-0.783256
7.43667,272.834,-0.783275
7.43833,272.851,-0.783287
7.44,272.868,-0.783294
7.44167,272.884,-0.7833
7.44333,272.901,-0.783313
7.445,272.918,-0.783336
7.44667,272.935,-0.78337
7.44833,272.951,-0.783409
7.45,272.968,-0.783447
7.45167,272.984,-0.783495
7.45333,273.001,-0.783543
7.455,273.018,-0.783592
7.45667,273.034,-0.783633
7.45833,273.051,-0.783661
7.46,273.068,-0.783671
7.46167,273.084,-0.783687
7.46333,273.101,-0.783705
7.465,273.118,-0.783723
7.46667,273.134,-0.783737
7.46833,273.151,-0.783743
7.47,273.168,-0.783756
7.47167,273.184,-0.783769
7.47333,273.201,-0.783784
7.475,273.218,-0.783807
7.47667,273.235,-0.78384
7.47833,273.251,-0.783869
7.48,273.268,-0.783899
7.48167,273.285,-0.783924
7.48333,273.301,-0.783955
7.485,273.318,-0.783978
7.48667,273.334,-0.784011
7.48833,273.351,-0.78404
7.49,273.368,-0.784071
7.49167,273.384,-0.784102
7.49333,273.401,-0.784122
7.495,273.418,-0.784139
7.49667,273.434,-0.784154
7.49833,273.451,-0.784163
7.5,273.468,-0.784174
7.50167,273.484,-0.784186
7.50333,273.501,-0.7842
7.505,273.517,-0.784209
7.50667,273.534,-0.784222
7.50833,273.551,-0.784246
7.51,273.567,-0.784284
7.51167,273.584,-0.784323
7.51333,273.6,-0.784366
7.515,273.617,-0.78441
7.51667,273.634,-0.784449
7.51833,273.65,-0.784488
7.52,273.667,-0.784524
7.52167,273.684,-0.784562
7.52333,273.7,-0.784598
7.525,273.717,-0.78463
7.52667,273.734,-0.784663
7.52833,273.751,-0.784696
7.53,273.768,-0.784724
7.53167,273.784,-0.784757
7.53333,273.801,-0.784792
7.535,273.817,-0.784837
7.53667,273.834,-0.784886
7.53833,273.851,-0.78493
7.54,273.867,-0.78497
7.54167,273.884,-0.785001
7.54333,273.901,-0.785032
7.545,273.917,-0.785055
7.54667,273.934,-0.785061
7.54833,273.95,-0.785055
7.55,273.967,-0.785056
7.55167,273.984,-0.785061
7.55333,274.001,-0.785075
7.555,274.017,-0.785094
7.55667,274.034,-0.785119
7.55833,274.051,-0.785155
7.56,274.067,-0.785196
7.56167,274.084,-0.785233
7.56333,274.1,-0.785275
7.565,274.117,-0.785315
7.56667,274.134,-0.785354
7.56833,274.151,-0.785388
7.57,274.167,-0.785406
7.57167,274.184,-0.785425
7.57333,274.2,-0.785442
7.575,274.217,-0.78546
7.57667,274.234,-0.785479
7.57833,274.25,-0.785493
7.58,274.267,-0.785511
7.58167,274.284,-0.785536
7.58333,274.3,-0.785566
7.585,274.317,-0.785599
7.58667,274.334,-0.785636
7.58833,274.35,-0.785683
7.59,274.367,-0.785723
7.59167,274.383,-0.785763
7.59333,274.4,-0.785805
7.595,274.416,-0.785851
7.59667,274.433,-0.785898
7.59833,274.449,-0.785945
7.6,274.466,-0.785989
7.60167,274.483,-0.786036
7.60333,274.499,-0.786067
7.605,274.516,-0.786092
7.60667,274.533,-0.786114
7.60833,274.549,-0.786136
7.61,274.566,-0.786159
7.61167,274.583,-0.786186
7.61333,274.6,-0.786209
7.615,274.616,-0.786234
7.61667,274.633,-0.786267
7.61833,274.649,-0.786303
7.62,274.666,-0.78634
7.62167,274.683,-0.786372
7.62333,274.699,-0.786399
7.625,274.716,-0.786419
7.62667,274.732,-0.786441
7.62833,274.749,-0.786467
7.63,274.766,-0.786491
7.63167,274.782,-0.786517
7.63333,274.799,-0.786529
7.635,274.816,-0.786544
7.63667,274.832,-0.786563
7.63833,274.849,-0.786581
7.64,274.866,-0.786601
7.64167,274.883,-0.786623
7.64333,274.899,-0.786646
7.645,274.916,-0.786664
7.64667,274.933,-0.786684
7.64833,274.949,-0.78671
7.65,274.966,-0.786731
7.65167,274.983,-0.786751
7.65333,274.999,-0.78676
7.655,275.016,-0.786765
7.65667,275.033,-0.786757
7.65833,275.05,-0.786753
7.66,275.066,-0.786751
7.66167,275.083,-0.786753
7.66333,275.099,-0.786763
7.665,275.116,-0.786778
7.66667,275.133,-0.786794
7.66833,275.149,-0.786806
7.67,275.166,-0.786816
7.67167,275.183,-0.786826
7.67333,275.199,-0.786828
7.675,275.216,-0.786836
7.67667,275.233,-0.78685
7.67833,275.249,-0.78687
7.68,275.266,-0.786894
7.68167,275.282,-0.786929
7.68333,275.299,-0.786976
7.685,275.316,-0.787052
7.68667,275.333,-0.787178
7.68833,275.349,-0.787283
7.69,275.366,-0.787357
7.69167,275.383,-0.787408
7.69333,275.399,-0.787445
7.695,275.416,-0.787477
7.69667,275.433,-0.787509
7.69833,275.45,-0.787534
7.7,275.466,-0.78755
7.70167,275.483,-0.787573
7.70333,275.499,-0.787601
7.705,275.516,-0.787636
7.70667,275.532,-0.787663
7.70833,275.549,-0.787698
7.71,275.566,-0.78774
7.71167,275.583,-0.787777
7.71333,275.599,-0.787818
7.715,275.616,-0.787852
7.71667,275.633,-0.78788
7.71833,275.65,-0.787908
7.72,275.667,-0.787939
7.72167,275.683,-0.787978
7.72333,275.7,-0.788019
7.725,275.716,-0.788057
7.72667,275.733,-0.788096
7.72833,275.75,-0.788132
7.73,275.766,-0.788158
7.73167,275.782,-0.788178
7.73333,275.799,-0.788193
7.735,275.816,-0.788201
7.73667,275.833,-0.788202
7.73833,275.849,-0.788208
7.74,275.866,-0.788217
7.74167,275.882,-0.788227
7.74333,275.899,-0.788245
7.745,275.915,-0.788274
7.74667,275.932,-0.788302
7.74833,275.949,-0.788325
7.75,275.965,-0.788354
7.75167,275.982,-0.788377
7.75333,275.999,-0.788406
7.755,276.016,-0.788431
7.75667,276.032,-0.788453
7.75833,276.049,-0.788468
7.76,276.066,-0.788475
7.76167,276.083,-0.788487
7.76333,276.099,-0.788512
7.765,276.116,-0.788533
7.76667,276.133,-0.788547
7.76833,276.149,-0.788564
7.77,276.166,-0.788585
7.77167,276.183,-0.788603
7.77333,276.199,-0.78862
7.775,276.216,-0.788637
7.77667,276.232,-0.788652
7.77833,276.249,-0.788656
7.78,276.266,-0.788664
7.78167,276.283,-0.788683
7.78333,276.299,-0.788706
7.785,276.316,-0.788731
7.78667,276.333,-0.78876
7.78833,276.35,-0.788793
7.79,276.366,-0.78882
7.79167,276.383,-0.788859
7.79333,276.399,-0.788899
7.795,276.416,-0.788928
7.79667,276.433,-0.788957
7.79833,276.449,-0.788987
7.8,276.466,-0.789011
7.80167,276.483,-0.789029
7.80333,276.499,-0.789049
7.805,276.516,-0.789073
7.80667,276.533,-0.789096
7.80833,276.549,-0.789118
7.81,276.566,-0.789142
7.81167,276.582,-0.789166
7.81333,276.599,-0.78919
7.815,276.616,-0.789218
7.81667,276.632,-0.789248
7.81833,276.649,-0.789279
7.82,276.666,-0.789304
7.82167,276.683,-0.78933
7.82333,276.699,-0.789353
7.825,276.716,-0.789373
7.82667,276.733,-0.789401
7.82833,276.749,-0.789424
7.83,276.766,-0.789448
7.83167,276.782,-0.789476
7.83333,276.799,-0.789498
7.835,276.816,-0.789518
7.83667,276.832,-0.789541
7.83833,276.849,-0.78956
7.84,276.865,-0.789582
7.84167,276.882,-0.789601
7.84333,276.899,-0.789611
7.845,276.915,-0.789614
7.84667,276.932,-0.789613
7.84833,276.949,-0.789607
7.85,276.965,-0.789603
7.85167,276.982,-0.789595
7.85333,276.999,-0.789586
7.855,277.016,-0.789591
7.85667,277.033,-0.789598
7.85833,277.049,-0.789615
7.86,277.066,-0.789631
7.86167,277.082,-0.789652
7.86333,277.099,-0.789685
7.865,277.116,-0.789711
7.86667,277.132,-0.789742
7.86833,277.149,-0.789771
7.87,277.166,-0.789795
7.87167,277.182,-0.789822
7.87333,277.199,-0.78985
7.875,277.215,-0.789873
7.87667,277.232,-0.789902
7.87833,277.249,-0.789931
7.88,277.265,-0.789958
7.88167,277.282,-0.789987
7.88333,277.299,-0.79001
7.885,277.316,-0.790025
7.88667,277.332,-0.79004
7.88833,277.349,-0.790054
7.89,277.366,-0.790057
7.89167,277.382,-0.790055
7.89333,277.399,-0.790056
7.895,277.416,-0.790071
7.89667,277.432,-0.79009
7.89833,277.449,-0.790118
7.9,277.465,-0.790148
7.90167,277.482,-0.790179
7.90333,277.499,-0.790205
7.905,277.516,-0.790236
7.90667,277.532,-0.790261
7.90833,277.549,-0.790284
7.91,277.565,-0.790302
7.91167,277.582,-0.790312
7.91333,277.599,-0.790321
7.915,277.615,-0.790329
7.91667,277.632,-0.790334
7.91833,277.649,-0.790337
7.92,277.666,-0.790343
7.92167,277.683,-0.790354
7.92333,277.699,-0.790365
7.925,277.716,-0.790387
7.92667,277.733,-0.790417
7.92833,277.749,-0.790457
7.93,277.766,-0.790513
7.93167,277.782,-0.790578
7.93333,277.799,-0.790622
7.935,277.816,-0.790663
7.93667,277.832,-0.790701
7.93833,277.849,-0.790736
7.94,277.866,-0.79077
7.94167,277.882,-0.790796
7.94333,277.899,-0.790817
7.945,277.915,-0.79084
7.94667,277.932,-0.790863
7.94833,277.948,-0.790898
7.95,277.965,-0.790938
7.95167,277.982,-0.790973
7.95333,277.998,-0.791007
7.955,278.015,-0.791043
7.95667,278.032,-0.791078
7.95833,278.048,-0.79111
7.96,278.065,-0.791148
7.96167,278.082,-0.791189
7.96333,278.099,-0.791238
7.965,278.116,-0.791279
7.96667,278.132,-0.791307
7.96833,278.149,-0.791321
7.97,278.165,-0.791327
7.97167,278.182,-0.791329
7.97333,278.199,-0.791328
7.975,278.215,-0.791314
7.97667,278.232,-0.791299
7.97833,278.248,-0.791285
7.98,278.265,-0.791283
7.98167,278.282,-0.791291
7.98333,278.298,-0.791305
7.985,278.315,-0.791328
7.98667,278.332,-0.791364
7.98833,278.349,-0.791398
7.99,278.365,-0.791437
7.99167,278.382,-0.791476
7.99333,278.399,-0.791512
7.995,278.415,-0.791545
7.99667,278.432,-0.791577
7.99833,278.449,-0.791615
8,278.465,-0.791646
8.00167,278.482,-0.791672
8.00333,278.498,-0.791695
8.005,278.515,-0.791719
8.00667,278.532,-0.791742
8.00833,278.548,-0.791769
8.01,278.565,-0.791795
8.01167,278.582,-0.791821
8.01333,278.598,-0.791857
8.015,278.615,-0.791888
8.01667,278.632,-0.791917
8.01833,278.648,-0.791942
8.02,278.665,-0.791965
8.02167,278.682,-0.791978
8.02333,278.699,-0.791983
8.025,278.715,-0.791984
8.02667,278.731,-0.791982
8.02833,278.748,-0.791977
8.03,278.765,-0.791983
8.03167,278.782,-0.792004
8.03333,278.798,-0.792032
8.035,278.814,-0.792062
8.03667,278.831,-0.792103
8.03833,278.848,-0.792174
8.04,278.864,-0.79224
8.04167,278.881,-0.792289
8.04333,278.897,-0.792333
8.045,278.914,-0.792376
8.04667,278.931,-0.792419
8.04833,278.948,-0.792448
8.05,278.964,-0.792463
8.05167,278.981,-0.792475
8.05333,278.998,-0.792483
8.055,279.015,-0.792486
8.05667,279.032,-0.792486
8.05833,279.048,-0.792486
8.06,279.065,-0.792481
8.06167,279.082,-0.792473
8.06333,279.098,-0.792473
8.065,279.115,-0.792484
8.06667,279.132,-0.792506
8.06833,279.148,-0.792544
8.07,279.165,-0.792584
8.07167,279.181,-0.79263
8.07333,279.198,-0.792671
8.075,279.215,-0.792705
8.07667,279.231,-0.792737
8.07833,279.248,-0.792766
8.08,279.265,-0.792782
8.08167,279.282,-0.792791
8.08333,279.298,-0.792797
8.085,279.315,-0.792815
8.08667,279.332,-0.792823
8.08833,279.348,-0.792826
8.09,279.365,-0.792841
8.09167,279.381,-0.792867
8.09333,279.398,-0.792897
8.095,279.415,-0.792931
8.09667,279.432,-0.792969
8.09833,279.448,-0.793008
8.1,279.465,-0.793048
8.10167,279.482,-0.793084
8.10333,279.498,-0.793122
8.105,279.515,-0.79316
8.10667,279.531,-0.793183
8.10833,279.548,-0.793209
8.11,279.565,-0.793238
8.11167,279.581,-0.793277
8.11333,279.598,-0.793328
8.115,279.615,-0.793381
8.11667,279.631,-0.793437
8.11833,279.648,-0.793484
8.12,279.665,-0.793527
8.12167,279.682,-0.793556
8.12333,279.698,-0.79358
8.125,279.715,-0.7936
8.12667,279.731,-0.793614
8.12833,279.748,-0.793623
8.13,279.765,-0.793635
8.13167,279.781,-0.793646
8.13333,279.798,-0.793666
8.135,279.814,-0.793694
8.13667,279.831,-0.793721
8.13833,279.848,-0.793754
8.14,279.865,-0.793779
8.14167,279.881,-0.793802
8.14333,279.898,-0.793821
8.145,279.915,-0.793835
8.14667,279.931,-0.793852
8.14833,279.948,-0.793863
8.15,279.964,-0.793877
8.15167,279.981,-0.793899
8.15333,279.998,-0.793926
8.155,280.014,-0.79396
8.15667,280.031,-0.793991
8.15833,280.048,-0.794027
8.16,280.064,-0.794062
8.16167,280.081,-0.794097
8.16333,280.098,-0.79413
8.165,280.114,-0.794162
8.16667,280.131,-0.794193
8.16833,280.147,-0.794214
8.17,280.164,-0.794234
8.17167,280.181,-0.79426
8.17333,280.197,-0.794282
8.175,280.214,-0.794301
8.17667,280.231,-0.794318
8.17833,280.248,-0.794342
8.18,280.264,-0.794359
8.18167,280.281,-0.794372
8.18333,280.297,-0.794386
8.185,280.314,-0.794398
8.18667,280.331,-0.794401
8.18833,280.348,-0.794397
8.19,280.364,-0.794397
8.19167,280.381,-0.794394
8.19333,280.398,-0.7944
8.195,280.414,-0.794413
8.19667,280.431,-0.794431
8.19833,280.447,-0.794457
8.2,280.464,-0.794494
8.20167,280.481,-0.794536
8.20333,280.498,-0.794576
8.205,280.514,-0.794614
8.20667,280.531,-0.794656
8.20833,280.548,-0.794696
8.21,280.564,-0.79473
8.21167,280.581,-0.794769
8.21333,280.598,-0.794796
8.215,280.615,-0.794822
8.21667,280.631,-0.794845
8.21833,280.648,-0.794874
8.22,280.664,-0.794906
8.22167,280.681,-0.794933
8.22333,280.697,-0.794952
8.225,280.714,-0.794971
8.22667,280.731,-0.794988
8.22833,280.747,-0.795006
8.23,280.764,-0.795023
8.23167,280.781,-0.795042
8.23333,280.797,-0.795063
8.235,280.814,-0.79508
8.23667,280.831,-0.795099
8.23833,280.847,-0.795134
8.24,280.864,-0.795168
8.24167,280.881,-0.795201
8.24333,280.897,-0.795238
8.245,280.914,-0.795276
8.24667,280.931,-0.795322
8.24833,280.947,-0.795366
8.25,280.964,-0.795401
8.25167,280.981,-0.795438
8.25333,280.997,-0.795475
8.255,281.014,-0.795506
8.25667,281.03,-0.795541
8.25833,281.047,-0.795573
8.26,281.064,-0.795608
8.26167,281.08,-0.795642
8.26333,281.097,-0.795676
8.265,281.114,-0.795711
8.26667,281.13,-0.795749
8.26833,281.147,-0.795782
8.27,281.164,-0.79581
8.27167,281.18,-0.795824
8.27333,281.197,-0.795833
8.275,281.213,-0.795837
8.27667,281.23,-0.79584
8.27833,281.247,-0.795847
8.28,281.263,-0.795854
8.28167,281.28,-0.795864
8.28333,281.297,-0.795873
8.285,281.314,-0.795893
8.28667,281.33,-0.795919
8.28833,281.346,-0.795949
8.29,281.363,-0.795975
8.29167,281.38,-0.796001
8.29333,281.396,-0.796019
8.295,281.413,-0.796036
8.29667,281.43,-0.796066
8.29833,281.447,-0.796101
8.3,281.463,-0.796135
8.30167,281.48,-0.796174
8.30333,281.496,-0.796222
8.305,281.513,-0.796273
8.30667,281.53,-0.796325
8.30833,281.547,-0.79637
8.31,281.564,-0.796406
8.31167,281.58,-0.796431
8.31333,281.596,-0.796447
8.315,281.613,-0.796462
8.31667,281.629,-0.796471
8.31833,281.646,-0.796463
8.32,281.663,-0.796456
8.32167,281.68,-0.796454
8.32333,281.696,-0.79645
8.325,281.713,-0.79645
8.32667,281.73,-0.796444
8.32833,281.746,-0.796441
8.33,281.763,-0.796448
8.33167,281.78,-0.796464
8.33333,281.796,-0.796484
8.335,281.813,-0.796512
8.33667,281.83,-0.796542
8.33833,281.846,-0.796581
8.34,281.863,-0.796624
8.34167,281.88,-0.796672
8.34333,281.897,-0.796714
8.345,281.913,-0.796746
8.34667,281.93,-0.796773
8.34833,281.947,-0.796809
8.35,281.963,-0.796847
8.35167,281.98,-0.796881
8.35333,281.997,-0.796917
8.355,282.013,-0.796957
8.35667,282.03,-0.796999
8.35833,282.047,-0.79705
8.36,282.063,-0.797108
8.36167,282.08,-0.797163
8.36333,282.096,-0.797213
8.365,282.114,-0.797264
8.36667,282.13,-0.797315
8.36833,282.147,-0.797356
8.37,282.164,-0.797387
8.37167,282.18,-0.797399
8.37333,282.197,-0.797404
8.375,282.213,-0.797411
8.37667,282.23,-0.797419
8.37833,282.247,-0.797436
8.38,282.264,-0.797449
8.38167,282.28,-0.797468
8.38333,282.297,-0.797485
8.385,282.314,-0.797512
8.38667,282.33,-0.797544
8.38833,282.347,-0.797571
8.39,282.363,-0.797603
8.39167,282.379,-0.797633
8.39333,282.396,-0.797664
8.395,282.413,-0.797701
8.39667,282.43,-0.797744
8.39833,282.446,-0.79779
8.4,282.463,-0.797837
8.40167,282.48,-0.797879
8.40333,282.497,-0.797915
8.405,282.513,-0.797957
8.40667,282.53,-0.79799
8.40833,282.547,-0.798013
8.41,282.563,-0.798032
8.41167,282.58,-0.798055
8.41333,282.596,-0.798083
8.415,282.613,-0.798108
8.41667,282.63,-0.798133
8.41833,282.646,-0.798163
8.42,282.663,-0.798199
8.42167,282.68,-0.798233
8.42333,282.696,-0.798266
8.425,282.713,-0.798296
8.42667,282.73,-0.798328
8.42833,282.747,-0.798361
8.43,282.763,-0.798396
8.43167,282.78,-0.798436
8.43333,282.796,-0.798473
8.435,282.813,-0.79851
8.43667,282.83,-0.79855
8.43833,282.846,-0.798591
8.44,282.863,-0.798622
8.44167,282.879,-0.798656
8.44333,282.896,-0.79868
8.445,282.913,-0.798703
8.44667,282.93,-0.798726
8.44833,282.946,-0.798746
8.45,282.963,-0.798768
8.45167,282.98,-0.798787
8.45333,282.996,-0.798818
8.455,283.013,-0.798854
8.45667,283.03,-0.798889
8.45833,283.046,-0.79891
8.46,283.063,-0.798929
8.46167,283.079,-0.798936
8.46333,283.096,-0.798938
8.465,283.113,-0.798937
8.46667,283.129,-0.798927
8.46833,283.146,-0.798894
8.47,283.163,-0.798866
8.47167,283.179,-0.798848
8.47333,283.196,-0.798834
8.475,283.213,-0.798838
8.47667,283.229,-0.79886
8.47833,283.246,-0.798891
8.48,283.263,-0.798923
8.48167,283.279,-0.798955
8.48333,283.296,-0.79899
8.485,283.313,-0.799028
8.48667,283.329,-0.799062
8.48833,283.346,-0.799096
8.49,283.362,-0.799122
8.49167,283.379,-0.799143
8.49333,283.396,-0.799174
8.495,283.413,-0.79921
8.49667,283.429,-0.799245
8.49833,283.446,-0.79928
8.5,283.463,-0.799317
8.50167,283.48,-0.799356
8.50333,283.496,-0.79939
8.505,283.513,-0.799414
8.50667,283.529,-0.799434
8.50833,283.546,-0.799447
8.51,283.562,-0.799457
8.51167,283.579,-0.799459
8.51333,283.596,-0.79946
8.515,283.612,-0.799469
8.51667,283.629,-0.799482
8.51833,283.646,-0.799503
8.52,283.663,-0.799531
8.52167,283.679,-0.799564
8.52333,283.696,-0.799596
8.525,283.713,-0.79964
8.52667,283.729,-0.799687
8.52833,283.746,-0.799727
8.53,283.762,-0.799765
8.53167,283.779,-0.799804
8.53333,283.796,-0.799844
8.535,283.813,-0.799871
8.53667,283.829,-0.799898
8.53833,283.846,-0.79993
8.54,283.863,-0.799953
8.54167,283.879,-0.799971
8.54333,283.896,-0.799984
8.545,283.912,-0.800012
8.54667,283.929,-0.80005
8.54833,283.946,-0.800093
8.55,283.962,-0.800137
8.55167,283.979,-0.800178
8.55333,283.996,-0.800214
8.555,284.012,-0.800254
8.55667,284.029,-0.800294
8.55833,284.046,-0.800334
8.56,284.062,-0.800371
8.56167,284.079,-0.800391
8.56333,284.095,-0.800414
8.565,284.112,-0.800443
8.56667,284.129,-0.800467
8.56833,284.146,-0.800484
8.57,284.162,-0.80049
8.57167,284.179,-0.800495
8.57333,284.196,-0.800496
8.575,284.212,-0.800496
8.57667,284.229,-0.800501
8.57833,284.246,-0.800511
8.58,284.262,-0.800513
8.58167,284.279,-0.800525
8.58333,284.296,-0.800549
8.585,284.313,-0.800578
8.58667,284.329,-0.800623
8.58833,284.346,-0.800673
8.59,284.362,-0.800725
8.59167,284.379,-0.800797
8.59333,284.396,-0.800866
8.595,284.412,-0.800922
8.59667,284.429,-0.80097
8.59833,284.446,-0.801006
8.6,284.462,-0.801035
8.60167,284.479,-0.801056
8.60333,284.496,-0.801072
8.605,284.512,-0.801093
8.60667,284.529,-0.801119
8.60833,284.545,-0.801152
8.61,284.562,-0.80119
8.61167,284.579,-0.801231
8.61333,284.595,-0.801273
8.615,284.612,-0.801314
8.61667,284.628,-0.801352
8.61833,284.645,-0.801385
8.62,284.662,-0.801414
8.62167,284.679,-0.801436
8.62333,284.696,-0.801457
8.625,284.712,-0.801469
8.62667,284.729,-0.801478
8.62833,284.745,-0.801483
8.63,284.762,-0.801494
8.63167,284.778,-0.801519
8.63333,284.795,-0.801555
8.635,284.812,-0.801596
8.63667,284.829,-0.801641
8.63833,284.845,-0.801687
8.64,284.862,-0.801732
8.64167,284.878,-0.801772
8.64333,284.895,-0.801811
8.645,284.912,-0.801838
8.64667,284.928,-0.801855
8.64833,284.945,-0.801863
8.65,284.962,-0.801866
8.65167,284.979,-0.801874
8.65333,284.995,-0.801883
8.655,285.012,-0.801895
8.65667,285.028,-0.801904
8.65833,285.045,-0.801926
8.66,285.062,-0.80196
8.66167,285.078,-0.802006
8.66333,285.095,-0.80206
8.665,285.112,-0.802116
8.66667,285.128,-0.80217
8.66833,285.145,-0.80222
8.67,285.162,-0.802276
8.67167,285.178,-0.80233
8.67333,285.195,-0.802384
8.675,285.211,-0.802433
8.67667,285.228,-0.802481
8.67833,285.245,-0.802528
8.68,285.262,-0.802577
8.68167,285.278,-0.80262
8.68333,285.295,-0.802663
8.685,285.311,-0.802701
8.68667,285.328,-0.802734
8.68833,285.344,-0.802764
8.69,285.361,-0.802791
8.69167,285.378,-0.80282
8.69333,285.394,-0.802849
8.695,285.411,-0.802884
8.69667,285.428,-0.802926
8.69833,285.444,-0.802968
8.7,285.461,-0.803019
8.70167,285.478,-0.80307
8.70333,285.495,-0.803123
8.705,285.512,-0.803165
8.70667,285.528,-0.803193
8.70833,285.545,-0.803218
8.71,285.561,-0.803233
8.71167,285.578,-0.803257
8.71333,285.595,-0.803291
8.715,285.612,-0.803327
8.71667,285.628,-0.803374
8.71833,285.645,-0.803425
8.72,285.661,-0.803479
8.72167,285.678,-0.803521
8.72333,285.695,-0.803562
8.725,285.711,-0.803595
8.72667,285.728,-0.803617
8.72833,285.745,-0.803629
8.73,285.761,-0.803631
8.73167,285.778,-0.803632
8.73333,285.794,-0.80364
8.735,285.811,-0.803665
8.73667,285.828,-0.803697
8.73833,285.844,-0.803738
8.74,285.861,-0.803784
8.74167,285.878,-0.803832
8.74333,285.894,-0.803875
8.745,285.911,-0.803915
8.74667,285.928,-0.803946
8.74833,285.944,-0.803971
8.75,285.961,-0.803993
8.75167,285.977,-0.804014
8.75333,285.994,-0.804033
8.755,286.011,-0.804051
8.75667,286.028,-0.804084
8.75833,286.044,-0.80412
8.76,286.061,-0.804157
8.76167,286.078,-0.80419
8.76333,286.094,-0.804226
8.765,286.111,-0.804259
8.76667,286.128,-0.804302
8.76833,286.144,-0.804357
8.77,286.161,-0.804418
8.77167,286.177,-0.804478
8.77333,286.194,-0.804539
8.775,286.21,-0.804601
8.77667,286.227,-0.804653
8.77833,286.243,-0.804697
8.78,286.26,-0.804735
8.78167,286.277,-0.804772
8.78333,286.294,-0.804803
8.785,286.31,-0.804826
8.78667,286.327,-0.804845
8.78833,286.344,-0.80486
8.79,286.361,-0.804868
8.79167,286.377,-0.804881
8.79333,286.394,-0.8049
8.795,286.411,-0.804931
8.79667,286.427,-0.804971
8.79833,286.444,-0.805014
8.8,286.46,-0.805058
8.80167,286.477,-0.805105
8.80333,286.493,-0.805154
8.805,286.51,-0.805192
8.80667,286.527,-0.805223
8.80833,286.544,-0.805254
8.81,286.56,-0.805272
8.81167,286.577,-0.805288
8.81333,286.593,-0.805305
8.815,286.61,-0.805317
8.81667,286.626,-0.805335
8.81833,286.643,-0.805349
8.82,286.66,-0.805366
8.82167,286.677,-0.805395
8.82333,286.693,-0.80542
8.825,286.71,-0.805448
8.82667,286.726,-0.805472
8.82833,286.743,-0.805494
8.83,286.76,-0.805513
8.83167,286.776,-0.805534
8.83333,286.793,-0.805565
8.835,286.81,-0.805592
8.83667,286.826,-0.805615
8.83833,286.843,-0.80564
8.84,286.86,-0.805668
8.84167,286.876,-0.805702
8.84333,286.893,-0.805736
8.845,286.91,-0.805779
8.84667,286.926,-0.805826
8.84833,286.943,-0.805873
8.85,286.959,-0.805922
8.85167,286.976,-0.805972
8.85333,286.993,-0.806028
8.855,287.01,-0.806081
8.85667,287.026,-0.80613
8.85833,287.043,-0.806178
8.86,287.059,-0.806221
8.86167,287.076,-0.806254
8.86333,287.093,-0.806291
8.865,287.109,-0.806318
8.86667,287.126,-0.806348
8.86833,287.143,-0.806375
8.87,287.159,-0.806402
8.87167,287.176,-0.806437
8.87333,287.193,-0.806469
8.875,287.21,-0.806506
8.87667,287.226,-0.806548
8.87833,287.243,-0.806594
8.88,287.259,-0.806639
8.88167,287.276,-0.806686
8.88333,287.293,-0.806733
8.885,287.31,-0.806773
8.88667,287.326,-0.806822
8.88833,287.343,-0.806876
8.89,287.359,-0.806928
8.89167,287.376,-0.806979
8.89333,287.392,-0.807035
8.895,287.409,-0.807094
8.89667,287.426,-0.80716
8.89833,287.443,-0.807221
8.9,287.459,-0.80728
8.90167,287.476,-0.807344
8.90333,287.492,-0.807387
8.905,287.509,-0.807427
8.90667,287.526,-0.807469
8.90833,287.543,-0.807504
8.91,287.559,-0.807541
8.91167,287.576,-0.807576
8.91333,287.593,-0.807616
8.915,287.609,-0.807661
8.91667,287.626,-0.807716
8.91833,287.642,-0.807778
8.92,287.659,-0.807841
8.92167,287.676,-0.807902
8.92333,287.692,-0.807949
8.925,287.709,-0.807996
8.92667,287.726,-0.808031
8.92833,287.743,-0.808059
8.93,287.759,-0.808084
8.93167,287.776,-0.808104
8.93333,287.793,-0.808117
8.935,287.809,-0.808134
8.93667,287.826,-0.808151
8.93833,287.843,-0.808174
8.94,287.859,-0.808201
8.94167,287.876,-0.808227
8.94333,287.892,-0.808262
8.945,287.909,-0.808304
8.94667,287.925,-0.80835
8.94833,287.942,-0.808404
8.95,287.959,-0.808466
8.95167,287.975,-0.808531
8.95333,287.992,-0.808599
8.955,288.009,-0.808661
8.95667,288.025,-0.808715
8.95833,288.042,-0.808762
8.96,288.059,-0.808808
8.96167,288.075,-0.808857
8.96333,288.092,-0.808892
8.965,288.109,-0.808921
8.96667,288.125,-0.808953
8.96833,288.142,-0.808989
8.97,288.159,-0.809026
8.97167,288.175,-0.809062
8.97333,288.192,-0.809098
8.975,288.208,-0.809146
8.97667,288.225,-0.8092
8.97833,288.242,-0.80926
8.98,288.259,-0.809326
8.98167,288.275,-0.809397
8.98333,288.291,-0.809458
8.985,288.308,-0.809518
8.98667,288.324,-0.809572
8.98833,288.341,-0.809621
8.99,288.358,-0.809675
8.99167,288.375,-0.809716
8.99333,288.392,-0.809748
8.995,288.408,-0.809785
8.99667,288.425,-0.809828
8.99833,288.441,-0.809874
9,288.458,-0.809922
9.00167,288.475,-0.809967
9.00333,288.491,-0.810008
9.005,288.508,-0.810052
9.00667,288.525,-0.810099
9.00833,288.541,-0.81014
9.01,288.558,-0.810181
9.01167,288.575,-0.810231
9.01333,288.591,-0.810289
9.015,288.608,-0.810346
9.01667,288.624,-0.810403
9.01833,288.641,-0.810459
9.02,288.658,-0.810517
9.02167,288.674,-0.810578
9.02333,288.691,-0.810638
9.025,288.708,-0.810684
9.02667,288.725,-0.810714
9.02833,288.741,-0.81074
9.03,288.758,-0.810765
9.03167,288.775,-0.810791
9.03333,288.791,-0.810822
9.035,288.808,-0.810858
9.03667,288.825,-0.810898
9.03833,288.842,-0.810945
9.04,288.858,-0.810998
9.04167,288.875,-0.811051
9.04333,288.891,-0.811106
9.045,288.908,-0.811162
9.04667,288.924,-0.811226
9.04833,288.941,-0.811295
9.05,288.958,-0.811366
9.05167,288.975,-0.811436
9.05333,288.991,-0.811506
9.055,289.008,-0.811574
9.05667,289.024,-0.811639
9.05833,289.041,-0.811698
9.06,289.058,-0.811758
9.06167,289.074,-0.811806
9.06333,289.091,-0.811838
9.065,289.108,-0.811876
9.06667,289.125,-0.811909
9.06833,289.141,-0.811946
9.07,289.158,-0.811986
9.07167,289.174,-0.812036
9.07333,289.191,-0.812087
9.075,289.208,-0.812144
9.07667,289.224,-0.812206
9.07833,289.241,-0.812268
9.08,289.258,-0.81233
9.08167,289.275,-0.812383
9.08333,289.291,-0.812436
9.085,289.308,-0.812488
9.08667,289.324,-0.812545
9.08833,289.341,-0.812606
9.09,289.358,-0.812664
9.09167,289.375,-0.812715
9.09333,289.391,-0.812765
9.095,289.408,-0.812811
9.09667,289.425,-0.812855
9.09833,289.441,-0.812901
9.1,289.458,-0.812944
9.10167,289.475,-0.812988
9.10333,289.491,-0.813031
9.105,289.508,-0.813083
9.10667,289.524,-0.813148
9.10833,289.541,-0.813223
9.11,289.558,-0.813291
9.11167,289.574,-0.813353
9.11333,289.591,-0.813401
9.115,289.607,-0.813443
9.11667,289.624,-0.813475
9.11833,289.641,-0.8135
9.12,289.657,-0.813523
9.12167,289.674,-0.813539
9.12333,289.691,-0.813552
9.125,289.708,-0.813572
9.12667,289.724,-0.813615
9.12833,289.741,-0.813673
9.13,289.758,-0.813741
9.13167,289.775,-0.813835
9.13333,289.791,-0.813944
9.135,289.808,-0.814045
9.13667,289.825,-0.814117
9.13833,289.841,-0.814191
9.14,289.858,-0.814255
9.14167,289.874,-0.814314
9.14333,289.891,-0.814355
9.145,289.908,-0.814395
9.14667,289.924,-0.814432
9.14833,289.941,-0.814477
9.15,289.958,-0.814522
9.15167,289.974,-0.814572
9.15333,289.991,-0.814631
9.155,290.007,-0.8147
9.15667,290.024,-0.814778
9.15833,290.04,-0.814855
9.16,290.058,-0.814932
9.16167,290.074,-0.815002
9.16333,290.091,-0.815069
9.165,290.107,-0.815132
9.16667,290.124,-0.81519
9.16833,290.141,-0.815241
9.17,290.157,-0.815291
9.17167,290.174,-0.815341
9.17333,290.191,-0.815393
9.175,290.208,-0.815439
9.17667,290.224,-0.81548
9.17833,290.241,-0.815515
9.18,290.257,-0.815556
9.18167,290.274,-0.815594
9.18333,290.29,-0.81563
9.185,290.307,-0.815676
9.18667,290.324,-0.815725
9.18833,290.341,-0.815779
9.19,290.357,-0.815834
9.19167,290.374,-0.815891
9.19333,290.391,-0.815957
9.195,290.408,-0.816029
9.19667,290.424,-0.816128
9.19833,290.441,-0.816209
9.2,290.457,-0.816286
9.20167,290.474,-0.816361
9.20333,290.491,-0.816431
9.205,290.507,-0.816492
9.20667,290.524,-0.816546
9.20833,290.54,-0.816591
9.21,290.557,-0.816628
9.21167,290.574,-0.816653
9.21333,290.59,-0.816679
9.215,290.607,-0.816708
9.21667,290.624,-0.816722
9.21833,290.641,-0.816737
9.22,290.658,-0.816748
9.22167,290.674,-0.816763
9.22333,290.691,-0.816783
9.225,290.708,-0.816815
9.22667,290.724,-0.81687
9.22833,290.741,-0.816958
9.23,290.757,-0.817091
9.23167,290.774,-0.817276
9.23333,290.791,-0.817533
9.235,290.808,-0.81776
9.23667,290.824,-0.817871
9.23833,290.84,-0.817946
9.24,290.857,-0.818015
9.24167,290.874,-0.818074
9.24333,290.891,-0.818124
9.245,290.907,-0.818162
9.24667,290.924,-0.818203
9.24833,290.94,-0.818233
9.25,290.957,-0.818258
9.25167,290.974,-0.818284
9.25333,290.99,-0.818316
9.255,291.007,-0.818352
9.25667,291.024,-0.818386
9.25833,291.04,-0.818434
9.26,291.057,-0.818483
9.26167,291.073,-0.818549
9.26333,291.09,-0.818619
9.265,291.107,-0.818685
9.26667,291.123,-0.818753
9.26833,291.14,-0.818825
9.27,291.157,-0.818903
9.27167,291.173,-0.818989
9.27333,291.19,-0.819069
9.275,291.207,-0.819142
9.27667,291.224,-0.81922
9.27833,291.24,-0.819292
9.28,291.257,-0.819357
9.28167,291.274,-0.819413
9.28333,291.29,-0.819471
9.285,291.307,-0.819526
9.28667,291.323,-0.819576
9.28833,291.34,-0.819626
9.29,291.357,-0.819683
9.29167,291.374,-0.819733
9.29333,291.39,-0.819781
9.295,291.407,-0.819836
9.29667,291.424,-0.819894
9.29833,291.441,-0.819959
9.3,291.457,-0.82002
9.30167,291.474,-0.820075
9.30333,291.49,-0.820122
9.305,291.507,-0.820167
9.30667,291.523,-0.820212
9.30833,291.54,-0.82025
9.31,291.556,-0.82029
9.31167,291.573,-0.820334
9.31333,291.59,-0.820382
9.315,291.606,-0.820424
9.31667,291.623,-0.820466
9.31833,291.64,-0.820503
9.32,291.656,-0.82054
9.32167,291.673,-0.820578
9.32333,291.69,-0.820618
9.325,291.706,-0.82067
9.32667,291.723,-0.820718
9.32833,291.74,-0.82076
9.33,291.756,-0.820806
9.33167,291.773,-0.820852
9.33333,291.79,-0.820893
9.335,291.806,-0.820935
9.33667,291.823,-0.820978
9.33833,291.84,-0.821026
9.34,291.856,-0.821076
9.34167,291.873,-0.821117
9.34333,291.89,-0.821166
9.345,291.907,-0.82122
9.34667,291.923,-0.821274
9.34833,291.94,-0.821323
9.35,291.957,-0.821376
9.35167,291.973,-0.82143
9.35333,291.99,-0.82148
9.355,292.006,-0.821539
9.35667,292.022,-0.821608
9.35833,292.039,-0.821676
9.36,292.056,-0.821744
9.36167,292.073,-0.821808
9.36333,292.09,-0.821866
9.365,292.106,-0.821919
9.36667,292.123,-0.821964
9.36833,292.139,-0.822008
9.37,292.156,-0.822047
9.37167,292.173,-0.822085
9.37333,292.189,-0.822115
9.375,292.206,-0.822153
9.37667,292.222,-0.822197
9.37833,292.239,-0.822249
9.38,292.255,-0.822313
9.38167,292.272,-0.82238
9.38333,292.289,-0.822449
9.385,292.306,-0.822524
9.38667,292.323,-0.822598
9.38833,292.339,-0.822664
9.39,292.356,-0.822725
9.39167,292.372,-0.822782
9.39333,292.388,-0.822833
9.395,292.406,-0.822876
9.39667,292.422,-0.822918
9.39833,292.439,-0.822957
9.4,292.456,-0.82298
9.40167,292.472,-0.823008
9.40333,292.489,-0.823041
9.405,292.505,-0.823078
9.40667,292.522,-0.823116
9.40833,292.538,-0.823149
9.41,292.555,-0.82318
9.41167,292.572,-0.823223
9.41333,292.589,-0.823269
9.415,292.605,-0.82332
9.41667,292.622,-0.823378
9.41833,292.639,-0.823432
9.42,292.655,-0.823495
9.42167,292.672,-0.823557
9.42333,292.688,-0.82362
9.425,292.705,-0.823676
9.42667,292.722,-0.823738
9.42833,292.739,-0.823797
9.43,292.755,-0.823845
9.43167,292.772,-0.823892
9.43333,292.788,-0.823947
9.435,292.805,-0.823997
9.43667,292.822,-0.824042
9.43833,292.838,-0.824087
9.44,292.855,-0.824132
9.44167,292.871,-0.824177
9.44333,292.888,-0.824214
9.445,292.905,-0.824255
9.44667,292.922,-0.824302
9.44833,292.938,-0.824354
9.45,292.954,-0.824403
9.45167,292.971,-0.824448
9.45333,292.988,-0.824488
9.455,293.005,-0.824528
9.45667,293.021,-0.824565
9.45833,293.038,-0.824604
9.46,293.055,-0.824654
9.46167,293.071,-0.824705
9.46333,293.088,-0.824753
9.465,293.105,-0.824807
9.46667,293.121,-0.824859
9.46833,293.138,-0.824909
9.47,293.154,-0.824956
9.47167,293.171,-0.824994
9.47333,293.188,-0.825037
9.475,293.205,-0.825082
9.47667,293.221,-0.825139
9.47833,293.238,-0.825194
9.48,293.254,-0.825254
9.48167,293.271,-0.825321
9.48333,293.288,-0.825383
9.485,293.304,-0.825446
9.48667,293.321,-0.825509
9.48833,293.338,-0.825568
9.49,293.354,-0.825629
9.49167,293.371,-0.825679
9.49333,293.388,-0.825723
9.495,293.405,-0.825768
9.49667,293.421,-0.825815
9.49833,293.438,-0.825848
9.5,293.454,-0.825883
9.50167,293.471,-0.825923
9.50333,293.488,-0.825959
9.505,293.504,-0.825999
9.50667,293.521,-0.826047
9.50833,293.538,-0.8261
9.51,293.555,-0.82615
9.51167,293.571,-0.826204
9.51333,293.588,-0.826261
9.515,293.605,-0.826322
9.51667,293.621,-0.826372
9.51833,293.638,-0.826423
9.52,293.655,-0.826482
9.52167,293.672,-0.82654
9.52333,293.688,-0.826596
9.525,293.705,-0.826654
9.52667,293.722,-0.826717
9.52833,293.738,-0.826777
9.53,293.755,-0.826837
9.53167,293.771,-0.826901
9.53333,293.788,-0.826959
9.535,293.805,-0.827016
9.53667,293.821,-0.827066
9.53833,293.838,-0.827125
9.54,293.855,-0.827184
9.54167,293.871,-0.827239
9.54333,293.888,-0.827289
9.545,293.905,-0.827326
9.54667,293.921,-0.827358
9.54833,293.938,-0.827381
9.55,293.954,-0.8274
9.55167,293.971,-0.827407
9.55333,293.988,-0.82742
9.555,294.004,-0.827439
9.55667,294.021,-0.827469
9.55833,294.038,-0.82751
9.56,294.054,-0.827562
9.56167,294.071,-0.827633
9.56333,294.088,-0.82772
9.565,294.104,-0.827837
9.56667,294.121,-0.828019
9.56833,294.137,-0.82815
9.57,294.154,-0.828235
9.57167,294.17,-0.828307
9.57333,294.187,-0.828375
9.575,294.204,-0.828442
9.57667,294.22,-0.82851
9.57833,294.237,-0.828576
9.58,294.254,-0.828647
9.58167,294.27,-0.82872
9.58333,294.287,-0.828787
9.585,294.304,-0.828851
9.58667,294.321,-0.828906
9.58833,294.337,-0.828946
9.59,294.354,-0.828976
9.59167,294.37,-0.828997
9.59333,294.387,-0.829018
9.595,294.404,-0.829032
9.59667,294.42,-0.829042
9.59833,294.436,-0.829062
9.6,294.453,-0.829077
9.60167,294.47,-0.829112
9.60333,294.486,-0.829148
9.605,294.503,-0.829191
9.60667,294.52,-0.829243
9.60833,294.537,-0.8293
9.61,294.553,-0.829362
9.61167,294.57,-0.829424
9.61333,294.587,-0.829489
9.615,294.603,-0.829545
9.61667,294.62,-0.829591
9.61833,294.637,-0.829635
9.62,294.653,-0.829677
9.62167,294.67,-0.829722
9.62333,294.686,-0.829768
9.625,294.703,-0.829802
9.62667,294.72,-0.829834
9.62833,294.736,-0.829871
9.63,294.753,-0.82991
9.63167,294.77,-0.829952
9.63333,294.787,-0.829987
9.635,294.803,-0.830026
9.63667,294.82,-0.830066
9.63833,294.837,-0.830107
9.64,294.853,-0.830154
9.64167,294.87,-0.830205
9.64333,294.887,-0.830249
9.645,294.903,-0.830293
9.64667,294.92,-0.830345
9.64833,294.936,-0.830389
9.65,294.953,-0.830443
9.65167,294.969,-0.8305
9.65333,294.986,-0.830555
9.655,295.003,-0.830606
9.65667,295.02,-0.830652
9.65833,295.036,-0.830697
9.66,295.053,-0.830738
9.66167,295.07,-0.830775
9.66333,295.086,-0.830803
9.665,295.103,-0.83083
9.66667,295.12,-0.830864
9.66833,295.137,-0.830901
9.67,295.153,-0.830942
9.67167,295.17,-0.830987
9.67333,295.187,-0.831032
9.675,295.203,-0.831081
9.67667,295.22,-0.831137
9.67833,295.237,-0.831194
9.68,295.253,-0.831261
9.68167,295.27,-0.831328
9.68333,295.286,-0.831399
9.685,295.303,-0.831467
9.68667,295.32,-0.83153
9.68833,295.337,-0.831585
9.69,295.353,-0.831632
9.69167,295.37,-0.831668
9.69333,295.387,-0.831694
9.695,295.404,-0.831727
9.69667,295.42,-0.831757
9.69833,295.436,-0.831784
9.7,295.453,-0.831815
9.70167,295.47,-0.831854
9.70333,295.486,-0.831894
9.705,295.503,-0.83194
9.70667,295.52,-0.831989
9.70833,295.536,-0.832029
9.71,295.553,-0.832069
9.71167,295.57,-0.832111
9.71333,295.586,-0.832158
9.715,295.603,-0.832216
9.71667,295.619,-0.832275
9.71833,295.636,-0.832338
9.72,295.653,-0.832404
9.72167,295.67,-0.832467
9.72333,295.686,-0.832532
9.725,295.703,-0.832597
9.72667,295.72,-0.832654
9.72833,295.736,-0.832708
9.73,295.753,-0.832756
9.73167,295.77,-0.832802
9.73333,295.786,-0.832849
9.735,295.803,-0.832895
9.73667,295.82,-0.83294
9.73833,295.836,-0.832986
9.74,295.852,-0.833034
9.74167,295.869,-0.833091
9.74333,295.886,-0.83315
9.745,295.903,-0.833198
9.74667,295.919,-0.833243
9.74833,295.936,-0.833294
9.75,295.953,-0.833338
9.75167,295.969,-0.83338
9.75333,295.986,-0.833419
9.755,296.003,-0.833451
9.75667,296.019,-0.833485
9.75833,296.036,-0.833513
9.76,296.052,-0.83354
9.76167,296.069,-0.833576
9.76333,296.086,-0.833613
9.765,296.103,-0.833652
9.76667,296.119,-0.833691
9.76833,296.136,-0.833728
9.77,296.153,-0.833778
9.77167,296.17,-0.83383
9.77333,296.186,-0.83389
9.775,296.203,-0.833952
9.77667,296.219,-0.834007
9.77833,296.236,-0.834053
9.78,296.253,-0.834095
9.78167,296.269,-0.834129
9.78333,296.286,-0.834167
9.785,296.302,-0.834199
9.78667,296.319,-0.834237
9.78833,296.336,-0.834276
9.79,296.352,-0.834313
9.79167,296.369,-0.83436
9.79333,296.385,-0.834407
9.795,296.402,-0.834447
9.79667,296.419,-0.834491
9.79833,296.436,-0.834528
9.8,296.452,-0.834558
9.80167,296.469,-0.834577
9.80333,296.486,-0.834599
9.805,296.502,-0.834628
9.80667,296.519,-0.834663
9.80833,296.536,-0.834709
9.81,296.552,-0.834761
9.81167,296.569,-0.834821
9.81333,296.585,-0.834879
9.815,296.602,-0.834939
9.81667,296.619,-0.83501
9.81833,296.636,-0.835091
9.82,296.652,-0.835155
9.82167,296.669,-0.835225
9.82333,296.686,-0.835296
9.825,296.702,-0.835363
9.82667,296.719,-0.835431
9.82833,296.736,-0.835496
9.83,296.752,-0.83556
9.83167,296.769,-0.835621
9.83333,296.785,-0.835673
9.835,296.802,-0.835713
9.83667,296.819,-0.835749
9.83833,296.835,-0.835775
9.84,296.852,-0.835792
9.84167,296.869,-0.83581
9.84333,296.885,-0.835827
9.845,296.902,-0.835846
9.84667,296.919,-0.835867
9.84833,296.935,-0.835885
9.85,296.952,-0.835907
9.85167,296.968,-0.835925
9.85333,296.985,-0.835942
9.855,297.002,-0.835963
9.85667,297.018,-0.835991
9.85833,297.035,-0.836027
9.86,297.052,-0.836075
9.86167,297.068,-0.836128
9.86333,297.085,-0.836191
9.865,297.101,-0.836252
9.86667,297.118,-0.836313
9.86833,297.135,-0.836384
9.87,297.152,-0.836455
9.87167,297.168,-0.83652
9.87333,297.185,-0.836579
9.875,297.202,-0.836629
9.87667,297.218,-0.836668
9.87833,297.235,-0.836705
9.88,297.251,-0.836735
9.88167,297.268,-0.836757
9.88333,297.285,-0.836774
9.885,297.301,-0.836786
9.88667,297.318,-0.83681
9.88833,297.335,-0.836845
9.89,297.352,-0.836892
9.89167,297.368,-0.836946
9.89333,297.384,-0.837002
9.895,297.401,-0.83707
9.89667,297.418,-0.837145
9.89833,297.434,-0.837215
9.9,297.451,-0.83728
9.90167,297.468,-0.837343
9.90333,297.485,-0.837409
9.905,297.501,-0.837465
9.90667,297.518,-0.837518
9.90833,297.534,-0.837564
9.91,297.551,-0.837595
9.91167,297.568,-0.837623
9.91333,297.584,-0.83765
9.915,297.601,-0.837673
9.91667,297.618,-0.837696
9.91833,297.635,-0.837714
9.92,297.651,-0.837739
9.92167,297.668,-0.837773
9.92333,297.685,-0.837815
9.925,297.701,-0.837862
9.92667,297.718,-0.837906
9.92833,297.734,-0.837951
9.93,297.751,-0.837995
9.93167,297.768,-0.838043
9.93333,297.785,-0.838095
9.935,297.802,-0.838144
9.93667,297.818,-0.83819
9.93833,297.835,-0.838243
9.94,297.852,-0.838297
9.94167,297.868,-0.838348
9.94333,297.885,-0.838399
9.945,297.901,-0.838451
9.94667,297.918,-0.838508
9.94833,297.934,-0.838559
9.95,297.951,-0.838609
9.95167,297.967,-0.838657
9.95333,297.984,-0.838697
9.955,298.001,-0.838732
9.95667,298.017,-0.83876
9.95833,298.034,-0.838794
9.96,298.051,-0.838833
9.96167,298.068,-0.838868
9.96333,298.084,-0.838919
9.965,298.101,-0.838985
9.96667,298.118,-0.839049
9.96833,298.134,-0.839121
9.97,298.151,-0.839196
9.97167,298.168,-0.839266
9.97333,298.184,-0.839323
9.975,298.201,-0.839375
9.97667,298.218,-0.839419
9.97833,298.234,-0.839454
9.98,298.251,-0.839481
9.98167,298.267,-0.839511
9.98333,298.284,-0.839535
9.985,298.3,-0.839552
9.98667,298.317,-0.839575
9.98833,298.334,-0.8396
9.99,298.35,-0.839631
9.99167,298.367,-0.839664
9.99333,298.384,-0.8397
9.995,298.4,-0.839733
9.99667,298.417,-0.839767
9.99833,298.434,-0.839806
10,298.45,-0.839853
10.0017,298.467,-0.839898
10.0033,298.484,-0.839938
10.005,298.5,-0.839983
10.0067,298.517,-0.840031
10.0083,298.534,-0.840079
10.01,298.551,-0.840132
10.0117,298.567,-0.840195
10.0133,298.584,-0.840255
10.015,298.6,-0.840315
10.0167,298.617,-0.840378
10.0183,298.634,-0.840435
10.02,298.651,-0.840479
10.0217,298.667,-0.840522
10.0233,298.684,-0.840561
10.025,298.701,-0.840592
10.0267,298.717,-0.840611
10.0283,298.734,-0.840632
10.03,298.751,-0.84065
10.0317,298.767,-0.840666
10.0333,298.784,-0.840679
10.035,298.8,-0.840695
10.0367,298.817,-0.840716
10.0383,298.833,-0.840733
10.04,298.85,-0.840757
10.0417,298.867,-0.840785
10.0433,298.883,-0.84082
10.045,298.9,-0.840866
10.0467,298.917,-0.840919
10.0483,298.934,-0.840976
10.05,298.95,-0.841033
10.0517,298.967,-0.841081
10.0533,298.983,-0.84112
10.055,299,-0.841164
10.0567,299.017,-0.841203
10.0583,299.033,-0.84124
10.06,299.05,-0.841279
10.0617,299.066,-0.841334
10.0633,299.083,-0.841392
10.065,299.1,-0.841464
10.0667,299.117,-0.841534
10.0683,299.133,-0.841657
10.07,299.15,-0.841815
10.0717,299.167,-0.841913
10.0733,299.183,-0.841971
10.075,299.2,-0.842013
10.0767,299.217,-0.842047
10.0783,299.233,-0.842072
10.08,299.25,-0.8421
10.0817,299.266,-0.842116
10.0833,299.283,-0.842122
10.085,299.3,-0.842127
10.0867,299.317,-0.842138
10.0883,299.333,-0.842154
10.09,299.35,-0.84218
10.0917,299.366,-0.842206
10.0933,299.383,-0.842238
10.095,299.4,-0.842277
10.0967,299.416,-0.842321
10.0983,299.433,-0.842372
10.1,299.449,-0.842428
10.1017,299.466,-0.84248
10.1033,299.483,-0.842528
10.105,299.499,-0.842581
10.1067,299.516,-0.842622
10.1083,299.533,-0.842662
10.11,299.549,-0.842692
10.1117,299.566,-0.842726
10.1133,299.582,-0.84276
10.115,299.599,-0.842788
10.1167,299.616,-0.842826
10.1183,299.632,-0.842868
10.12,299.649,-0.842909
10.1217,299.666,-0.842955
10.1233,299.682,-0.843009
10.125,299.699,-0.84306
10.1267,299.716,-0.84311
10.1283,299.732,-0.843161
10.13,299.749,-0.843207
10.1317,299.766,-0.843266
10.1333,299.782,-0.843322
10.135,299.799,-0.843378
10.1367,299.816,-0.843438
10.1383,299.832,-0.843488
10.14,299.849,-0.843531
10.1417,299.866,-0.843574
10.1433,299.882,-0.843604
10.145,299.899,-0.843628
10.1467,299.916,-0.843647
10.1483,299.932,-0.843673
10.15,299.949,-0.8437
10.1517,299.966,-0.843725
10.1533,299.982,-0.843749
10.155,299.999,-0.843778
10.1567,300.015,-0.843811
10.1583,300.032,-0.843851
10.16,300.049,-0.843894
10.1617,300.065,-0.843933
10.1633,300.082,-0.843976
10.165,300.099,-0.844018
10.1667,300.115,-0.84406
10.1683,300.132,-0.844102
10.17,300.149,-0.844148
10.1717,300.165,-0.844194
10.1733,300.182,-0.844239
10.175,300.199,-0.844291
10.1767,300.216,-0.844352
10.1783,300.233,-0.844419
10.18,300.249,-0.844475
10.1817,300.266,-0.844532
10.1833,300.282,-0.844586
10.185,300.299,-0.844628
10.1867,300.315,-0.844663
10.1883,300.332,-0.844695
10.19,300.349,-0.844721
10.1917,300.365,-0.844743
10.1933,300.382,-0.844775
10.195,300.399,-0.844804
10.1967,300.416,-0.844839
10.1983,300.432,-0.844875
10.2,300.449,-0.844918
10.2017,300.466,-0.84496
10.2033,300.483,-0.845003
10.205,300.499,-0.845038
10.2067,300.515,-0.845066
10.2083,300.532,-0.845107
10.21,300.549,-0.845157
10.2117,300.566,-0.845209
10.2133,300.582,-0.845263
10.215,300.599,-0.845321
10.2167,300.616,-0.84537
10.2183,300.632,-0.845411
10.22,300.649,-0.845446
10.2217,300.666,-0.845483
10.2233,300.682,-0.845515
10.225,300.699,-0.845543
10.2267,300.715,-0.845579
10.2283,300.732,-0.845616
10.23,300.749,-0.845649
10.2317,300.765,-0.845694
10.2333,300.782,-0.845758
10.235,300.799,-0.845827
10.2367,300.815,-0.845884
10.2383,300.832,-0.845942
10.24,300.849,-0.845992
10.2417,300.865,-0.84604
10.2433,300.882,-0.846086
10.245,300.899,-0.846132
10.2467,300.915,-0.84617
10.2483,300.932,-0.846206
10.25,300.949,-0.84625
10.2517,300.965,-0.846295
10.2533,300.982,-0.846349
10.255,300.998,-0.846413
10.2567,301.015,-0.846471
10.2583,301.032,-0.846527
10.26,301.048,-0.846582
10.2617,301.065,-0.84663
10.2633,301.082,-0.846674
10.265,301.098,-0.846707
10.2667,301.115,-0.846736
10.2683,301.132,-0.846765
10.27,301.148,-0.846795
10.2717,301.165,-0.846829
10.2733,301.182,-0.84686
10.275,301.199,-0.846893
10.2767,301.215,-0.846925
10.2783,301.232,-0.846956
10.28,301.249,-0.846996
10.2817,301.265,-0.847042
10.2833,301.282,-0.847077
10.285,301.299,-0.847106
10.2867,301.315,-0.847135
10.2883,301.332,-0.847167
10.29,301.348,-0.847206
10.2917,301.365,-0.847237
10.2933,301.381,-0.847262
10.295,301.398,-0.847288
10.2967,301.415,-0.847311
10.2983,301.431,-0.847347
10.3,301.448,-0.847392
10.3017,301.465,-0.847439
10.3033,301.482,-0.847495
10.305,301.498,-0.847554
10.3067,301.515,-0.847619
10.3083,301.531,-0.84768
10.31,301.548,-0.847734
10.3117,301.565,-0.847787
10.3133,301.581,-0.847835
10.315,301.598,-0.847877
10.3167,301.615,-0.847916
10.3183,301.631,-0.847956
10.32,301.648,-0.84799
10.3217,301.665,-0.848026
10.3233,301.681,-0.848064
10.325,301.698,-0.848099
10.3267,301.714,-0.848133
10.3283,301.731,-0.848166
10.33,301.748,-0.848208
10.3317,301.765,-0.848255
10.3333,301.781,-0.848299
10.335,301.798,-0.848335
10.3367,301.815,-0.84837
10.3383,301.831,-0.848415
10.34,301.848,-0.848464
10.3417,301.864,-0.848508
10.3433,301.881,-0.848552
10.345,301.898,-0.848597
10.3467,301.915,-0.848643
10.3483,301.931,-0.848697
10.35,301.948,-0.84875
10.3517,301.965,-0.848798
10.3533,301.982,-0.848841
10.355,301.998,-0.848884
10.3567,302.015,-0.848922
10.3583,302.032,-0.848953
10.36,302.048,-0.848978
10.3617,302.065,-0.849001
10.3633,302.081,-0.849019
10.365,302.098,-0.849043
10.3667,302.114,-0.849072
10.3683,302.131,-0.849101
10.37,302.148,-0.849135
10.3717,302.164,-0.849177
10.3733,302.181,-0.849218
10.375,302.198,-0.849272
10.3767,302.214,-0.849334
10.3783,302.231,-0.84939
10.38,302.248,-0.84945
10.3817,302.264,-0.849503
10.3833,302.281,-0.849546
10.385,302.297,-0.849589
10.3867,302.314,-0.84963
10.3883,302.331,-0.849662
10.39,302.348,-0.849696
10.3917,302.364,-0.849722
10.3933,302.381,-0.849747
10.395,302.398,-0.849771
10.3967,302.414,-0.8498
10.3983,302.431,-0.849831
10.4,302.448,-0.849863
10.4017,302.464,-0.849892
10.4033,302.481,-0.849907
10.405,302.498,-0.849926
10.4067,302.514,-0.849949
10.4083,302.531,-0.849976
10.41,302.548,-0.85
10.4117,302.564,-0.85002
10.4133,302.581,-0.850041
10.415,302.598,-0.850067
10.4167,302.614,-0.850102
10.4183,302.631,-0.850136
10.42,302.647,-0.850169
10.4217,302.664,-0.850196
10.4233,302.681,-0.850224
10.425,302.697,-0.850255
10.4267,302.714,-0.850283
10.4283,302.731,-0.850311
10.43,302.748,-0.850344
10.4317,302.764,-0.850383
10.4333,302.78,-0.850427
10.435,302.797,-0.850473
10.4367,302.814,-0.850526
10.4383,302.831,-0.850611
10.44,302.847,-0.850712
10.4417,302.864,-0.85085
10.4433,302.881,-0.850986
10.445,302.897,-0.85109
10.4467,302.914,-0.851161
10.4483,302.931,-0.851223
10.45,302.948,-0.851269
10.4517,302.964,-0.8513
10.4533,302.981,-0.851328
10.455,302.997,-0.851353
10.4567,303.014,-0.851362
10.4583,303.031,-0.851367
10.46,303.048,-0.851384
10.4617,303.064,-0.851402
10.4633,303.081,-0.851424
10.465,303.098,-0.851457
10.4667,303.114,-0.851493
10.4683,303.131,-0.851526
10.47,303.148,-0.851561
10.4717,303.164,-0.851604
10.4733,303.181,-0.851646
10.475,303.198,-0.851693
10.4767,303.214,-0.85173
10.4783,303.231,-0.851775
10.48,303.247,-0.85183
10.4817,303.264,-0.851887
10.4833,303.281,-0.851948
10.485,303.297,-0.852013
10.4867,303.314,-0.852082
10.4883,303.331,-0.852148
10.49,303.347,-0.852206
10.4917,303.364,-0.852262
10.4933,303.381,-0.852313
10.495,303.397,-0.852357
10.4967,303.414,-0.852397
10.4983,303.431,-0.852436
10.5,303.447,-0.85247
10.5017,303.464,-0.852497
10.5033,303.481,-0.852517
10.505,303.498,-0.852542
10.5067,303.514,-0.852566
10.5083,303.53,-0.852583
10.51,303.547,-0.852609
10.5117,303.564,-0.852632
10.5133,303.581,-0.852662
10.515,303.597,-0.852701
10.5167,303.614,-0.85275
10.5183,303.631,-0.852807
10.52,303.647,-0.852873
10.5217,303.664,-0.852934
10.5233,303.681,-0.852984
10.525,303.697,-0.853037
10.5267,303.714,-0.853088
10.5283,303.73,-0.853144
10.53,303.747,-0.85319
10.5317,303.764,-0.853227
10.5333,303.78,-0.853265
10.535,303.797,-0.853299
10.5367,303.814,-0.853322
10.5383,303.83,-0.853344
10.54,303.847,-0.853357
10.5417,303.863,-0.853364
10.5433,303.88,-0.853376
10.545,303.897,-0.853391
10.5467,303.913,-0.853418
10.5483,303.93,-0.853456
10.55,303.947,-0.853501
10.5517,303.963,-0.853558
10.5533,303.98,-0.853626
10.555,303.997,-0.853743
10.5567,304.014,-0.853831
10.5583,304.03,-0.853912
10.56,304.047,-0.853979
10.5617,304.064,-0.854049
10.5633,304.08,-0.854111
10.565,304.097,-0.85416
10.5667,304.113,-0.854199
10.5683,304.13,-0.85423
10.57,304.147,-0.854261
10.5717,304.164,-0.854302
10.5733,304.18,-0.85434
10.575,304.197,-0.854376
10.5767,304.214,-0.854422
10.5783,304.23,-0.854475
10.58,304.247,-0.85453
10.5817,304.263,-0.854586
10.5833,304.28,-0.854633
10.585,304.296,-0.854681
10.5867,304.313,-0.854719
10.5883,304.33,-0.854751
10.59,304.346,-0.854788
10.5917,304.363,-0.854826
10.5933,304.38,-0.854859
10.595,304.396,-0.854894
10.5967,304.413,-0.854934
10.5983,304.43,-0.854971
10.6,304.446,-0.855006
10.6017,304.463,-0.85503
10.6033,304.479,-0.855051
10.605,304.496,-0.85507
10.6067,304.512,-0.855094
10.6083,304.529,-0.855113
10.61,304.546,-0.855137
10.6117,304.563,-0.85517
10.6133,304.579,-0.855213
10.615,304.596,-0.855258
10.6167,304.612,-0.855296
10.6183,304.629,-0.855342
10.62,304.646,-0.855396
10.6217,304.663,-0.855453
10.6233,304.679,-0.855502
10.625,304.696,-0.855555
10.6267,304.713,-0.855607
10.6283,304.73,-0.855654
10.63,304.746,-0.855701
10.6317,304.763,-0.855755
10.6333,304.78,-0.855805
10.635,304.796,-0.855847
10.6367,304.813,-0.855891
10.6383,304.829,-0.855933
10.64,304.845,-0.855968
10.6417,304.862,-0.855996
10.6433,304.879,-0.856016
10.645,304.896,-0.856035
10.6467,304.912,-0.85605
10.6483,304.929,-0.856057
10.65,304.946,-0.856081
10.6517,304.963,-0.856107
10.6533,304.979,-0.856133
10.655,304.996,-0.856164
10.6567,305.013,-0.856194
10.6583,305.029,-0.856224
10.66,305.046,-0.856261
10.6617,305.062,-0.856297
10.6633,305.079,-0.856334
10.665,305.096,-0.856368
10.6667,305.113,-0.8564
10.6683,305.129,-0.85644
10.67,305.146,-0.856491
10.6717,305.163,-0.856545
10.6733,305.179,-0.856596
10.675,305.196,-0.856645
10.6767,305.212,-0.856686
10.6783,305.229,-0.856734
10.68,305.245,-0.856786
10.6817,305.262,-0.856844
10.6833,305.279,-0.856899
10.685,305.296,-0.856955
10.6867,305.312,-0.857005
10.6883,305.329,-0.857061
10.69,305.346,-0.857126
10.6917,305.362,-0.857183
10.6933,305.379,-0.857224
10.695,305.396,-0.857253
10.6967,305.412,-0.857279
10.6983,305.429,-0.8573
10.7,305.446,-0.857321
10.7017,305.463,-0.857332
10.7033,305.479,-0.857345
10.705,305.496,-0.857356
10.7067,305.513,-0.857378
10.7083,305.529,-0.857409
10.71,305.546,-0.857448
10.7117,305.563,-0.857489
10.7133,305.579,-0.857542
10.715,305.596,-0.857591
10.7167,305.612,-0.857638
10.7183,305.629,-0.857689
10.72,305.646,-0.857744
10.7217,305.662,-0.857795
10.7233,305.679,-0.857839
10.725,305.696,-0.857873
10.7267,305.712,-0.857902
10.7283,305.729,-0.857932
10.73,305.745,-0.85797
10.7317,305.762,-0.858016
10.7333,305.779,-0.858049
10.735,305.796,-0.85807
10.7367,305.812,-0.858097
10.7383,305.829,-0.858126
10.74,305.846,-0.858165
10.7417,305.862,-0.858205
10.7433,305.879,-0.858255
10.745,305.896,-0.858304
10.7467,305.912,-0.858357
10.7483,305.929,-0.858415
10.75,305.945,-0.858475
10.7517,305.962,-0.858529
10.7533,305.978,-0.858588
10.755,305.995,-0.858638
10.7567,306.012,-0.858691
10.7583,306.029,-0.858748
10.76,306.045,-0.858797
10.7617,306.062,-0.858846
10.7633,306.078,-0.858893
10.765,306.095,-0.858939
10.7667,306.112,-0.858984
10.7683,306.129,-0.859025
10.77,306.145,-0.859063
10.7717,306.162,-0.859105
10.7733,306.179,-0.859145
10.775,306.195,-0.859175
10.7767,306.212,-0.859202
10.7783,306.228,-0.859223
10.78,306.245,-0.859241
10.7817,306.261,-0.859262
10.7833,306.278,-0.859286
10.785,306.294,-0.859316
10.7867,306.311,-0.859353
10.7883,306.328,-0.859387
10.79,306.345,-0.859425
10.7917,306.361,-0.859462
10.7933,306.378,-0.859496
10.795,306.395,-0.859527
10.7967,306.411,-0.85956
10.7983,306.428,-0.859596
10.8,306.444,-0.85963
10.8017,306.461,-0.85966
10.8033,306.478,-0.859688
10.805,306.494,-0.859722
10.8067,306.511,-0.859752
10.8083,306.528,-0.859787
10.81,306.545,-0.859828
10.8117,306.561,-0.859879
10.8133,306.578,-0.859935
10.815,306.595,-0.859989
10.8167,306.611,-0.860034
10.8183,306.628,-0.860077
10.82,306.644,-0.860111
10.8217,306.661,-0.860141
10.8233,306.678,-0.860175
10.825,306.694,-0.860203
10.8267,306.711,-0.860227
10.8283,306.728,-0.860252
10.83,306.744,-0.860288
10.8317,306.761,-0.86033
10.8333,306.778,-0.860376
10.835,306.794,-0.86042
10.8367,306.811,-0.860465
10.8383,306.828,-0.860519
10.84,306.844,-0.860563
10.8417,306.861,-0.860602
10.8433,306.878,-0.860637
10.845,306.895,-0.860668
10.8467,306.911,-0.860697
10.8483,306.927,-0.86073
10.85,306.944,-0.860763
10.8517,306.961,-0.8608
10.8533,306.977,-0.860848
10.855,306.994,-0.860904
10.8567,307.011,-0.860967
10.8583,307.028,-0.861028
10.86,307.044,-0.861088
10.8617,307.061,-0.861143
10.8633,307.078,-0.861196
10.865,307.094,-0.861246
10.8667,307.111,-0.861291
10.8683,307.128,-0.861331
10.87,307.144,-0.861371
10.8717,307.161,-0.861406
10.8733,307.177,-0.861438
10.875,307.194,-0.861469
10.8767,307.211,-0.861502
10.8783,307.228,-0.861533
10.88,307.244,-0.861557
10.8817,307.261,-0.861581
10.8833,307.278,-0.861608
10.885,307.294,-0.86164
10.8867,307.311,-0.861678
10.8883,307.327,-0.861727
10.89,307.344,-0.861778
10.8917,307.361,-0.861837
10.8933,307.377,-0.861899
10.895,307.394,-0.861961
10.8967,307.411,-0.862026
10.8983,307.427,-0.862087
10.9,307.444,-0.862145
10.9017,307.461,-0.862202
10.9033,307.477,-0.862249
10.905,307.494,-0.86229
10.9067,307.511,-0.862331
10.9083,307.527,-0.86237
10.91,307.544,-0.862406
10.9117,307.561,-0.862449
10.9133,307.577,-0.862498
10.915,307.594,-0.862542
10.9167,307.611,-0.86259
10.9183,307.627,-0.862636
10.92,307.644,-0.862685
10.9217,307.66,-0.862731
10.9233,307.677,-0.862773
10.925,307.693,-0.86282
10.9267,307.71,-0.862863
10.9283,307.727,-0.862898
10.93,307.744,-0.862932
10.9317,307.76,-0.862964
10.9333,307.777,-0.863
10.935,307.794,-0.863036
10.9367,307.81,-0.863064
10.9383,307.827,-0.863101
10.94,307.844,-0.863144
10.9417,307.86,-0.863186
10.9433,307.877,-0.86323
10.945,307.894,-0.863273
10.9467,307.91,-0.863312
10.9483,307.927,-0.863353
10.95,307.944,-0.863388
10.9517,307.96,-0.863426
10.9533,307.977,-0.863475
10.955,307.994,-0.863529
10.9567,308.01,-0.863584
10.9583,308.027,-0.863641
10.96,308.043,-0.863693
10.9617,308.06,-0.863742
10.9633,308.077,-0.863788
10.965,308.094,-0.863829
10.9667,308.11,-0.863868
10.9683,308.127,-0.863902
10.97,308.144,-0.863935
10.9717,308.16,-0.863965
10.9733,308.177,-0.863999
10.975,308.194,-0.864041
10.9767,308.211,-0.864086
10.9783,308.227,-0.864126
10.98,308.244,-0.86416
10.9817,308.26,-0.864194
10.9833,308.277,-0.864234
10.985,308.294,-0.864285
10.9867,308.31,-0.864338
10.9883,308.327,-0.86439
10.99,308.344,-0.864439
10.9917,308.36,-0.864491
10.9933,308.377,-0.864544
10.995,308.393,-0.86459
10.9967,308.41,-0.864634
10.9983,308.427,-0.864676
11,308.444,-0.864717
11.0017,308.46,-0.864754
11.0033,308.477,-0.864789
11.005,308.494,-0.864822
11.0067,308.51,-0.864853
11.0083,308.527,-0.864882
11.01,308.543,-0.864907
11.0117,308.56,-0.864937
11.0133,308.577,-0.864964
11.015,308.593,-0.864994
11.0167,308.61,-0.865031
11.0183,308.627,-0.865071
11.02,308.643,-0.865115
11.0217,308.66,-0.865154
11.0233,308.677,-0.865198
11.025,308.693,-0.865258
11.0267,308.71,-0.865326
11.0283,308.726,-0.865384
11.03,308.743,-0.865438
11.0317,308.76,-0.865489
11.0333,308.776,-0.86554
11.035,308.793,-0.865597
11.0367,308.81,-0.865653
11.0383,308.826,-0.865709
11.04,308.843,-0.865769
11.0417,308.86,-0.865832
11.0433,308.876,-0.865898
11.045,308.893,-0.865951
11.0467,308.91,-0.866004
11.0483,308.926,-0.866047
11.05,308.943,-0.866091
11.0517,308.96,-0.866134
11.0533,308.976,-0.866172
11.055,308.993,-0.866214
11.0567,309.01,-0.866261
11.0583,309.027,-0.866306
11.06,309.043,-0.866354
11.0617,309.06,-0.866405
11.0633,309.077,-0.866454
11.065,309.093,-0.866505
11.0667,309.11,-0.866541
11.0683,309.126,-0.866571
11.07,309.143,-0.866599
11.0717,309.16,-0.866624
11.0733,309.177,-0.866659
11.075,309.193,-0.866705
11.0767,309.21,-0.866747
11.0783,309.227,-0.866786
11.08,309.243,-0.866827
11.0817,309.26,-0.866871
11.0833,309.276,-0.866915
11.085,309.293,-0.866956
11.0867,309.31,-0.866996
11.0883,309.326,-0.867039
11.09,309.343,-0.867084
11.0917,309.359,-0.867123
11.0933,309.376,-0.867162
11.095,309.393,-0.867208
11.0967,309.41,-0.867251
11.0983,309.426,-0.867293
11.1,309.443,-0.867333
11.1017,309.46,-0.867374
11.1033,309.476,-0.867429
11.105,309.493,-0.867481
11.1067,309.509,-0.867531
11.1083,309.526,-0.867582
11.11,309.543,-0.867637
11.1117,309.56,-0.867692
11.1133,309.576,-0.867739
11.115,309.593,-0.867783
11.1167,309.609,-0.867823
11.1183,309.626,-0.867868
11.12,309.643,-0.867916
11.1217,309.659,-0.867969
11.1233,309.676,-0.868027
11.125,309.693,-0.868078
11.1267,309.709,-0.86812
11.1283,309.726,-0.868156
11.13,309.742,-0.86819
11.1317,309.759,-0.868216
11.1333,309.776,-0.868248
11.135,309.792,-0.86828
11.1367,309.809,-0.868311
11.1383,309.826,-0.868352
11.14,309.842,-0.868397
11.1417,309.859,-0.868439
11.1433,309.876,-0.868484
11.145,309.892,-0.868526
11.1467,309.909,-0.868572
11.1483,309.925,-0.868623
11.15,309.942,-0.868677
11.1517,309.959,-0.868728
11.1533,309.975,-0.868782
11.155,309.992,-0.86884
11.1567,310.009,-0.868897
11.1583,310.026,-0.868952
11.16,310.042,-0.869007
11.1617,310.059,-0.869065
11.1633,310.076,-0.86912
11.165,310.092,-0.869174
11.1667,310.109,-0.869231
11.1683,310.126,-0.869287
11.17,310.143,-0.869352
11.1717,310.159,-0.869406
11.1733,310.176,-0.869457
11.175,310.192,-0.869507
11.1767,310.209,-0.869556
11.1783,310.225,-0.869595
11.18,310.242,-0.869623
11.1817,310.259,-0.869657
11.1833,310.275,-0.869692
11.185,310.292,-0.869718
11.1867,310.308,-0.869737
11.1883,310.325,-0.869749
11.19,310.342,-0.869752
11.1917,310.358,-0.86976
11.1933,310.375,-0.869766
11.195,310.391,-0.869777
11.1967,310.408,-0.869788
11.1983,310.424,-0.869807
11.2,310.441,-0.869843
11.2017,310.456,-0.869887
11.2033,310.473,-0.869933
11.205,310.49,-0.869987
11.2067,310.507,-0.87008
11.2083,310.524,-0.870164
11.21,310.54,-0.870277
11.2117,310.557,-0.870452
11.2133,310.574,-0.870606
11.215,310.59,-0.870806
11.2167,310.607,-0.870942
11.2183,310.624,-0.871127
11.22,310.64,-0.871254
11.2217,310.657,-0.871331
11.2233,310.674,-0.871444
11.225,310.691,-0.871514
11.2267,310.708,-0.871574
11.2283,310.724,-0.87163
11.23,310.741,-0.871678
11.2317,310.757,-0.871709
11.2333,310.774,-0.871729
11.235,310.79,-0.87174
11.2367,310.807,-0.871754
11.2383,310.824,-0.871757
11.24,310.84,-0.871757
11.2417,310.857,-0.87177
11.2433,310.874,-0.871798
11.245,310.89,-0.871835
11.2467,310.907,-0.871866
11.2483,310.924,-0.87191
11.25,310.941,-0.871965
11.2517,310.957,-0.872016
11.2533,310.974,-0.872064
11.255,310.991,-0.872115
11.2567,311.007,-0.872163
11.2583,311.023,-0.87221
11.26,311.04,-0.872258
11.2617,311.057,-0.872311
11.2633,311.073,-0.872375
11.265,311.09,-0.872437
11.2667,311.107,-0.872496
11.2683,311.123,-0.872567
11.27,311.14,-0.872624
11.2717,311.157,-0.872667
11.2733,311.173,-0.872705
11.275,311.19,-0.872742
11.2767,311.207,-0.872779
11.2783,311.223,-0.872821
11.28,311.24,-0.872852
11.2817,311.257,-0.872893
11.2833,311.273,-0.872941
11.285,311.29,-0.872983
11.2867,311.307,-0.873023
11.2883,311.323,-0.873066
11.29,311.34,-0.873111
11.2917,311.357,-0.873166
11.2933,311.373,-0.873221
11.295,311.39,-0.873277
11.2967,311.407,-0.87334
11.2983,311.423,-0.873405
11.3,311.44,-0.873478
11.3017,311.457,-0.873552
11.3033,311.473,-0.873642
11.305,311.49,-0.873719
11.3067,311.506,-0.87379
11.3083,311.523,-0.873859
11.31,311.54,-0.873919
11.3117,311.557,-0.873969
11.3133,311.573,-0.874016
11.315,311.59,-0.874057
11.3167,311.606,-0.87409
11.3183,311.623,-0.874121
11.32,311.64,-0.87415
11.3217,311.656,-0.87418
11.3233,311.673,-0.874214
11.325,311.689,-0.874249
11.3267,311.706,-0.874297
11.3283,311.723,-0.874337
11.33,311.739,-0.874382
11.3317,311.756,-0.874433
11.3333,311.773,-0.874485
11.335,311.789,-0.87454
11.3367,311.806,-0.874591
11.3383,311.823,-0.874636
11.34,311.839,-0.874684
11.3417,311.856,-0.87472
11.3433,311.873,-0.874764
11.345,311.889,-0.874802
11.3467,311.906,-0.874846
11.3483,311.923,-0.874887
11.35,311.939,-0.874941
11.3517,311.956,-0.874991
11.3533,311.973,-0.875043
11.355,311.989,-0.875093
11.3567,312.006,-0.875159
11.3583,312.022,-0.875225
11.36,312.039,-0.875289
11.3617,312.056,-0.875351
11.3633,312.073,-0.875413
11.365,312.089,-0.875475
11.3667,312.106,-0.875535
11.3683,312.123,-0.875595
11.37,312.14,-0.875643
11.3717,312.156,-0.875685
11.3733,312.172,-0.875727
11.375,312.189,-0.875768
11.3767,312.206,-0.875811
11.3783,312.223,-0.875858
11.38,312.239,-0.875907
11.3817,312.256,-0.875961
11.3833,312.272,-0.876018
11.385,312.289,-0.876077
11.3867,312.306,-0.876141
11.3883,312.323,-0.87621
11.39,312.339,-0.87627
11.3917,312.356,-0.876328
11.3933,312.372,-0.876384
11.395,312.389,-0.876433
11.3967,312.406,-0.876481
11.3983,312.422,-0.87652
11.4,312.439,-0.876551
11.4017,312.455,-0.87658
11.4033,312.472,-0.876609
11.405,312.488,-0.876638
11.4067,312.505,-0.876668
11.4083,312.522,-0.876703
11.41,312.538,-0.876745
11.4117,312.555,-0.87679
11.4133,312.572,-0.876843
11.415,312.588,-0.876912
11.4167,312.605,-0.876987
11.4183,312.621,-0.877079
11.42,312.638,-0.877166
11.4217,312.655,-0.877268
11.4233,312.672,-0.87736
11.425,312.688,-0.87743
11.4267,312.705,-0.877487
11.4283,312.722,-0.877537
11.43,312.738,-0.877583
11.4317,312.755,-0.877623
11.4333,312.772,-0.877666
11.435,312.789,-0.877711
11.4367,312.805,-0.877748
11.4383,312.822,-0.877781
11.44,312.838,-0.877812
11.4417,312.855,-0.87785
11.4433,312.872,-0.87789
11.445,312.888,-0.877929
11.4467,312.905,-0.877962
11.4483,312.921,-0.877993
11.45,312.938,-0.878027
11.4517,312.955,-0.878058
11.4533,312.971,-0.878088
11.455,312.988,-0.878127
11.4567,313.005,-0.878163
11.4583,313.021,-0.878198
11.46,313.038,-0.878241
11.4617,313.055,-0.878294
11.4633,313.071,-0.878359
11.465,313.088,-0.878426
11.4667,313.105,-0.878495
11.4683,313.122,-0.878608
11.47,313.138,-0.87877
11.4717,313.155,-0.878898
11.4733,313.172,-0.879042
11.475,313.188,-0.879178
11.4767,313.204,-0.879257
11.4783,313.222,-0.879333
11.48,313.238,-0.879402
11.4817,313.255,-0.879459
11.4833,313.271,-0.879508
11.485,313.288,-0.879554
11.4867,313.305,-0.879588
11.4883,313.321,-0.879622
11.49,313.338,-0.879653
11.4917,313.355,-0.879684
11.4933,313.371,-0.879713
11.495,313.388,-0.879744
11.4967,313.405,-0.879785
11.4983,313.421,-0.879835
11.5,313.438,-0.879888
11.5017,313.455,-0.879944
11.5033,313.471,-0.880006
11.505,313.488,-0.880078
11.5067,313.505,-0.880152
11.5083,313.521,-0.880221
11.51,313.538,-0.880291
11.5117,313.555,-0.880359
11.5133,313.571,-0.880422
11.515,313.588,-0.880483
11.5167,313.605,-0.880539
11.5183,313.621,-0.880579
11.52,313.638,-0.880612
11.5217,313.655,-0.880643
11.5233,313.671,-0.880672
11.525,313.688,-0.880698
11.5267,313.705,-0.880727
11.5283,313.721,-0.880759
11.53,313.737,-0.880803
11.5317,313.754,-0.880851
11.5333,313.771,-0.880897
11.535,313.788,-0.880936
11.5367,313.804,-0.880981
11.5383,313.821,-0.881028
11.54,313.838,-0.881084
11.5417,313.854,-0.88114
11.5433,313.871,-0.881204
11.545,313.888,-0.881266
11.5467,313.905,-0.88133
11.5483,313.921,-0.881395
11.55,313.937,-0.881452
11.5517,313.954,-0.8815
11.5533,313.971,-0.88155
11.555,313.987,-0.881601
11.5567,314.004,-0.881655
11.5583,314.02,-0.881711
11.56,314.037,-0.881769
11.5617,314.053,-0.881824
11.5633,314.07,-0.881882
11.565,314.087,-0.881945
11.5667,314.104,-0.882009
11.5683,314.12,-0.882058
11.57,314.137,-0.882106
11.5717,314.154,-0.882152
11.5733,314.17,-0.882191
11.575,314.187,-0.882232
11.5767,314.203,-0.882277
11.5783,314.22,-0.882318
11.58,314.237,-0.882365
11.5817,314.253,-0.882412
11.5833,314.27,-0.882456
11.585,314.286,-0.88251
11.5867,314.303,-0.882573
11.5883,314.32,-0.882646
11.59,314.336,-0.882777
11.5917,314.353,-0.882879
11.5933,314.37,-0.882956
11.595,314.387,-0.883029
11.5967,314.403,-0.883088
11.5983,314.42,-0.883138
11.6,314.437,-0.883178
11.6017,314.453,-0.883212
11.6033,314.47,-0.883248
11.605,314.487,-0.883283
11.6067,314.503,-0.883326
11.6083,314.52,-0.88337
11.61,314.536,-0.883414
11.6117,314.553,-0.883467
11.6133,314.57,-0.883517
11.615,314.587,-0.883561
11.6167,314.603,-0.88361
11.6183,314.62,-0.883654
11.62,314.636,-0.88369
11.6217,314.653,-0.883724
11.6233,314.67,-0.883753
11.625,314.686,-0.883782
11.6267,314.703,-0.883808
11.6283,314.719,-0.88383
11.63,314.736,-0.883855
11.6317,314.753,-0.88389
11.6333,314.769,-0.883931
11.635,314.786,-0.883975
11.6367,314.803,-0.88403
11.6383,314.82,-0.884092
11.64,314.836,-0.884149
11.6417,314.853,-0.884202
11.6433,314.87,-0.884261
11.645,314.886,-0.884321
11.6467,314.903,-0.884379
11.6483,314.92,-0.884436
11.65,314.936,-0.884494
11.6517,314.953,-0.884545
11.6533,314.97,-0.88461
11.655,314.986,-0.884671
11.6567,315.003,-0.884737
11.6583,315.02,-0.884813
11.66,315.036,-0.88489
11.6617,315.053,-0.884998
11.6633,315.07,-0.885083
11.665,315.086,-0.885158
11.6667,315.103,-0.885242
11.6683,315.12,-0.885338
11.67,315.136,-0.885412
11.6717,315.153,-0.885473
11.6733,315.17,-0.885537
11.675,315.186,-0.885601
11.6767,315.203,-0.88567
11.6783,315.22,-0.885726
11.68,315.236,-0.885779
11.6817,315.253,-0.885839
11.6833,315.27,-0.885899
11.685,315.286,-0.885964
11.6867,315.303,-0.886026
11.6883,315.319,-0.886091
11.69,315.336,-0.886158
11.6917,315.353,-0.886216
11.6933,315.369,-0.886268
11.695,315.386,-0.88632
11.6967,315.403,-0.886379
11.6983,315.419,-0.88644
11.7,315.436,-0.886503
11.7017,315.453,-0.886575
11.7033,315.469,-0.886649
11.705,315.486,-0.886717
11.7067,315.503,-0.886792
11.7083,315.519,-0.886873
11.71,315.536,-0.886947
11.7117,315.552,-0.887016
11.7133,315.569,-0.887081
11.715,315.586,-0.887147
11.7167,315.602,-0.887213
11.7183,315.619,-0.887276
11.72,315.636,-0.887344
11.7217,315.652,-0.887409
11.7233,315.669,-0.887474
11.725,315.686,-0.887554
11.7267,315.703,-0.887645
11.7283,315.719,-0.887725
11.73,315.736,-0.887805
11.7317,315.752,-0.887883
11.7333,315.769,-0.887953
11.735,315.785,-0.888015
11.7367,315.802,-0.888077
11.7383,315.819,-0.888128
11.74,315.835,-0.88817
11.7417,315.852,-0.888211
11.7433,315.869,-0.88825
11.745,315.885,-0.888296
11.7467,315.902,-0.888339
11.7483,315.919,-0.888378
11.75,315.936,-0.888424
11.7517,315.952,-0.88848
11.7533,315.969,-0.888539
11.755,315.985,-0.888601
11.7567,316.002,-0.888669
11.7583,316.019,-0.888746
11.76,316.036,-0.888831
11.7617,316.052,-0.888922
11.7633,316.069,-0.889007
11.765,316.086,-0.889094
11.7667,316.102,-0.889198
11.7683,316.119,-0.889284
11.77,316.136,-0.889362
11.7717,316.152,-0.889436
11.7733,316.169,-0.889511
11.775,316.185,-0.889576
11.7767,316.202,-0.88964
11.7783,316.218,-0.889707
11.78,316.235,-0.889778
11.7817,316.252,-0.889842
11.7833,316.269,-0.8899
11.785,316.285,-0.88996
11.7867,316.302,-0.890008
11.7883,316.318,-0.890056
11.79,316.335,-0.890105
11.7917,316.352,-0.890162
11.7933,316.368,-0.890216
11.795,316.385,-0.890273
11.7967,316.402,-0.890343
11.7983,316.418,-0.89042
11.8,316.435,-0.890506
11.8017,316.452,-0.89059
11.8033,316.468,-0.890666
11.805,316.485,-0.890741
11.8067,316.501,-0.890813
11.8083,316.518,-0.890879
11.81,316.534,-0.890943
11.8117,316.551,-0.891013
11.8133,316.568,-0.891086
11.815,316.584,-0.891164
11.8167,316.602,-0.891239
11.8183,316.618,-0.891314
11.82,316.635,-0.891402
11.8217,316.651,-0.891489
11.8233,316.668,-0.891579
11.825,316.685,-0.891662
11.8267,316.701,-0.891734
11.8283,316.718,-0.8918
11.83,316.735,-0.891877
11.8317,316.751,-0.891955
11.8333,316.768,-0.892032
11.835,316.785,-0.892094
11.8367,316.801,-0.892157
11.8383,316.818,-0.892215
11.84,316.835,-0.892269
11.8417,316.851,-0.892328
11.8433,316.868,-0.892388
11.845,316.885,-0.892437
11.8467,316.901,-0.892489
11.8483,316.918,-0.892542
11.85,316.934,-0.892596
11.8517,316.951,-0.892657
11.8533,316.968,-0.89271
11.855,316.985,-0.892773
11.8567,317.001,-0.892848
11.8583,317.017,-0.892927
11.86,317.034,-0.893011
11.8617,317.051,-0.893099
11.8633,317.067,-0.893191
11.865,317.084,-0.893328
11.8667,317.101,-0.893483
11.8683,317.118,-0.893574
11.87,317.135,-0.893661
11.8717,317.152,-0.893748
11.8733,317.168,-0.89383
11.875,317.184,-0.893911
11.8767,317.201,-0.893989
11.8783,317.217,-0.894059
11.88,317.234,-0.894116
11.8817,317.25,-0.894173
11.8833,317.267,-0.894235
11.885,317.284,-0.894297
11.8867,317.3,-0.89435
11.8883,317.317,-0.894412
11.89,317.334,-0.894483
11.8917,317.351,-0.894557
11.8933,317.367,-0.894629
11.895,317.384,-0.894701
11.8967,317.401,-0.894766
11.8983,317.417,-0.894827
11.9,317.434,-0.894894
11.9017,317.45,-0.894976
11.9033,317.467,-0.895065
11.905,317.483,-0.895145
11.9067,317.5,-0.895224
11.9083,317.517,-0.895309
11.91,317.533,-0.895402
11.9117,317.55,-0.895492
11.9133,317.567,-0.895575
11.915,317.583,-0.89565
11.9167,317.6,-0.895715
11.9183,317.617,-0.895773
11.92,317.634,-0.89583
11.9217,317.65,-0.895885
11.9233,317.667,-0.89595
11.925,317.684,-0.896024
11.9267,317.7,-0.896101
11.9283,317.717,-0.896185
11.93,317.734,-0.896268
11.9317,317.75,-0.896355
11.9333,317.767,-0.896437
11.935,317.783,-0.896511
11.9367,317.8,-0.896582
11.9383,317.816,-0.896645
11.94,317.833,-0.896704
11.9417,317.85,-0.896761
11.9433,317.866,-0.89682
11.945,317.882,-0.896886
11.9467,317.899,-0.896959
11.9483,317.916,-0.897045
11.95,317.933,-0.897229
11.9517,317.95,-0.897485
11.9533,317.966,-0.89773
11.955,317.983,-0.898036
11.9567,318,-0.898358
11.9583,318.016,-0.898552
11.96,318.033,-0.898652
11.9617,318.05,-0.898745
11.9633,318.066,-0.898833
11.965,318.082,-0.898914
11.9667,318.099,-0.898987
11.9683,318.116,-0.899057
11.97,318.132,-0.899124
11.9717,318.149,-0.899189
11.9733,318.166,-0.899253
11.975,318.182,-0.899328
11.9767,318.199,-0.899409
11.9783,318.216,-0.899488
11.98,318.233,-0.899569
11.9817,318.25,-0.89965
11.9833,318.266,-0.899738
11.985,318.283,-0.899833
11.9867,318.3,-0.899925
11.9883,318.316,-0.90001
11.99,318.333,-0.900091
11.9917,318.349,-0.900174
11.9933,318.366,-0.900253
11.995,318.383,-0.900333
11.9967,318.399,-0.900407
11.9983,318.416,-0.900475
12,318.433,-0.900541
12.0017,318.45,-0.900605
12.0033,318.466,-0.900676
12.005,318.483,-0.900751
12.0067,318.499,-0.900827
12.0083,318.516,-0.900907
12.01,318.532,-0.900977
12.0117,318.549,-0.901037
12.0133,318.566,-0.901102
12.015,318.582,-0.90117
12.0167,318.599,-0.901242
12.0183,318.616,-0.901321
12.02,318.633,-0.901406
12.0217,318.649,-0.901504
12.0233,318.666,-0.901634
12.025,318.682,-0.901775
12.0267,318.699,-0.901979
12.0283,318.716,-0.902087
12.03,318.732,-0.902186
12.0317,318.749,-0.902282
12.0333,318.766,-0.902373
12.035,318.782,-0.902467
12.0367,318.799,-0.902565
12.0383,318.816,-0.902657
12.04,318.833,-0.902752
12.0417,318.85,-0.90285
12.0433,318.866,-0.902945
12.045,318.883,-0.903045
12.0467,318.899,-0.903147
12.0483,318.916,-0.903248
12.05,318.932,-0.903344
12.0517,318.949,-0.903433
12.0533,318.966,-0.903517
12.055,318.982,-0.903594
12.0567,318.999,-0.903666
12.0583,319.015,-0.903736
12.06,319.032,-0.903809
12.0617,319.049,-0.903883
12.0633,319.065,-0.903959
12.065,319.082,-0.904046
12.0667,319.099,-0.904138
12.0683,319.116,-0.904236
12.07,319.132,-0.90434
12.0717,319.148,-0.904459
12.0733,319.165,-0.904565
12.075,319.182,-0.904686
12.0767,319.198,-0.904787
12.0783,319.215,-0.904885
12.08,319.232,-0.904972
12.0817,319.248,-0.905063
12.0833,319.265,-0.905155
12.085,319.282,-0.905244
12.0867,319.298,-0.905333
12.0883,319.315,-0.905422
12.09,319.332,-0.905515
12.0917,319.348,-0.905612
12.0933,319.365,-0.905707
12.095,319.382,-0.905801
12.0967,319.399,-0.905886
12.0983,319.415,-0.905977
12.1,319.432,-0.906064
12.1017,319.448,-0.906152
12.1033,319.465,-0.906245
12.105,319.482,-0.906343
12.1067,319.498,-0.906442
12.1083,319.515,-0.906548
12.11,319.531,-0.90665
12.1117,319.548,-0.906762
12.1133,319.565,-0.906871
12.115,319.581,-0.90697
12.1167,319.598,-0.907065
12.1183,319.615,-0.907151
12.12,319.631,-0.907234
12.1217,319.648,-0.907317
12.1233,319.665,-0.907403
12.125,319.682,-0.907487
12.1267,319.698,-0.907575
12.1283,319.715,-0.907663
12.13,319.732,-0.907743
12.1317,319.748,-0.907827
12.1333,319.765,-0.907911
12.135,319.781,-0.907996
12.1367,319.798,-0.908073
12.1383,319.815,-0.90816
12.14,319.831,-0.908249
12.1417,319.848,-0.90835
12.1433,319.864,-0.908449
12.145,319.881,-0.908548
12.1467,319.898,-0.90867
12.1483,319.914,-0.90886
12.15,319.931,-0.908982
12.1517,319.948,-0.909087
12.1533,319.964,-0.909191
12.155,319.981,-0.909295
12.1567,319.997,-0.909397
12.1583,320.014,-0.909486
12.16,320.031,-0.909578
12.1617,320.048,-0.909669
12.1633,320.065,-0.909757
12.165,320.081,-0.909846
12.1667,320.098,-0.909938
12.1683,320.114,-0.910037
12.17,320.131,-0.910134
12.1717,320.148,-0.910233
12.1733,320.164,-0.910344
12.175,320.181,-0.910454
12.1767,320.197,-0.910564
12.1783,320.214,-0.910676
12.18,320.231,-0.910792
12.1817,320.248,-0.910904
12.1833,320.265,-0.911015
12.185,320.281,-0.911118
12.1867,320.298,-0.911223
12.1883,320.314,-0.911321
12.19,320.331,-0.911423
12.1917,320.347,-0.911525
12.1933,320.364,-0.911615
12.195,320.381,-0.911703
12.1967,320.397,-0.91181
12.1983,320.414,-0.911921
12.2,320.43,-0.912036
12.2017,320.447,-0.912209
12.2033,320.464,-0.912366
12.205,320.481,-0.912688
12.2067,320.498,-0.912956
12.2083,320.514,-0.913262
12.21,320.531,-0.913472
12.2117,320.547,-0.913621
12.2133,320.564,-0.913743
12.215,320.581,-0.913885
12.2167,320.597,-0.914009
12.2183,320.615,-0.914127
12.22,320.631,-0.914241
12.2217,320.648,-0.914351
12.2233,320.666,-0.91445
12.225,320.682,-0.914543
12.2267,320.699,-0.914631
12.2283,320.715,-0.914719
12.23,320.732,-0.914813
12.2317,320.749,-0.914905
12.2333,320.765,-0.914999
12.235,320.782,-0.915099
12.2367,320.798,-0.915203
12.2383,320.815,-0.915312
12.24,320.831,-0.91542
12.2417,320.848,-0.915536
12.2433,320.865,-0.915645
12.245,320.881,-0.915762
12.2467,320.898,-0.915883
12.2483,320.915,-0.916133
12.25,320.931,-0.916396
12.2517,320.948,-0.916687
12.2533,320.965,-0.916872
12.255,320.981,-0.917017
12.2567,320.998,-0.917135
12.2583,321.015,-0.917252
12.26,321.032,-0.91736
12.2617,321.048,-0.917466
12.2633,321.065,-0.917572
12.265,321.081,-0.917676
12.2667,321.098,-0.917785
12.2683,321.114,-0.917903
12.27,321.131,-0.918042
12.2717,321.147,-0.918262
12.2733,321.164,-0.918496
12.275,321.181,-0.91879
12.2767,321.197,-0.918998
12.2783,321.214,-0.919138
12.28,321.23,-0.919322
12.2817,321.247,-0.919506
12.2833,321.263,-0.919636
12.285,321.28,-0.91976
12.2867,321.297,-0.919884
12.2883,321.314,-0.920004
12.29,321.33,-0.920126
12.2917,321.347,-0.920242
12.2933,321.364,-0.920361
12.295,321.38,-0.920484
12.2967,321.397,-0.9206
12.2983,321.414,-0.920713
12.3,321.431,-0.920825
12.3017,321.447,-0.92094
12.3033,321.464,-0.921054
12.305,321.48,-0.921169
12.3067,321.497,-0.921288
12.3083,321.514,-0.921409
12.31,321.53,-0.921529
12.3117,321.547,-0.92165
12.3133,321.563,-0.921776
12.315,321.58,-0.921903
12.3167,321.597,-0.922022
12.3183,321.613,-0.922139
12.32,321.63,-0.922257
12.3217,321.646,-0.922367
12.3233,321.663,-0.922482
12.325,321.679,-0.922602
12.3267,321.696,-0.922725
12.3283,321.712,-0.922858
12.33,321.729,-0.923017
12.3317,321.746,-0.923149
12.3333,321.763,-0.923282
12.335,321.78,-0.923403
12.3367,321.797,-0.923523
12.3383,321.813,-0.923638
12.34,321.83,-0.923751
12.3417,321.846,-0.923884
12.3433,321.862,-0.924096
12.345,321.879,-0.924291
12.3467,321.896,-0.924564
12.3483,321.913,-0.924917
12.35,321.929,-0.925321
12.3517,321.946,-0.925666
12.3533,321.962,-0.925895
12.355,321.979,-0.926036
12.3567,321.996,-0.926173
12.3583,322.012,-0.926305
12.36,322.029,-0.926432
12.3617,322.046,-0.926559
12.3633,322.062,-0.926681
12.365,322.079,-0.926807
12.3667,322.095,-0.926934
12.3683,322.112,-0.927062
12.37,322.129,-0.927193
12.3717,322.145,-0.927323
12.3733,322.162,-0.927456
12.375,322.178,-0.927592
12.3767,322.195,-0.927731
12.3783,322.212,-0.927871
12.38,322.229,-0.928012
12.3817,322.246,-0.928194
12.3833,322.262,-0.928406
12.385,322.279,-0.928642
12.3867,322.296,-0.929036
12.3883,322.312,-0.929444
12.39,322.329,-0.929802
12.3917,322.345,-0.930214
12.3933,322.362,-0.930598
12.395,322.379,-0.931155
12.3967,322.395,-0.931625
12.3983,322.412,-0.931882
12.4,322.429,-0.932082
12.4017,322.445,-0.932216
12.4033,322.462,-0.932348
12.405,322.479,-0.932513
12.4067,322.496,-0.932691
12.4083,322.512,-0.932819
12.41,322.529,-0.932951
12.4117,322.545,-0.933149
12.4133,322.562,-0.933583
12.415,322.579,-0.934109
12.4167,322.596,-0.934673
12.4183,322.612,-0.935293
12.42,322.629,-0.93618
12.4217,322.645,-0.936772
12.4233,322.662,-0.93727
12.425,322.678,-0.937628
12.4267,322.695,-0.937874
12.4283,322.712,-0.938006
12.43,322.728,-0.93814
12.4317,322.745,-0.93827
12.4333,322.762,-0.938395
12.435,322.778,-0.938602
12.4367,322.795,-0.938819
12.4383,322.812,-0.93895
12.44,322.828,-0.939074
12.4417,322.845,-0.939206
12.4433,322.862,-0.939404
12.445,322.878,-0.939591
12.4467,322.895,-0.939729
12.4483,322.912,-0.939915
12.45,322.928,-0.940092
12.4517,322.945,-0.940306
12.4533,322.961,-0.940608
12.455,322.978,-0.940881
12.4567,322.995,-0.941167
12.4583,323.012,-0.941429
12.46,323.028,-0.941675
12.4617,323.045,-0.942004
12.4633,323.061,-0.942378
12.465,323.078,-0.942726
12.4667,323.095,-0.94316
12.4683,323.111,-0.943834
12.47,323.128,-0.944505
12.4717,323.145,-0.945145
12.4733,323.161,-0.945625
12.475,323.178,-0.945822
12.4767,323.195,-0.945992
12.4783,323.211,-0.946165
12.48,323.228,-0.946363
12.4817,323.244,-0.946498
12.4833,323.261,-0.946782
12.485,323.278,-0.946912
12.4867,323.294,-0.947111
12.4883,323.311,-0.947302
12.49,323.328,-0.947537
12.4917,323.345,-0.947813
12.4933,323.361,-0.948024
12.495,323.378,-0.948235
12.4967,323.394,-0.94844
12.4983,323.411,-0.948728
12.5,323.428,-0.949063
12.5017,323.444,-0.949428
12.5033,323.461,-0.949896
12.505,323.478,-0.950584
12.5067,323.494,-0.951222
12.5083,323.511,-0.95163
12.51,323.527,-0.952056
12.5117,323.544,-0.952616
12.5133,323.561,-0.953225
12.515,323.577,-0.953775
12.5167,323.594,-0.954111
12.5183,323.611,-0.954474
12.52,323.627,-0.954732
12.5217,323.644,-0.954936
12.5233,323.661,-0.955108
12.525,323.678,-0.955287
12.5267,323.694,-0.955443
12.5283,323.711,-0.95559
12.53,323.727,-0.955719
12.5317,323.744,-0.955882
12.5333,323.76,-0.956079
12.535,323.777,-0.956398
12.5367,323.794,-0.956921
12.5383,323.81,-0.957446
12.54,323.827,-0.958028
12.5417,323.844,-0.958543
12.5433,323.86,-0.959105
12.545,323.877,-0.959744
12.5467,323.893,-0.96066
12.5483,323.91,-0.961328
12.55,323.926,-0.961849
12.5517,323.943,-0.962392
12.5533,323.96,-0.963158
12.555,323.976,-0.964083
12.5567,323.993,-0.965065
12.5583,324.01,-0.965885
12.56,324.026,-0.966457
12.5617,324.043,-0.966997
12.5633,324.06,-0.967597
12.565,324.076,-0.968258
12.5667,324.093,-0.968986
12.5683,324.11,-0.969523
12.57,324.126,-0.969915
12.5717,324.143,-0.970387
12.5733,324.159,-0.970829
12.575,324.176,-0.971308
12.5767,324.192,-0.971697
12.5783,324.209,-0.972144
12.58,324.226,-0.972495
12.5817,324.242,-0.972994
12.5833,324.259,-0.973513
12.585,324.276,-0.974098
12.5867,324.292,-0.974617
12.5883,324.309,-0.975164
12.59,324.325,-0.975767
12.5917,324.342,-0.976365
12.5933,324.359,-0.976941
12.595,324.375,-0.977531
12.5967,324.392,-0.978262
12.5983,324.409,-0.97918
12.6,324.425,-0.980008
12.6017,324.442,-0.980936
12.6033,324.459,-0.981803
12.605,324.475,-0.982572
12.6067,324.491,-0.98319
12.6083,324.508,-0.983947
12.61,324.525,-0.984685
12.6117,324.541,-0.985212
12.6133,324.558,-0.985546
12.615,324.575,-0.985899
12.6167,324.592,-0.986189
12.6183,324.608,-0.986502
12.62,324.625,-0.98681
12.6217,324.641,-0.98737
12.6233,324.658,-0.988037
12.625,324.675,-0.988668
12.6267,324.692,-0.989691
12.6283,324.708,-0.990854
12.63,324.725,-0.991798
12.6317,324.741,-0.992547
12.6333,324.758,-0.993344
12.635,324.775,-0.994321
12.6367,324.791,-0.995226
12.6383,324.807,-0.996086
12.64,324.824,-0.997129
12.6417,324.841,-0.998318
12.6433,324.857,-0.999346
12.645,324.874,-1.0004
12.6467,324.891,-1.00159
12.6483,324.907,-1.00255
12.65,324.924,-1.00344
12.6517,324.941,-1.00421
12.6533,324.957,-1.00504
12.655,324.974,-1.00575
12.6567,324.99,-1.0064
12.6583,325.007,-1.00711
12.66,325.024,-1.00776
12.6617,325.04,-1.00843
12.6633,325.057,-1.00906
12.665,325.074,-1.01004
12.6667,325.09,-1.0107
12.6683,325.107,-1.01125
12.67,325.123,-1.01189
12.6717,325.14,-1.01272
12.6733,325.157,-1.01398
12.675,325.174,-1.01553
12.6767,325.19,-1.01731
12.6783,325.207,-1.01863
12.68,325.223,-1.01982
12.6817,325.24,-1.02088
12.6833,325.256,-1.0219
12.685,325.273,-1.02278
12.6867,325.29,-1.02341
12.6883,325.306,-1.02403
12.69,325.323,-1.02477
12.6917,325.34,-1.02539
12.6933,325.356,-1.02609
12.695,325.372,-1.02697
12.6967,325.389,-1.02791
12.6983,325.406,-1.02876
12.7,325.423,-1.02975
12.7017,325.439,-1.0314
12.7033,325.456,-1.03281
12.705,325.472,-1.03435
12.7067,325.489,-1.03576
12.7083,325.506,-1.03698
12.71,325.522,-1.03801
12.7117,325.539,-1.03885
12.7133,325.556,-1.03957
12.715,325.573,-1.04035
12.7167,325.589,-1.04113
12.7183,325.606,-1.04207
12.72,325.622,-1.0433
12.7217,325.638,-1.0448
12.7233,325.655,-1.04652
12.725,325.671,-1.04805
12.7267,325.688,-1.04928
12.7283,325.704,-1.05055
12.73,325.721,-1.05193
12.7317,325.736,-1.05321
12.7333,325.753,-1.05411
12.735,325.77,-1.05483
12.7367,325.787,-1.05562
12.7383,325.803,-1.05665
12.74,325.82,-1.05784
12.7417,325.837,-1.05896
12.7433,325.853,-1.06001
12.745,325.87,-1.06118
12.7467,325.886,-1.06225
12.7483,325.903,-1.06357
12.75,325.92,-1.06497
12.7517,325.936,-1.06608
12.7533,325.953,-1.06701
12.755,325.969,-1.06772
12.7567,325.986,-1.06854
12.7583,326.003,-1.0694
12.76,326.019,-1.07037
12.7617,326.036,-1.07139
12.7633,326.052,-1.07246
12.765,326.069,-1.07358
12.7667,326.085,-1.07488
12.7683,326.102,-1.07632
12.77,326.118,-1.07792
12.7717,326.135,-1.07999
12.7733,326.152,-1.08194
12.775,326.168,-1.0842
12.7767,326.185,-1.08637
12.7783,326.202,-1.08865
12.78,326.218,-1.09039
12.7817,326.234,-1.09184
12.7833,326.251,-1.09345
12.785,326.268,-1.09509
12.7867,326.285,-1.09653
12.7883,326.301,-1.09766
12.79,326.317,-1.09882
12.7917,326.334,-1.09982
12.7933,326.351,-1.10115
12.795,326.367,-1.10246
12.7967,326.384,-1.10372
12.7983,326.4,-1.10493
12.8,326.417,-1.10594
12.8017,326.433,-1.10696
12.8033,326.45,-1.10817
12.805,326.467,-1.10945
12.8067,326.483,-1.11101
12.8083,326.5,-1.11328
12.81,326.516,-1.11539
12.8117,326.533,-1.11782
12.8133,326.549,-1.12026
12.815,326.566,-1.12307
12.8167,326.583,-1.12647
12.8183,326.599,-1.12927
12.82,326.616,-1.1318
12.8217,326.633,-1.13368
12.8233,326.649,-1.13495
12.825,326.666,-1.13601
12.8267,326.683,-1.13739
12.8283,326.699,-1.13905
12.83,326.716,-1.14029
12.8317,326.732,-1.14142
12.8333,326.748,-1.14283
12.835,326.765,-1.14478
12.8367,326.782,-1.14669
12.8383,326.798,-1.14855
12.84,326.815,-1.15066
12.8417,326.831,-1.15237
12.8433,326.848,-1.15367
12.845,326.864,-1.1551
12.8467,326.881,-1.15737
12.8483,326.897,-1.15966
12.85,326.914,-1.16218
12.8517,326.931,-1.16516
12.8533,326.947,-1.16805
12.855,326.963,-1.17067
12.8567,326.98,-1.17265
12.8583,326.997,-1.17443
12.86,327.013,-1.17726
12.8617,327.029,-1.17946
12.8633,327.046,-1.18081
12.865,327.063,-1.18172
12.8667,327.08,-1.18281
12.8683,327.096,-1.18445
12.87,327.112,-1.18588
12.8717,327.129,-1.18761
12.8733,327.146,-1.18945
12.875,327.162,-1.19153
12.8767,327.179,-1.1937
12.8783,327.195,-1.1965
12.88,327.212,-1.19966
12.8817,327.228,-1.20355
12.8833,327.245,-1.2073
12.885,327.262,-1.21
12.8867,327.278,-1.21211
12.8883,327.295,-1.21386
12.89,327.311,-1.21609
12.8917,327.328,-1.21835
12.8933,327.344,-1.2207
12.895,327.361,-1.22258
12.8967,327.377,-1.22452
12.8983,327.394,-1.22731
12.9,327.41,-1.22984
12.9017,327.427,-1.23253
12.9033,327.443,-1.23416
12.905,327.46,-1.23609
12.9067,327.477,-1.2382
12.9083,327.493,-1.24109
12.91,327.509,-1.24385
12.9117,327.526,-1.24611
12.9133,327.542,-1.24865
12.915,327.559,-1.25056
12.9167,327.575,-1.25273
12.9183,327.592,-1.25566
12.92,327.608,-1.25838
12.9217,327.625,-1.26126
12.9233,327.641,-1.26276
12.925,327.658,-1.26463
12.9267,327.674,-1.26848
12.9283,327.691,-1.27152
12.93,327.707,-1.27474
12.9317,327.724,-1.27791
12.9333,327.741,-1.28157
12.935,327.757,-1.28633
12.9367,327.773,-1.29127
12.9383,327.79,-1.29365
12.94,327.807,-1.29762
12.9417,327.823,-1.30021
12.9433,327.839,-1.30254
12.945,327.855,-1.30551
12.9467,327.872,-1.30747
12.9483,327.888,-1.30973
12.95,327.905,-1.31114
12.9517,327.922,-1.31295
12.9533,327.938,-1.31646
12.955,327.955,-1.32057
12.9567,327.971,-1.32403
12.9583,327.988,-1.32717
12.96,328.004,-1.33031
12.9617,328.021,-1.33258
12.9633,328.037,-1.33614
12.965,328.054,-1.33858
12.9667,328.07,-1.341
12.9683,328.087,-1.34312
12.97,328.103,-1.34509
12.9717,328.12,-1.3473
12.9733,328.136,-1.35081
12.975,328.152,-1.35489
12.9767,328.169,-1.35957
12.9783,328.185,-1.36304
12.98,328.202,-1.36646
12.9817,328.218,-1.37057
12.9833,328.235,-1.37529
12.985,328.251,-1.37915
12.9867,328.268,-1.38206
12.9883,328.284,-1.38491
12.99,328.301,-1.38845
12.9917,328.317,-1.39246
12.9933,328.334,-1.39572
12.995,328.35,-1.39847
12.9967,328.367,-1.40172
12.9983,328.383,-1.4058
13,328.4,-1.40922
13.0017,328.416,-1.41251
13.0033,328.432,-1.41514
13.005,328.449,-1.41762
13.0067,328.465,-1.41994
13.0083,328.482,-1.42361
13.01,328.498,-1.42643
13.0117,328.514,-1.42808
13.0133,328.531,-1.42993
13.015,328.548,-1.43295
13.0167,328.563,-1.43578
13.0183,328.58,-1.43928
13.02,328.596,-1.44379
13.0217,328.613,-1.44763
13.0233,328.629,-1.45272
13.025,328.645,-1.45731
13.0267,328.662,-1.46137
13.0283,328.678,-1.46432
13.03,328.695,-1.46775
13.0317,328.712,-1.47061
13.0333,328.728,-1.47351
13.035,328.744,-1.47619
13.0367,328.761,-1.47957
13.0383,328.778,-1.48229
13.04,328.794,-1.48307
13.0417,328.81,-1.48664
13.0433,328.827,-1.49054
13.045,328.843,-1.49332
13.0467,328.86,-1.49545
13.0483,328.876,-1.49929
13.05,328.892,-1.50186
13.0517,328.909,-1.50406
13.0533,328.925,-1.5077
13.055,328.942,-1.51096
13.0567,328.958,-1.51355
13.0583,328.974,-1.51553
13.06,328.991,-1.51842
13.0617,329.007,-1.52151
13.0633,329.024,-1.52452
13.065,329.04,-1.52585
13.0667,329.057,-1.52831
13.0683,329.073,-1.52967
13.07,329.09,-1.5303
13.0717,329.106,-1.53279
13.0733,329.123,-1.53572
13.075,329.139,-1.5393
13.0767,329.156,-1.54094
13.0783,329.172,-1.54307
13.08,329.188,-1.54594
13.0817,329.205,-1.54894
13.0833,329.221,-1.55142
13.085,329.238,-1.55288
13.0867,329.254,-1.55369
13.0883,329.27,-1.55406
13.09,329.287,-1.55566
13.0917,329.304,-1.55665
13.0933,329.32,-1.55749
13.095,329.336,-1.55796
13.0967,329.353,-1.5582
13.0983,329.369,-1.55887
13.1,329.385,-1.56017
13.1017,329.402,-1.56155
13.1033,329.418,-1.56286
13.105,329.435,-1.56411
13.1067,329.452,-1.56503
13.1083,329.468,-1.56594
13.11,329.485,-1.56653
13.1117,329.501,-1.5672
13.1133,329.518,-1.56806
13.115,329.534,-1.56853
13.1167,329.551,-1.56898
13.1183,329.567,-1.56939
13.12,329.584,-1.56971
13.1217,329.6,-1.57005
13.1233,329.617,-1.57037
13.125,329.634,-1.5704
13.1267,329.65,-1.57027
13.1283,329.667,-1.5702
13.13,329.683,-1.56998
13.1317,329.7,-1.56976
13.1333,329.717,-1.56952
13.135,329.733,-1.56684
13.1367,329.75,-1.56502
13.1383,329.766,-1.56369
13.14,329.782,-1.56268
13.1417,329.799,-1.56181
13.1433,329.816,-1.56086
13.145,329.832,-1.56005
13.1467,329.849,-1.55939
13.1483,329.866,-1.55873
13.15,329.883,-1.5579
13.1517,329.899,-1.5571
13.1533,329.916,-1.55607
13.155,329.933,-1.55463
13.1567,329.949,-1.55313
13.1583,329.966,-1.55165
13.16,329.982,-1.54986
13.1617,329.999,-1.5474
13.1633,330.015,-1.54438
13.165,330.032,-1.54098
13.1667,330.049,-1.53801
13.1683,330.066,-1.53509
13.17,330.082,-1.53147
13.1717,330.099,-1.52764
13.1733,330.116,-1.52248
13.175,330.133,-1.51788
13.1767,330.149,-1.51437
13.1783,330.166,-1.51078
13.18,330.183,-1.50655
13.1817,330.199,-1.50229
13.1833,330.216,-1.49788
13.185,330.233,-1.49421
13.1867,330.249,-1.48944
13.1883,330.266,-1.48519
13.19,330.283,-1.48059
13.1917,330.3,-1.47556
13.1933,330.317,-1.47227
13.195,330.333,-1.46712
13.1967,330.35,-1.46244
13.1983,330.367,-1.45741
13.2,330.384,-1.45374
13.2017,330.4,-1.4497
13.2033,330.417,-1.44495
13.205,330.434,-1.44028
13.2067,330.451,-1.43547
13.2083,330.468,-1.43026
13.21,330.484,-1.42602
13.2117,330.501,-1.41945
13.2133,330.518,-1.41372
13.215,330.535,-1.40752
13.2167,330.552,-1.40155
13.2183,330.568,-1.39594
13.22,330.585,-1.39025
13.2217,330.602,-1.38381
13.2233,330.619,-1.37944
13.225,330.636,-1.37523
13.2267,330.653,-1.36907
13.2283,330.67,-1.36477
13.23,330.687,-1.35844
13.2317,330.703,-1.35432
13.2333,330.72,-1.34876
13.235,330.737,-1.3446
13.2367,330.754,-1.33933
13.2383,330.771,-1.33393
13.24,330.789,-1.32825
13.2417,330.806,-1.32304
13.2433,330.823,-1.31913
13.245,330.839,-1.31368
13.2467,330.856,-1.30748
13.2483,330.873,-1.30121
13.25,330.89,-1.29516
13.2517,330.907,-1.29
13.2533,330.924,-1.28376
13.255,330.941,-1.27855
13.2567,330.958,-1.27188
13.2583,330.975,-1.26663
13.26,330.991,-1.26114
13.2617,331.008,-1.25689
13.2633,331.025,-1.25277
13.265,331.042,-1.24843
13.2667,331.059,-1.24247
13.2683,331.076,-1.23723
13.27,331.093,-1.23156
13.2717,331.11,-1.22542
13.2733,331.127,-1.21993
13.275,331.144,-1.21431
13.2767,331.161,-1.20926
13.2783,331.178,-1.2047
13.28,331.195,-1.19951
13.2817,331.212,-1.19326
13.2833,331.229,-1.18724
13.285,331.246,-1.18262
13.2867,331.263,-1.17852
13.2883,331.28,-1.17237
13.29,331.297,-1.16623
13.2917,331.314,-1.16067
13.2933,331.331,-1.15614
13.295,331.348,-1.15227
13.2967,331.365,-1.14744
13.2983,331.382,-1.14453
13.3,331.399,-1.14025
13.3017,331.416,-1.13563
13.3033,331.433,-1.13253
13.305,331.45,-1.12907
13.3067,331.467,-1.12548
13.3083,331.484,-1.12107
13.31,331.501,-1.11613
13.3117,331.518,-1.11133
13.3133,331.535,-1.10591
13.315,331.552,-1.10047
13.3167,331.569,-1.09513
13.3183,331.586,-1.08985
13.32,331.603,-1.08568
13.3217,331.62,-1.08267
13.3233,331.637,-1.07902
13.325,331.654,-1.07504
13.3267,331.671,-1.07093
13.3283,331.687,-1.06884
13.33,331.704,-1.06553
13.3317,331.721,-1.06107
13.3333,331.738,-1.05651
13.335,331.755,-1.05164
13.3367,331.772,-1.04724
13.3383,331.789,-1.0418
13.34,331.806,-1.03913
13.3417,331.823,-1.03645
13.3433,331.84,-1.03248
13.345,331.857,-1.02808
13.3467,331.874,-1.02517
13.3483,331.891,-1.02293
13.35,331.908,-1.01932
13.3517,331.925,-1.01588
13.3533,331.941,-1.01347
13.355,331.958,-1.01172
13.3567,331.975,-1.00792
13.3583,331.992,-1.00555
13.36,332.009,-1.00246
13.3617,332.026,-0.999143
13.3633,332.043,-0.996331
13.365,332.06,-0.994679
13.3667,332.077,-0.991164
13.3683,332.094,-0.988343
13.37,332.111,-0.98758
13.3717,332.128,-0.985624
13.3733,332.145,-0.983099
13.375,332.162,-0.981466
13.3767,332.179,-0.97783
13.3783,332.196,-0.973421
13.38,332.213,-0.969398
13.3817,332.23,-0.966694
13.3833,332.247,-0.962851
13.385,332.263,-0.959362
13.3867,332.28,-0.957056
13.3883,332.296,-0.954294
13.39,332.313,-0.952313
13.3917,332.33,-0.951092
13.3933,332.347,-0.950176
13.395,332.364,-0.948892
13.3967,332.381,-0.947366
13.3983,332.398,-0.947108
13.4,332.416,-0.946315
13.4017,332.432,-0.944463
13.4033,332.449,-0.94262
13.405,332.466,-0.939862
13.4067,332.483,-0.936233
13.4083,332.5,-0.932963
13.41,332.517,-0.930537
13.4117,332.534,-0.927971
13.4133,332.55,-0.925991
13.415,332.567,-0.92441
13.4167,332.584,-0.922739
13.4183,332.601,-0.921067
13.42,332.618,-0.92054
13.4217,332.635,-0.919755
13.4233,332.652,-0.91854
13.425,332.668,-0.917906
13.4267,332.685,-0.916167
13.4283,332.702,-0.914408
13.43,332.719,-0.91236
13.4317,332.736,-0.910968
13.4333,332.752,-0.908341
13.435,332.769,-0.906122
13.4367,332.786,-0.90489
13.4383,332.803,-0.903736
13.44,332.82,-0.901979
13.4417,332.836,-0.900521
13.4433,332.853,-0.899544
13.445,332.87,-0.898639
13.4467,332.887,-0.897467
13.4483,332.904,-0.896173
13.45,332.921,-0.895183
13.4517,332.938,-0.894879
13.4533,332.954,-0.89445
13.455,332.971,-0.894333
13.4567,332.988,-0.893578
13.4583,333.005,-0.89242
13.46,333.021,-0.891096
13.4617,333.038,-0.889648
13.4633,333.055,-0.888096
13.465,333.071,-0.886736
13.4667,333.088,-0.88534
13.4683,333.105,-0.884291
13.47,333.122,-0.883002
13.4717,333.138,-0.882018
13.4733,333.155,-0.880938
13.475,333.172,-0.87976
13.4767,333.189,-0.878955
13.4783,333.206,-0.877946
13.48,333.222,-0.877328
13.4817,333.239,-0.876563
13.4833,333.255,-0.875938
13.485,333.273,-0.875441
13.4867,333.289,-0.875013
13.4883,333.306,-0.874526
13.49,333.322,-0.873989
13.4917,333.339,-0.873503
13.4933,333.356,-0.873121
13.495,333.373,-0.872818
13.4967,333.39,-0.872509
13.4983,333.407,-0.872083
13.5,333.424,-0.8718
13.5017,333.44,-0.871291
13.5033,333.457,-0.870711
13.505,333.474,-0.869948
13.5067,333.49,-0.868966
13.5083,333.507,-0.867743
13.51,333.524,-0.86642
13.5117,333.541,-0.865329
13.5133,333.557,-0.864148
13.515,333.574,-0.863141
13.5167,333.591,-0.862355
13.5183,333.607,-0.86179
13.52,333.624,-0.861207
13.5217,333.641,-0.860779
13.5233,333.658,-0.860452
13.525,333.674,-0.860091
13.5267,333.691,-0.859868
13.5283,333.708,-0.859621
13.53,333.725,-0.859437
13.5317,333.741,-0.859208
13.5333,333.758,-0.859046
13.535,333.775,-0.858898
13.5367,333.792,-0.858778
13.5383,333.809,-0.858615
13.54,333.825,-0.858462
13.5417,333.842,-0.858079
13.5433,333.859,-0.857558
13.545,333.875,-0.857157
13.5467,333.892,-0.856665
13.5483,333.909,-0.855982
13.55,333.926,-0.855383
13.5517,333.942,-0.854706
13.5533,333.959,-0.854182
13.555,333.976,-0.853737
13.5567,333.993,-0.853417
13.5583,334.01,-0.853267
13.56,334.026,-0.853119
13.5617,334.043,-0.852996
13.5633,334.059,-0.852901
13.565,334.076,-0.852834
13.5667,334.092,-0.852728
13.5683,334.109,-0.852629
13.57,334.126,-0.852498
13.5717,334.143,-0.852308
13.5733,334.16,-0.852069
13.575,334.176,-0.851849
13.5767,334.193,-0.851644
13.5783,334.209,-0.851382
13.58,334.226,-0.851068
13.5817,334.243,-0.850698
13.5833,334.26,-0.850316
13.585,334.276,-0.849886
13.5867,334.293,-0.849371
13.5883,334.309,-0.848884
13.59,334.326,-0.848566
13.5917,334.343,-0.84826
13.5933,334.359,-0.848011
13.595,334.376,-0.847827
13.5967,334.393,-0.847667
13.5983,334.409,-0.847487
13.6,334.426,-0.847257
13.6017,334.443,-0.847037
13.6033,334.46,-0.846796
13.605,334.476,-0.846532
13.6067,334.493,-0.846279
13.6083,334.51,-0.846093
13.61,334.526,-0.845883
13.6117,334.543,-0.845698
13.6133,334.56,-0.845568
13.615,334.576,-0.845453
13.6167,334.593,-0.845339
13.6183,334.61,-0.845237
13.62,334.626,-0.845147
13.6217,334.643,-0.845082
13.6233,334.66,-0.845023
13.625,334.677,-0.844948
13.6267,334.693,-0.844846
13.6283,334.709,-0.844729
13.63,334.726,-0.844631
13.6317,334.743,-0.844478
13.6333,334.76,-0.844344
13.635,334.776,-0.84426
13.6367,334.793,-0.844133
13.6383,334.81,-0.844014
13.64,334.827,-0.843918
13.6417,334.843,-0.843852
13.6433,334.86,-0.843788
13.645,334.877,-0.84372
13.6467,334.893,-0.84365
13.6483,334.91,-0.843576
13.65,334.927,-0.843504
13.6517,334.943,-0.843431
13.6533,334.96,-0.843367
13.655,334.976,-0.843294
13.6567,334.993,-0.843217
13.6583,335.01,-0.843136
13.66,335.027,-0.843056
13.6617,335.043,-0.842985
13.6633,335.06,-0.842916
13.665,335.077,-0.842843
13.6667,335.093,-0.842758
13.6683,335.11,-0.842674
13.67,335.126,-0.84259
13.6717,335.143,-0.842497
13.6733,335.16,-0.842382
13.675,335.177,-0.842187
13.6767,335.193,-0.842021
13.6783,335.21,-0.841865
13.68,335.226,-0.841746
13.6817,335.243,-0.841652
13.6833,335.26,-0.841568
13.685,335.277,-0.841481
13.6867,335.294,-0.841264
13.6883,335.31,-0.841154
13.69,335.327,-0.841046
13.6917,335.343,-0.840935
13.6933,335.36,-0.840876
13.695,335.377,-0.840819
13.6967,335.393,-0.840749
13.6983,335.41,-0.840679
13.7,335.426,-0.840606
13.7017,335.443,-0.840518
13.7033,335.46,-0.840431
13.705,335.477,-0.84033
13.7067,335.493,-0.840235
13.7083,335.51,-0.84007
13.71,335.527,-0.839895
13.7117,335.544,-0.839752
13.7133,335.56,-0.839654
13.715,335.577,-0.839566
13.7167,335.594,-0.839484
13.7183,335.61,-0.839398
13.72,335.627,-0.839317
13.7217,335.643,-0.83922
13.7233,335.66,-0.83914
13.725,335.677,-0.839067
13.7267,335.693,-0.838996
13.7283,335.71,-0.838927
13.73,335.727,-0.83886
13.7317,335.743,-0.838792
13.7333,335.76,-0.838728
13.735,335.777,-0.838659
13.7367,335.793,-0.838601
13.7383,335.81,-0.838543
13.74,335.827,-0.838482
13.7417,335.844,-0.838417
13.7433,335.86,-0.838346
13.745,335.877,-0.838275
13.7467,335.894,-0.838198
13.7483,335.911,-0.838122
13.75,335.927,-0.838046
13.7517,335.943,-0.837967
13.7533,335.96,-0.837892
13.755,335.977,-0.837826
13.7567,335.993,-0.837772
13.7583,336.01,-0.837717
13.76,336.027,-0.837658
13.7617,336.044,-0.837598
13.7633,336.06,-0.83753
13.765,336.077,-0.837452
13.7667,336.093,-0.83737
13.7683,336.11,-0.83728
13.77,336.127,-0.837146
13.7717,336.143,-0.837049
13.7733,336.16,-0.836956
13.775,336.177,-0.836875
13.7767,336.193,-0.8368
13.7783,336.21,-0.836718
13.78,336.227,-0.836636
13.7817,336.244,-0.836561
13.7833,336.26,-0.836499
13.785,336.276,-0.836435
13.7867,336.293,-0.836364
13.7883,336.31,-0.836287
13.79,336.326,-0.836218
13.7917,336.343,-0.836146
13.7933,336.36,-0.836077
13.795,336.377,-0.836007
13.7967,336.393,-0.835931
13.7983,336.41,-0.835858
13.8,336.426,-0.835777
13.8017,336.443,-0.835702
13.8033,336.46,-0.835625
13.805,336.476,-0.835562
13.8067,336.493,-0.83551
13.8083,336.509,-0.835455
13.81,336.526,-0.835414
13.8117,336.543,-0.835388
13.8133,336.56,-0.835368
13.815,336.576,-0.835348
13.8167,336.593,-0.835331
13.8183,336.61,-0.835301
13.82,336.626,-0.83526
13.8217,336.643,-0.835207
13.8233,336.659,-0.835152
13.825,336.676,-0.835093
13.8267,336.693,-0.835025
13.8283,336.71,-0.834956
13.83,336.727,-0.834891
13.8317,336.743,-0.834827
13.8333,336.76,-0.834759
13.835,336.776,-0.83469
13.8367,336.793,-0.834622
13.8383,336.81,-0.834558
13.84,336.826,-0.834496
13.8417,336.843,-0.83443
13.8433,336.86,-0.834361
13.845,336.876,-0.834294
13.8467,336.893,-0.834234
13.8483,336.909,-0.834181
13.85,336.926,-0.834129
13.8517,336.942,-0.834073
13.8533,336.959,-0.834019
13.855,336.976,-0.833965
13.8567,336.993,-0.833908
13.8583,337.009,-0.833845
13.86,337.026,-0.833779
13.8617,337.043,-0.833712
13.8633,337.059,-0.833646
13.865,337.076,-0.833584
13.8667,337.093,-0.833527
13.8683,337.109,-0.833475
13.87,337.126,-0.833422
13.8717,337.142,-0.833372
13.8733,337.159,-0.833321
13.875,337.176,-0.833271
13.8767,337.193,-0.833222
13.8783,337.209,-0.833169
13.88,337.226,-0.833118
13.8817,337.243,-0.83307
13.8833,337.259,-0.833029
13.885,337.276,-0.832984
13.8867,337.292,-0.83294
13.8883,337.309,-0.832899
13.89,337.325,-0.832854
13.8917,337.342,-0.832813
13.8933,337.359,-0.832774
13.895,337.376,-0.832738
13.8967,337.392,-0.832698
13.8983,337.408,-0.832661
13.9,337.426,-0.832627
13.9017,337.442,-0.832598
13.9033,337.459,-0.83256
13.905,337.476,-0.832515
13.9067,337.492,-0.83247
13.9083,337.509,-0.832423
13.91,337.526,-0.832372
13.9117,337.542,-0.832324
13.9133,337.559,-0.832281
13.915,337.575,-0.832241
13.9167,337.592,-0.832208
13.9183,337.609,-0.832172
13.92,337.626,-0.832133
13.9217,337.642,-0.832102
13.9233,337.659,-0.832071
13.925,337.676,-0.832042
13.9267,337.692,-0.832012
13.9283,337.709,-0.831974
13.93,337.725,-0.831939
13.9317,337.742,-0.831901
13.9333,337.759,-0.831857
13.935,337.775,-0.8318
13.9367,337.792,-0.831745
13.9383,337.808,-0.831695
13.94,337.825,-0.831647
13.9417,337.842,-0.831602
13.9433,337.858,-0.831559
13.945,337.875,-0.831515
13.9467,337.892,-0.831476
13.9483,337.908,-0.831439
13.95,337.925,-0.831406
13.9517,337.941,-0.831379
13.9533,337.958,-0.831344
13.955,337.975,-0.831309
13.9567,337.991,-0.831277
13.9583,338.008,-0.831248
13.96,338.025,-0.831219
13.9617,338.042,-0.831181
13.9633,338.058,-0.831139
13.965,338.075,-0.831104
13.9667,338.092,-0.83107
13.9683,338.108,-0.831026
13.97,338.124,-0.830976
13.9717,338.141,-0.83092
13.9733,338.158,-0.830872
13.975,338.175,-0.830815
13.9767,338.191,-0.830764
13.9783,338.208,-0.830723
13.98,338.224,-0.830686
13.9817,338.241,-0.830656
13.9833,338.258,-0.830642
13.985,338.274,-0.830632
13.9867,338.291,-0.830624
13.9883,338.308,-0.830613
13.99,338.324,-0.830598
13.9917,338.341,-0.830589
13.9933,338.358,-0.830576
13.995,338.374,-0.830562
13.9967,338.391,-0.830549
13.9983,338.408,-0.830531
14,338.424,-0.830506
14.0017,338.441,-0.830476
14.0033,338.458,-0.830448
14.005,338.474,-0.830411
14.0067,338.491,-0.830374
14.0083,338.507,-0.830339
14.01,338.524,-0.830301
14.0117,338.541,-0.830266
14.0133,338.558,-0.830238
14.015,338.574,-0.830214
14.0167,338.591,-0.830196
14.0183,338.608,-0.830172
14.02,338.624,-0.830147
14.0217,338.641,-0.83012
14.0233,338.657,-0.830089
14.025,338.674,-0.830064
14.0267,338.691,-0.830028
14.0283,338.708,-0.82999
14.03,338.724,-0.829949
14.0317,338.741,-0.829912
14.0333,338.758,-0.829882
14.035,338.774,-0.829851
14.0367,338.791,-0.829816
14.0383,338.807,-0.829792
14.04,338.824,-0.829768
14.0417,338.84,-0.829733
14.0433,338.857,-0.829701
14.045,338.874,-0.829669
14.0467,338.891,-0.829644
14.0483,338.907,-0.82963
14.05,338.924,-0.829619
14.0517,338.94,-0.829605
14.0533,338.957,-0.829592
14.055,338.974,-0.829567
14.0567,338.991,-0.829549
14.0583,339.007,-0.829531
14.06,339.024,-0.829508
14.0617,339.041,-0.829479
14.0633,339.057,-0.829449
14.065,339.074,-0.829424
14.0667,339.091,-0.829405
14.0683,339.107,-0.829384
14.07,339.124,-0.829359
14.0717,339.141,-0.829337
14.0733,339.157,-0.829319
14.075,339.174,-0.829326
14.0767,339.19,-0.829329
14.0783,339.207,-0.829334
14.08,339.224,-0.829337
14.0817,339.241,-0.829345
14.0833,339.257,-0.829356
14.085,339.274,-0.82936
14.0867,339.29,-0.829356
14.0883,339.307,-0.829347
14.09,339.324,-0.829333
14.0917,339.341,-0.829328
14.0933,339.357,-0.829327
14.095,339.374,-0.829324
14.0967,339.391,-0.829322
14.0983,339.407,-0.829328
14.1,339.424,-0.829322
14.1017,339.441,-0.829315
14.1033,339.457,-0.829301
14.105,339.474,-0.829285
14.1067,339.49,-0.829271
14.1083,339.507,-0.829246
14.11,339.524,-0.829218
14.1117,339.54,-0.829186
14.1133,339.557,-0.829157
14.115,339.574,-0.829126
14.1167,339.59,-0.829092
14.1183,339.607,-0.829059
14.12,339.624,-0.829034
14.1217,339.64,-0.829017
14.1233,339.657,-0.828999
14.125,339.674,-0.828983
14.1267,339.691,-0.82898
14.1283,339.707,-0.828982
14.13,339.724,-0.82898
14.1317,339.741,-0.828972
14.1333,339.757,-0.828967
14.135,339.774,-0.828957
14.1367,339.79,-0.828946
14.1383,339.807,-0.828932
14.14,339.823,-0.828909
14.1417,339.84,-0.828889
14.1433,339.857,-0.82886
14.145,339.873,-0.828831
14.1467,339.89,-0.828803
14.1483,339.907,-0.828775
14.15,339.924,-0.828756
14.1517,339.94,-0.828739
14.1533,339.957,-0.828725
14.155,339.974,-0.828723
14.1567,339.99,-0.828716
14.1583,340.007,-0.828719
14.16,340.024,-0.828727
14.1617,340.04,-0.828726
14.1633,340.057,-0.828718
14.165,340.074,-0.828711
14.1667,340.091,-0.828711
14.1683,340.107,-0.828707
14.17,340.124,-0.828707
14.1717,340.14,-0.828717
14.1733,340.157,-0.828736
14.175,340.174,-0.828757
14.1767,340.19,-0.828777
14.1783,340.207,-0.828803
14.18,340.224,-0.828821
14.1817,340.241,-0.828832
14.1833,340.258,-0.828848
14.185,340.274,-0.828868
14.1867,340.291,-0.828876
14.1883,340.307,-0.828878
14.19,340.324,-0.828879
14.1917,340.34,-0.828871
14.1933,340.357,-0.828859
14.195,340.374,-0.828842
14.1967,340.39,-0.828829
14.1983,340.407,-0.828823
14.2,340.424,-0.828817
14.2017,340.441,-0.828807
14.2033,340.457,-0.828804
14.205,340.474,-0.828809
14.2067,340.49,-0.82882
14.2083,340.507,-0.828836
14.21,340.524,-0.828852
14.2117,340.54,-0.828878
14.2133,340.557,-0.828911
14.215,340.574,-0.828945
14.2167,340.591,-0.82898
14.2183,340.607,-0.829034
14.22,340.623,-0.82907
14.2217,340.64,-0.829106
14.2233,340.657,-0.829135
14.225,340.673,-0.829166
14.2267,340.69,-0.829195
14.2283,340.707,-0.829222
14.23,340.724,-0.829245
14.2317,340.74,-0.829269
14.2333,340.757,-0.829283
14.235,340.774,-0.829288
14.2367,340.79,-0.82929
14.2383,340.807,-0.829291
14.24,340.824,-0.829309
14.2417,340.84,-0.829337
14.2433,340.857,-0.829371
14.245,340.874,-0.829399
14.2467,340.891,-0.829417
14.2483,340.908,-0.829421
14.25,340.924,-0.829431
14.2517,340.941,-0.829443
14.2533,340.958,-0.829452
14.255,340.975,-0.829454
14.2567,340.991,-0.829448
14.2583,341.008,-0.829455
14.26,341.024,-0.829463
14.2617,341.041,-0.829465
14.2633,341.058,-0.829467
14.265,341.074,-0.829462
14.2667,341.091,-0.82945
14.2683,341.108,-0.829442
14.27,341.124,-0.829429
14.2717,341.141,-0.829414
14.2733,341.158,-0.82941
14.275,341.174,-0.82941
14.2767,341.191,-0.829418
14.2783,341.207,-0.829437
14.28,341.224,-0.829462
14.2817,341.241,-0.829482
14.2833,341.257,-0.829504
14.285,341.274,-0.829531
14.2867,341.291,-0.82956
14.2883,341.308,-0.82959
14.29,341.324,-0.829606
14.2917,341.341,-0.829619
14.2933,341.358,-0.829637
14.295,341.375,-0.829654
14.2967,341.391,-0.829671
14.2983,341.408,-0.829687
14.3,341.424,-0.829707
14.3017,341.441,-0.829723
14.3033,341.458,-0.829737
14.305,341.474,-0.829757
14.3067,341.491,-0.829774
14.3083,341.507,-0.829788
14.31,341.524,-0.829802
14.3117,341.541,-0.829803
14.3133,341.558,-0.829808
14.315,341.574,-0.829803
14.3167,341.591,-0.829805
14.3183,341.607,-0.829807
14.32,341.624,-0.829811
14.3217,341.641,-0.829826
14.3233,341.657,-0.829839
14.325,341.674,-0.829853
14.3267,341.691,-0.829866
14.3283,341.708,-0.829883
14.33,341.724,-0.829911
14.3317,341.741,-0.829944
14.3333,341.757,-0.829979
14.335,341.774,-0.830015
14.3367,341.79,-0.830045
14.3383,341.807,-0.830076
14.34,341.824,-0.830105
14.3417,341.841,-0.830132
14.3433,341.857,-0.830148
14.345,341.874,-0.830161
14.3467,341.891,-0.830162
14.3483,341.908,-0.830155
14.35,341.924,-0.83015
14.3517,341.941,-0.830144
14.3533,341.957,-0.830141
14.355,341.974,-0.830151
14.3567,341.991,-0.830163
14.3583,342.008,-0.830173
14.36,342.024,-0.830198
14.3617,342.041,-0.830223
14.3633,342.058,-0.830256
14.365,342.074,-0.830299
14.3667,342.091,-0.83034
14.3683,342.107,-0.830373
14.37,342.124,-0.830398
14.3717,342.141,-0.830424
14.3733,342.158,-0.830449
14.375,342.174,-0.830473
14.3767,342.191,-0.830482
14.3783,342.207,-0.830485
14.38,342.224,-0.830493
14.3817,342.241,-0.830498
14.3833,342.258,-0.8305
14.385,342.274,-0.830503
14.3867,342.291,-0.830506
14.3883,342.307,-0.830506
14.39,342.324,-0.830517
14.3917,342.341,-0.83053
14.3933,342.358,-0.830558
14.395,342.374,-0.830589
14.3967,342.391,-0.830619
14.3983,342.407,-0.830646
14.4,342.424,-0.830671
14.4017,342.441,-0.830686
14.4033,342.458,-0.830703
14.405,342.474,-0.83072
14.4067,342.491,-0.830734
14.4083,342.508,-0.830745
14.41,342.524,-0.830755
14.4117,342.541,-0.830771
14.4133,342.558,-0.830786
14.415,342.574,-0.830796
14.4167,342.591,-0.830813
14.4183,342.608,-0.830842
14.42,342.624,-0.83087
14.4217,342.641,-0.830912
14.4233,342.657,-0.830944
14.425,342.674,-0.830973
14.4267,342.691,-0.831003
14.4283,342.708,-0.831031
14.43,342.724,-0.831063
14.4317,342.741,-0.831095
14.4333,342.757,-0.831121
14.435,342.774,-0.831151
14.4367,342.791,-0.831187
14.4383,342.807,-0.831218
14.44,342.824,-0.831253
14.4417,342.841,-0.831284
14.4433,342.858,-0.831313
14.445,342.874,-0.831339
14.4467,342.891,-0.831357
14.4483,342.908,-0.831366
14.45,342.924,-0.831371
14.4517,342.941,-0.831382
14.4533,342.958,-0.831396
14.455,342.975,-0.83141
14.4567,342.991,-0.831422
14.4583,343.008,-0.83144
14.46,343.025,-0.831457
14.4617,343.041,-0.831479
14.4633,343.058,-0.831497
14.465,343.074,-0.831516
14.4667,343.091,-0.831542
14.4683,343.108,-0.831566
14.47,343.125,-0.831601
14.4717,343.141,-0.83164
14.4733,343.158,-0.831678
14.475,343.174,-0.831714
14.4767,343.191,-0.831742
14.4783,343.208,-0.831763
14.48,343.225,-0.831777
14.4817,343.242,-0.831781
14.4833,343.258,-0.831784
14.485,343.275,-0.831783
14.4867,343.292,-0.831784
14.4883,343.308,-0.831802
14.49,343.325,-0.831829
14.4917,343.342,-0.831863
14.4933,343.358,-0.831899
14.495,343.375,-0.831939
14.4967,343.392,-0.831979
14.4983,343.408,-0.832007
14.5,343.425,-0.832031
14.5017,343.441,-0.832051
14.5033,343.458,-0.832065
14.505,343.474,-0.832083
14.5067,343.491,-0.832105
14.5083,343.508,-0.832133
14.51,343.525,-0.832157
14.5117,343.541,-0.832182
14.5133,343.558,-0.83221
14.515,343.574,-0.832235
14.5167,343.591,-0.832273
14.5183,343.608,-0.83231
14.52,343.625,-0.832345
14.5217,343.641,-0.832382
14.5233,343.658,-0.832414
14.525,343.674,-0.832443
14.5267,343.691,-0.83247
14.5283,343.708,-0.832499
14.53,343.725,-0.83253
14.5317,343.741,-0.832555
14.5333,343.758,-0.83258
14.535,343.774,-0.832602
14.5367,343.791,-0.832622
14.5383,343.808,-0.832647
14.54,343.824,-0.832664
14.5417,343.841,-0.832679
14.5433,343.858,-0.832696
14.545,343.875,-0.832704
14.5467,343.891,-0.832717
14.5483,343.908,-0.832726
14.55,343.924,-0.832734
14.5517,343.941,-0.832746
14.5533,343.958,-0.832759
14.555,343.974,-0.832781
14.5567,343.991,-0.832809
14.5583,344.007,-0.832835
14.56,344.024,-0.832861
14.5617,344.041,-0.832882
14.5633,344.057,-0.832915
14.565,344.074,-0.832948
14.5667,344.091,-0.832977
14.5683,344.107,-0.83301
14.57,344.124,-0.83304
14.5717,344.141,-0.833082
14.5733,344.157,-0.833124
14.575,344.174,-0.833165
14.5767,344.19,-0.833206
14.5783,344.207,-0.833236
14.58,344.224,-0.833265
14.5817,344.241,-0.833296
14.5833,344.258,-0.833317
14.585,344.274,-0.833325
14.5867,344.291,-0.833327
14.5883,344.307,-0.833328
14.59,344.324,-0.833325
14.5917,344.34,-0.833323
14.5933,344.357,-0.833315
14.595,344.374,-0.833316
14.5967,344.39,-0.833324
14.5983,344.407,-0.833337
14.6,344.423,-0.833354
14.6017,344.44,-0.833374
14.6033,344.457,-0.833395
14.605,344.474,-0.833417
14.6067,344.49,-0.833439
14.6083,344.507,-0.833467
14.61,344.524,-0.833493
14.6117,344.54,-0.833519
14.6133,344.557,-0.833555
14.615,344.574,-0.833594
14.6167,344.591,-0.833635
14.6183,344.607,-0.833679
14.62,344.624,-0.833728
14.6217,344.641,-0.833768
14.6233,344.657,-0.833809
14.625,344.674,-0.833847
14.6267,344.691,-0.833884
14.6283,344.707,-0.833911
14.63,344.724,-0.833934
14.6317,344.741,-0.83395
14.6333,344.757,-0.833956
14.635,344.774,-0.83396
14.6367,344.791,-0.833966
14.6383,344.807,-0.833976
14.64,344.824,-0.833991
14.6417,344.84,-0.834013
14.6433,344.857,-0.834045
14.645,344.874,-0.834081
14.6467,344.89,-0.834121
14.6483,344.907,-0.83416
14.65,344.924,-0.834193
14.6517,344.94,-0.83423
14.6533,344.957,-0.834258
14.655,344.974,-0.834286
14.6567,344.99,-0.834311
14.6583,345.007,-0.834338
14.66,345.023,-0.834362
14.6617,345.04,-0.834383
14.6633,345.057,-0.834421
14.665,345.074,-0.834463
14.6667,345.091,-0.834503
14.6683,345.107,-0.83454
14.67,345.124,-0.834573
14.6717,345.14,-0.834602
14.6733,345.157,-0.834636
14.675,345.174,-0.83467
14.6767,345.19,-0.834709
14.6783,345.207,-0.834745
14.68,345.224,-0.834774
14.6817,345.24,-0.834805
14.6833,345.257,-0.834837
14.685,345.273,-0.834868
14.6867,345.29,-0.834893
14.6883,345.307,-0.834916
14.69,345.323,-0.834943
14.6917,345.34,-0.834972
14.6933,345.357,-0.835002
14.695,345.374,-0.835029
14.6967,345.39,-0.835058
14.6983,345.407,-0.835082
14.7,345.423,-0.835104
14.7017,345.44,-0.835131
14.7033,345.457,-0.835159
14.705,345.473,-0.835185
14.7067,345.49,-0.835198
14.7083,345.507,-0.835223
14.71,345.523,-0.835263
14.7117,345.54,-0.835309
14.7133,345.557,-0.835346
14.715,345.573,-0.835387
14.7167,345.59,-0.83543
14.7183,345.606,-0.835465
14.72,345.623,-0.8355
14.7217,345.64,-0.835525
14.7233,345.657,-0.835544
14.725,345.673,-0.83555
14.7267,345.69,-0.83555
14.7283,345.707,-0.835563
14.73,345.724,-0.835575
14.7317,345.74,-0.835587
14.7333,345.757,-0.83561
14.735,345.774,-0.83564
14.7367,345.79,-0.835685
14.7383,345.807,-0.83574
14.74,345.823,-0.835787
14.7417,345.84,-0.835831
14.7433,345.857,-0.835881
14.745,345.873,-0.835927
14.7467,345.89,-0.835965
14.7483,345.906,-0.835997
14.75,345.923,-0.836011
14.7517,345.94,-0.836023
14.7533,345.957,-0.83604
14.755,345.973,-0.836059
14.7567,345.99,-0.836076
14.7583,346.006,-0.836094
14.76,346.023,-0.836109
14.7617,346.04,-0.836128
14.7633,346.056,-0.836153
14.765,346.073,-0.836196
14.7667,346.09,-0.836231
14.7683,346.107,-0.836257
14.77,346.123,-0.836278
14.7717,346.14,-0.836302
14.7733,346.156,-0.836322
14.775,346.173,-0.836336
14.7767,346.19,-0.836347
14.7783,346.206,-0.836356
14.78,346.223,-0.836371
14.7817,346.24,-0.836392
14.7833,346.256,-0.836419
14.785,346.273,-0.836447
14.7867,346.29,-0.836482
14.7883,346.306,-0.836526
14.79,346.323,-0.836562
14.7917,346.34,-0.836605
14.7933,346.356,-0.83664
14.795,346.373,-0.836677
14.7967,346.39,-0.836702
14.7983,346.406,-0.836727
14.8,346.423,-0.836747
14.8017,346.44,-0.836765
14.8033,346.456,-0.83678
14.805,346.472,-0.836782
14.8067,346.489,-0.836795
14.8083,346.506,-0.83681
14.81,346.523,-0.836826
14.8117,346.539,-0.836845
14.8133,346.556,-0.836866
14.815,346.573,-0.836887
14.8167,346.59,-0.836908
14.8183,346.606,-0.836935
14.82,346.623,-0.836965
14.8217,346.64,-0.836987
14.8233,346.656,-0.837011
14.825,346.673,-0.837046
14.8267,346.689,-0.837094
14.8283,346.706,-0.83715
14.83,346.722,-0.837244
14.8317,346.74,-0.837324
14.8333,346.756,-0.837381
14.835,346.773,-0.837424
14.8367,346.789,-0.837458
14.8383,346.806,-0.837497
14.84,346.822,-0.837536
14.8417,346.839,-0.837573
14.8433,346.856,-0.837612
14.845,346.872,-0.837656
14.8467,346.889,-0.837704
14.8483,346.906,-0.837747
14.85,346.923,-0.837786
14.8517,346.939,-0.83782
14.8533,346.956,-0.837846
14.855,346.973,-0.837865
14.8567,346.989,-0.837886
14.8583,347.006,-0.837902
14.86,347.023,-0.837915
14.8617,347.039,-0.837941
14.8633,347.056,-0.837971
14.865,347.073,-0.838011
14.8667,347.089,-0.838054
14.8683,347.106,-0.838102
14.87,347.122,-0.838147
14.8717,347.139,-0.838196
14.8733,347.156,-0.838239
14.875,347.172,-0.838283
14.8767,347.189,-0.838321
14.8783,347.205,-0.838359
14.88,347.222,-0.838395
14.8817,347.239,-0.838423
14.8833,347.255,-0.838448
14.885,347.272,-0.838477
14.8867,347.289,-0.838511
14.8883,347.305,-0.83855
14.89,347.322,-0.838592
14.8917,347.339,-0.83863
14.8933,347.356,-0.838658
14.895,347.372,-0.838682
14.8967,347.389,-0.838703
14.8983,347.406,-0.83872
14.9,347.422,-0.838737
14.9017,347.439,-0.83875
14.9033,347.456,-0.838761
14.905,347.473,-0.838769
14.9067,347.489,-0.838771
14.9083,347.506,-0.838775
14.91,347.522,-0.838784
14.9117,347.539,-0.838792
14.9133,347.555,-0.838804
14.915,347.572,-0.838823
14.9167,347.588,-0.838847
14.9183,347.605,-0.838879
14.92,347.622,-0.83891
14.9217,347.639,-0.838945
14.9233,347.655,-0.838985
14.925,347.672,-0.839025
14.9267,347.689,-0.839074
14.9283,347.706,-0.839119
14.93,347.722,-0.839157
14.9317,347.739,-0.839195
14.9333,347.755,-0.839229
14.935,347.772,-0.839257
14.9367,347.789,-0.839284
14.9383,347.805,-0.839304
14.94,347.822,-0.839326
14.9417,347.839,-0.839352
14.9433,347.855,-0.839377
14.945,347.872,-0.839409
14.9467,347.889,-0.83945
14.9483,347.905,-0.839495
14.95,347.922,-0.839539
14.9517,347.938,-0.83958
14.9533,347.955,-0.83962
14.955,347.972,-0.839662
14.9567,347.989,-0.839695
14.9583,348.005,-0.839728
14.96,348.022,-0.839762
14.9617,348.038,-0.839795
14.9633,348.055,-0.839822
14.965,348.072,-0.839844
14.9667,348.088,-0.839873
14.9683,348.105,-0.839904
14.97,348.122,-0.839937
14.9717,348.138,-0.839974
14.9733,348.155,-0.840015
14.975,348.172,-0.840049
14.9767,348.189,-0.84008
14.9783,348.205,-0.840108
14.98,348.222,-0.840128
14.9817,348.239,-0.840143
14.9833,348.255,-0.840158
14.985,348.272,-0.840179
14.9867,348.289,-0.8402
14.9883,348.305,-0.840223
14.99,348.322,-0.840245
14.9917,348.338,-0.840275
14.9933,348.355,-0.840311
14.995,348.372,-0.840346
14.9967,348.389,-0.840387
14.9983,348.405,-0.840423
15,348.422,-0.84045
15.0017,348.438,-0.840483
15.0033,348.455,-0.84052
15.005,348.472,-0.840553
15.0067,348.488,-0.840591
15.0083,348.505,-0.840633
15.01,348.521,-0.840679
15.0117,348.538,-0.840714
15.0133,348.554,-0.840751
15.015,348.571,-0.840784
15.0167,348.588,-0.840816
15.0183,348.605,-0.840855
15.02,348.621,-0.840898
15.0217,348.638,-0.840939
15.0233,348.655,-0.840969
15.025,348.672,-0.840996
15.0267,348.688,-0.841024
15.0283,348.705,-0.841049
15.03,348.721,-0.841078
15.0317,348.738,-0.841103
15.0333,348.755,-0.841123
15.035,348.771,-0.841137
15.0367,348.788,-0.841154
15.0383,348.804,-0.841181
15.04,348.821,-0.841199
15.0417,348.838,-0.841214
15.0433,348.854,-0.841234
15.045,348.871,-0.841266
15.0467,348.888,-0.841308
15.0483,348.904,-0.841349
15.05,348.921,-0.841394
15.0517,348.938,-0.841442
15.0533,348.954,-0.841481
15.055,348.971,-0.841513
15.0567,348.988,-0.841539
15.0583,349.004,-0.841554
15.06,349.021,-0.841563
15.0617,349.038,-0.841572
15.0633,349.054,-0.841575
15.065,349.071,-0.841586
15.0667,349.088,-0.841598
15.0683,349.104,-0.841616
15.07,349.121,-0.841636
15.0717,349.138,-0.841665
15.0733,349.155,-0.841695
15.075,349.171,-0.841727
15.0767,349.188,-0.84176
15.0783,349.204,-0.841789
15.08,349.221,-0.841814
15.0817,349.237,-0.841837
15.0833,349.254,-0.84186
15.085,349.271,-0.841884
15.0867,349.288,-0.841907
15.0883,349.304,-0.841932
15.09,349.321,-0.841958
15.0917,349.337,-0.841985
15.0933,349.354,-0.842018
15.095,349.371,-0.842051
15.0967,349.387,-0.842086
15.0983,349.404,-0.842112
15.1,349.421,-0.842137
15.1017,349.437,-0.842153
15.1033,349.454,-0.842165
15.105,349.471,-0.84218
15.1067,349.487,-0.842199
15.1083,349.504,-0.84222
15.11,349.52,-0.842235
15.1117,349.537,-0.842258
15.1133,349.554,-0.842294
15.115,349.57,-0.842328
15.1167,349.587,-0.842358
15.1183,349.604,-0.842388
15.12,349.62,-0.842422
15.1217,349.637,-0.842455
15.1233,349.654,-0.842492
15.125,349.671,-0.842524
15.1267,349.687,-0.842571
15.1283,349.704,-0.84261
15.13,349.721,-0.842659
15.1317,349.737,-0.842712
15.1333,349.753,-0.84276
15.135,349.77,-0.842807
15.1367,349.787,-0.84285
15.1383,349.804,-0.842893
15.14,349.82,-0.842941
15.1417,349.837,-0.842976
15.1433,349.853,-0.843013
15.145,349.87,-0.843049
15.1467,349.887,-0.843083
15.1483,349.904,-0.84312
15.15,349.921,-0.843154
15.1517,349.937,-0.843184
15.1533,349.954,-0.843211
15.155,349.971,-0.843229
15.1567,349.987,-0.843243
15.1583,350.004,-0.84326
15.16,350.02,-0.843263
15.1617,350.037,-0.843261
15.1633,350.054,-0.843252
15.165,350.07,-0.843244
15.1667,350.087,-0.843234
15.1683,350.104,-0.843224
15.17,350.12,-0.843233
15.1717,350.137,-0.843245
15.1733,350.154,-0.84326
15.175,350.17,-0.843285
15.1767,350.187,-0.843322
15.1783,350.203,-0.843358
15.18,350.22,-0.843393
15.1817,350.237,-0.843438
15.1833,350.254,-0.843491
15.185,350.27,-0.843582
15.1867,350.287,-0.843657
15.1883,350.304,-0.843772
15.19,350.32,-0.8439
15.1917,350.337,-0.843974
15.1933,350.354,-0.844029
15.195,350.37,-0.844085
15.1967,350.387,-0.844126
15.1983,350.403,-0.844153
15.2,350.42,-0.844175
15.2017,350.436,-0.84419
15.2033,350.453,-0.844196
15.205,350.47,-0.844203
15.2067,350.486,-0.844212
15.2083,350.503,-0.84423
15.21,350.52,-0.844251
15.2117,350.536,-0.844277
15.2133,350.553,-0.844311
15.215,350.57,-0.844338
15.2167,350.586,-0.844371
15.2183,350.603,-0.844408
15.22,350.62,-0.844445
15.2217,350.636,-0.844479
15.2233,350.653,-0.844511
15.225,350.67,-0.844543
15.2267,350.686,-0.844574
15.2283,350.702,-0.844595
15.23,350.719,-0.844612
15.2317,350.736,-0.844628
15.2333,350.753,-0.844642
15.235,350.769,-0.844668
15.2367,350.786,-0.844693
15.2383,350.802,-0.844715
15.24,350.819,-0.844735
15.2417,350.835,-0.844758
15.2433,350.852,-0.844781
15.245,350.869,-0.844804
15.2467,350.885,-0.844832
15.2483,350.902,-0.844863
15.25,350.919,-0.844901
15.2517,350.936,-0.844942
15.2533,350.952,-0.844989
15.255,350.969,-0.845036
15.2567,350.985,-0.845083
15.2583,351.002,-0.845124
15.26,351.019,-0.845153
15.2617,351.036,-0.845174
15.2633,351.052,-0.845182
15.265,351.069,-0.845185
15.2667,351.085,-0.845183
15.2683,351.102,-0.84519
15.27,351.118,-0.845202
15.2717,351.135,-0.845215
15.2733,351.152,-0.845232
15.275,351.169,-0.845257
15.2767,351.185,-0.845288
15.2783,351.202,-0.845322
15.28,351.219,-0.845348
15.2817,351.236,-0.845371
15.2833,351.252,-0.845397
15.285,351.269,-0.845417
15.2867,351.286,-0.845448
15.2883,351.303,-0.845482
15.29,351.319,-0.845516
15.2917,351.336,-0.84556
15.2933,351.352,-0.845601
15.295,351.369,-0.845641
15.2967,351.386,-0.845679
15.2983,351.402,-0.845718
15.3,351.419,-0.845755
15.3017,351.435,-0.845783
15.3033,351.452,-0.845812
15.305,351.469,-0.845841
15.3067,351.485,-0.845867
15.3083,351.502,-0.845896
15.31,351.519,-0.845923
15.3117,351.535,-0.845948
15.3133,351.552,-0.845967
15.315,351.569,-0.845985
15.3167,351.585,-0.845994
15.3183,351.602,-0.846004
15.32,351.618,-0.846015
15.3217,351.635,-0.846028
15.3233,351.652,-0.84604
15.325,351.669,-0.846047
15.3267,351.686,-0.846067
15.3283,351.702,-0.846085
15.33,351.719,-0.8461
15.3317,351.735,-0.846121
15.3333,351.752,-0.846146
15.335,351.769,-0.846173
15.3367,351.786,-0.8462
15.3383,351.802,-0.846229
15.34,351.818,-0.846258
15.3417,351.835,-0.846287
15.3433,351.852,-0.84632
15.345,351.868,-0.846345
15.3467,351.885,-0.846373
15.3483,351.902,-0.846406
15.35,351.918,-0.846442
15.3517,351.935,-0.846476
15.3533,351.951,-0.846511
15.355,351.968,-0.846547
15.3567,351.985,-0.846585
15.3583,352.001,-0.846622
15.36,352.018,-0.846664
15.3617,352.035,-0.846696
15.3633,352.052,-0.84672
15.365,352.069,-0.846742
15.3667,352.085,-0.846766
15.3683,352.102,-0.846791
15.37,352.119,-0.846811
15.3717,352.135,-0.846833
15.3733,352.152,-0.846861
15.375,352.168,-0.846888
15.3767,352.185,-0.846917
15.3783,352.202,-0.846946
15.38,352.218,-0.846969
15.3817,352.235,-0.846993
15.3833,352.251,-0.847026
15.385,352.268,-0.847073
15.3867,352.285,-0.847123
15.3883,352.302,-0.847168
15.39,352.318,-0.847204
15.3917,352.335,-0.84723
15.3933,352.351,-0.847255
15.395,352.368,-0.847266
15.3967,352.385,-0.847279
15.3983,352.401,-0.847287
15.4,352.418,-0.847295
15.4017,352.435,-0.847298
15.4033,352.451,-0.847298
15.405,352.468,-0.847297
15.4067,352.484,-0.847308
15.4083,352.501,-0.847325
15.41,352.518,-0.847344
15.4117,352.535,-0.847364
15.4133,352.552,-0.847391
15.415,352.568,-0.847421
15.4167,352.585,-0.847452
15.4183,352.601,-0.847485
15.42,352.618,-0.847516
15.4217,352.634,-0.847543
15.4233,352.651,-0.847568
15.425,352.667,-0.847591
15.4267,352.684,-0.847616
15.4283,352.701,-0.847642
15.43,352.718,-0.847666
15.4317,352.734,-0.847699
15.4333,352.751,-0.84773
15.435,352.768,-0.847765
15.4367,352.784,-0.84781
15.4383,352.801,-0.847848
15.44,352.818,-0.847888
15.4417,352.834,-0.847922
15.4433,352.851,-0.847955
15.445,352.868,-0.847982
15.4467,352.884,-0.847999
15.4483,352.901,-0.848019
15.45,352.918,-0.848036
15.4517,352.934,-0.848058
15.4533,352.951,-0.848079
15.455,352.967,-0.8481
15.4567,352.984,-0.848123
15.4583,353.001,-0.848158
15.46,353.017,-0.848195
15.4617,353.033,-0.848232
15.4633,353.05,-0.848269
15.465,353.067,-0.8483
15.4667,353.084,-0.848326
15.4683,353.101,-0.848346
15.47,353.117,-0.848364
15.4717,353.134,-0.848382
15.4733,353.151,-0.848398
15.475,353.168,-0.848406
15.4767,353.184,-0.848413
15.4783,353.201,-0.848417
15.48,353.217,-0.848428
15.4817,353.233,-0.848448
15.4833,353.25,-0.848471
15.485,353.267,-0.848493
15.4867,353.283,-0.848513
15.4883,353.3,-0.848542
15.49,353.317,-0.84857
15.4917,353.334,-0.848596
15.4933,353.35,-0.848625
15.495,353.367,-0.848652
15.4967,353.384,-0.848685
15.4983,353.4,-0.848725
15.5,353.417,-0.848764
15.5017,353.434,-0.848801
15.5033,353.45,-0.848837
15.505,353.468,-0.848867
15.5067,353.484,-0.848898
15.5083,353.501,-0.848921
15.51,353.517,-0.848936
15.5117,353.534,-0.848948
15.5133,353.551,-0.848962
15.515,353.567,-0.848976
15.5167,353.584,-0.84899
15.5183,353.6,-0.84902
15.52,353.617,-0.849057
15.5217,353.634,-0.849099
15.5233,353.65,-0.849137
15.525,353.667,-0.849174
15.5267,353.684,-0.849213
15.5283,353.701,-0.849257
15.53,353.717,-0.849299
15.5317,353.734,-0.849338
15.5333,353.751,-0.849373
15.535,353.767,-0.849388
15.5367,353.784,-0.849406
15.5383,353.801,-0.849427
15.54,353.817,-0.849451
15.5417,353.834,-0.849475
15.5433,353.851,-0.849493
15.545,353.867,-0.849506
15.5467,353.883,-0.849526
15.5483,353.9,-0.84955
15.55,353.917,-0.849584
15.5517,353.934,-0.849619
15.5533,353.951,-0.849653
15.555,353.967,-0.849687
15.5567,353.983,-0.849726
15.5583,354,-0.849767
15.56,354.017,-0.849805
15.5617,354.033,-0.849847
15.5633,354.05,-0.84989
15.565,354.067,-0.849928
15.5667,354.083,-0.849964
15.5683,354.1,-0.849996
15.57,354.117,-0.850021
15.5717,354.133,-0.850044
15.5733,354.15,-0.850074
15.575,354.167,-0.850112
15.5767,354.183,-0.850148
15.5783,354.2,-0.85018
15.58,354.217,-0.850215
15.5817,354.233,-0.850252
15.5833,354.25,-0.850299
15.585,354.267,-0.850339
15.5867,354.284,-0.850384
15.5883,354.3,-0.850432
15.59,354.317,-0.850474
15.5917,354.333,-0.850525
15.5933,354.35,-0.850571
15.595,354.366,-0.850606
15.5967,354.383,-0.850622
15.5983,354.4,-0.85063
15.6,354.416,-0.850644
15.6017,354.433,-0.85066
15.6033,354.45,-0.850672
15.605,354.466,-0.850683
15.6067,354.483,-0.850694
15.6083,354.499,-0.850714
15.61,354.516,-0.850738
15.6117,354.533,-0.850764
15.6133,354.549,-0.850793
15.615,354.566,-0.850809
15.6167,354.583,-0.850817
15.6183,354.6,-0.850823
15.62,354.616,-0.85083
15.6217,354.633,-0.850846
15.6233,354.65,-0.850865
15.625,354.666,-0.850886
15.6267,354.683,-0.850915
15.6283,354.699,-0.850954
15.63,354.716,-0.850988
15.6317,354.733,-0.851024
15.6333,354.749,-0.851062
15.635,354.766,-0.851107
15.6367,354.783,-0.851146
15.6383,354.799,-0.851176
15.64,354.816,-0.8512
15.6417,354.833,-0.851226
15.6433,354.85,-0.851238
15.645,354.866,-0.851242
15.6467,354.883,-0.851243
15.6483,354.899,-0.851237
15.65,354.916,-0.851231
15.6517,354.932,-0.851222
15.6533,354.949,-0.851215
15.655,354.966,-0.851214
15.6567,354.982,-0.851215
15.6583,354.999,-0.851221
15.66,355.016,-0.851237
15.6617,355.032,-0.851248
15.6633,355.049,-0.851264
15.665,355.066,-0.851279
15.6667,355.082,-0.851297
15.6683,355.099,-0.851317
15.67,355.116,-0.851322
15.6717,355.133,-0.851331
15.6733,355.149,-0.851339
15.675,355.165,-0.851348
15.6767,355.182,-0.851357
15.6783,355.199,-0.851377
15.68,355.215,-0.851406
15.6817,355.232,-0.851436
15.6833,355.249,-0.851472
15.685,355.265,-0.851514
15.6867,355.282,-0.851557
15.6883,355.299,-0.8516
15.69,355.315,-0.851647
15.6917,355.332,-0.851692
15.6933,355.349,-0.851731
15.695,355.365,-0.851762
15.6967,355.382,-0.851785
15.6983,355.399,-0.851803
15.7,355.416,-0.851818
15.7017,355.432,-0.851829
15.7033,355.448,-0.851847
15.705,355.465,-0.85186
15.7067,355.482,-0.851872
15.7083,355.498,-0.851883
15.71,355.515,-0.851901
15.7117,355.532,-0.851924
15.7133,355.548,-0.851944
15.715,355.565,-0.851963
15.7167,355.582,-0.851979
15.7183,355.599,-0.851998
15.72,355.615,-0.852015
15.7217,355.632,-0.852026
15.7233,355.648,-0.852034
15.725,355.665,-0.852042
15.7267,355.682,-0.852057
15.7283,355.699,-0.852078
15.73,355.715,-0.85211
15.7317,355.731,-0.852141
15.7333,355.748,-0.85218
15.735,355.765,-0.852224
15.7367,355.782,-0.852274
15.7383,355.798,-0.852329
15.74,355.815,-0.852365
15.7417,355.832,-0.852403
15.7433,355.848,-0.852439
15.745,355.865,-0.852478
15.7467,355.881,-0.852508
15.7483,355.898,-0.85253
15.75,355.914,-0.852557
15.7517,355.931,-0.852565
15.7533,355.948,-0.852561
15.755,355.965,-0.852555
15.7567,355.981,-0.852557
15.7583,355.998,-0.85256
15.76,356.015,-0.852557
15.7617,356.032,-0.852561
15.7633,356.049,-0.852563
15.765,356.065,-0.852568
15.7667,356.082,-0.852582
15.7683,356.099,-0.8526
15.77,356.116,-0.85263
15.7717,356.132,-0.852668
15.7733,356.149,-0.852715
15.775,356.165,-0.852762
15.7767,356.181,-0.852807
15.7783,356.198,-0.852846
15.78,356.215,-0.85287
15.7817,356.232,-0.852887
15.7833,356.248,-0.85289
15.785,356.265,-0.852889
15.7867,356.281,-0.852886
15.7883,356.298,-0.852895
15.79,356.314,-0.852905
15.7917,356.332,-0.852911
15.7933,356.348,-0.852915
15.795,356.365,-0.852932
15.7967,356.381,-0.852963
15.7983,356.398,-0.852992
15.8,356.415,-0.853027
15.8017,356.432,-0.853062
15.8033,356.449,-0.853095
15.805,356.465,-0.853131
15.8067,356.482,-0.853166
15.8083,356.498,-0.853204
15.81,356.515,-0.853243
15.8117,356.531,-0.85329
15.8133,356.548,-0.853339
15.815,356.565,-0.853387
15.8167,356.581,-0.853425
15.8183,356.598,-0.853455
15.82,356.614,-0.853489
15.8217,356.631,-0.85351
15.8233,356.648,-0.853522
15.825,356.664,-0.853528
15.8267,356.681,-0.853523
15.8283,356.698,-0.853516
15.83,356.715,-0.853515
15.8317,356.731,-0.853512
15.8333,356.748,-0.853512
15.835,356.764,-0.853525
15.8367,356.781,-0.853548
15.8383,356.797,-0.853572
15.84,356.814,-0.853603
15.8417,356.831,-0.85364
15.8433,356.847,-0.853674
15.845,356.864,-0.853711
15.8467,356.881,-0.853743
15.8483,356.897,-0.853775
15.85,356.914,-0.853802
15.8517,356.931,-0.853818
15.8533,356.948,-0.853839
15.855,356.965,-0.853858
15.8567,356.981,-0.853874
15.8583,356.997,-0.853892
15.86,357.014,-0.853908
15.8617,357.031,-0.853919
15.8633,357.047,-0.853929
15.865,357.064,-0.853941
15.8667,357.081,-0.85395
15.8683,357.097,-0.853959
15.87,357.114,-0.853961
15.8717,357.13,-0.853974
15.8733,357.147,-0.853985
15.875,357.164,-0.853987
15.8767,357.18,-0.853997
15.8783,357.197,-0.854004
15.88,357.214,-0.85401
15.8817,357.23,-0.854027
15.8833,357.247,-0.854045
15.885,357.263,-0.854063
15.8867,357.28,-0.85408
15.8883,357.297,-0.854102
15.89,357.313,-0.854127
15.8917,357.331,-0.85416
15.8933,357.347,-0.854178
15.895,357.363,-0.854192
15.8967,357.38,-0.854202
15.8983,357.397,-0.854219
15.9,357.414,-0.854234
15.9017,357.43,-0.854244
15.9033,357.447,-0.854262
15.905,357.464,-0.854286
15.9067,357.48,-0.854319
15.9083,357.497,-0.854343
15.91,357.513,-0.854366
15.9117,357.53,-0.854397
15.9133,357.547,-0.854424
15.915,357.563,-0.854453
15.9167,357.58,-0.854487
15.9183,357.597,-0.854527
15.92,357.613,-0.854569
15.9217,357.63,-0.854611
15.9233,357.647,-0.854651
15.925,357.663,-0.854696
15.9267,357.68,-0.854735
15.9283,357.697,-0.85477
15.93,357.713,-0.854792
15.9317,357.729,-0.854797
15.9333,357.746,-0.854799
15.935,357.763,-0.854792
15.9367,357.78,-0.854781
15.9383,357.796,-0.85476
15.94,357.813,-0.854729
15.9417,357.829,-0.854698
15.9433,357.846,-0.854682
15.945,357.863,-0.85468
15.9467,357.88,-0.854691
15.9483,357.896,-0.854707
15.95,357.913,-0.854722
15.9517,357.93,-0.85475
15.9533,357.946,-0.854783
15.955,357.963,-0.854815
15.9567,357.979,-0.854843
15.9583,357.996,-0.854867
15.96,358.013,-0.854885
15.9617,358.029,-0.854897
15.9633,358.046,-0.854911
15.965,358.062,-0.85493
15.9667,358.079,-0.854949
15.9683,358.096,-0.854966
15.97,358.113,-0.854982
15.9717,358.129,-0.85499
15.9733,358.146,-0.855009
15.975,358.162,-0.855022
15.9767,358.179,-0.855036
15.9783,358.196,-0.855055
15.98,358.213,-0.855068
15.9817,358.229,-0.855083
15.9833,358.246,-0.855103
15.985,358.262,-0.855129
15.9867,358.279,-0.855158
15.9883,358.296,-0.855182
15.99,358.313,-0.855201
15.9917,358.329,-0.855212
15.9933,358.346,-0.855214
15.995,358.363,-0.855209
15.9967,358.379,-0.855209
15.9983,358.396,-0.855221
16,358.412,-0.855241
16.0017,358.429,-0.85527
16.0033,358.446,-0.855314
16.005,358.462,-0.855365
16.0067,358.479,-0.855415
16.0083,358.496,-0.855465
16.01,358.512,-0.855507
16.0117,358.529,-0.85554
16.0133,358.546,-0.855564
16.015,358.563,-0.855578
16.0167,358.579,-0.855586
16.0183,358.596,-0.855588
16.02,358.612,-0.855599
16.0217,358.629,-0.855614
16.0233,358.646,-0.855629
16.025,358.662,-0.855647
16.0267,358.679,-0.855659
16.0283,358.695,-0.855681
16.03,358.712,-0.855709
16.0317,358.729,-0.855743
16.0333,358.745,-0.855767
16.035,358.762,-0.855776
16.0367,358.779,-0.855782
16.0383,358.795,-0.855791
16.04,358.812,-0.855786
16.0417,358.829,-0.855782
16.0433,358.845,-0.855775
16.045,358.862,-0.855773
16.0467,358.878,-0.855765
16.0483,358.895,-0.855764
16.05,358.912,-0.855765
16.0517,358.929,-0.855769
16.0533,358.945,-0.855775
16.055,358.962,-0.855786
16.0567,358.978,-0.855801
16.0583,358.995,-0.855816
16.06,359.011,-0.855832
16.0617,359.028,-0.855854
16.0633,359.045,-0.855876
16.065,359.062,-0.855897
16.0667,359.078,-0.855917
16.0683,359.095,-0.855939
16.07,359.111,-0.85596
16.0717,359.128,-0.855982
16.0733,359.145,-0.856001
16.075,359.162,-0.856018
16.0767,359.178,-0.856038
16.0783,359.195,-0.85606
16.08,359.212,-0.856076
16.0817,359.228,-0.856089
16.0833,359.245,-0.856095
16.085,359.261,-0.856103
16.0867,359.278,-0.85611
16.0883,359.295,-0.856117
16.09,359.312,-0.856119
16.0917,359.328,-0.856124
16.0933,359.345,-0.856125
16.095,359.361,-0.85613
16.0967,359.378,-0.856141
16.0983,359.395,-0.856156
16.1,359.411,-0.856171
16.1017,359.428,-0.856182
16.1033,359.445,-0.856203
16.105,359.461,-0.856233
16.1067,359.478,-0.856256
16.1083,359.495,-0.856281
16.11,359.511,-0.856306
16.1117,359.527,-0.856328
16.1133,359.545,-0.856348
16.115,359.561,-0.856369
16.1167,359.578,-0.85639
16.1183,359.595,-0.856411
16.12,359.611,-0.856436
16.1217,359.628,-0.856469
16.1233,359.644,-0.856503
16.125,359.661,-0.856535
16.1267,359.678,-0.856567
16.1283,359.694,-0.856593
16.13,359.711,-0.856625
16.1317,359.728,-0.856654
16.1333,359.744,-0.856682
16.135,359.761,-0.856703
16.1367,359.778,-0.856732
16.1383,359.794,-0.856755
16.14,359.811,-0.85678
16.1417,359.828,-0.85681
16.1433,359.844,-0.856846
16.145,359.861,-0.856875
16.1467,359.878,-0.856896
16.1483,359.894,-0.856911
16.15,359.911,-0.856923
16.1517,359.928,-0.85693
16.1533,359.944,-0.856928
16.155,359.961,-0.856925
16.1567,359.977,-0.856929
16.1583,359.994,-0.856929
16.16,360.011,-0.856921
16.1617,360.028,-0.856917
16.1633,360.045,-0.85693
16.165,360.061,-0.856941
16.1667,360.077,-0.856961
16.1683,360.094,-0.856988
16.17,360.111,-0.857022
16.1717,360.127,-0.857058
16.1733,360.144,-0.857094
16.175,360.16,-0.857129
16.1767,360.177,-0.857152
16.1783,360.193,-0.857172
16.18,360.21,-0.857178
16.1817,360.227,-0.857179
16.1833,360.244,-0.857178
16.185,360.261,-0.857176
16.1867,360.277,-0.857174
16.1883,360.294,-0.857171
16.19,360.31,-0.85717
16.1917,360.327,-0.857176
16.1933,360.343,-0.857188
16.195,360.36,-0.857199
16.1967,360.376,-0.857213
16.1983,360.393,-0.857232
16.2,360.41,-0.857247
16.2017,360.427,-0.857265
16.2033,360.444,-0.857285
16.205,360.46,-0.857306
16.2067,360.477,-0.857326
16.2083,360.494,-0.857348
16.21,360.51,-0.857371
16.2117,360.527,-0.857393
16.2133,360.544,-0.857419
16.215,360.56,-0.857445
16.2167,360.577,-0.857463
16.2183,360.593,-0.857472
16.22,360.61,-0.857488
16.2217,360.626,-0.857499
16.2233,360.643,-0.85751
16.225,360.66,-0.857516
16.2267,360.676,-0.857514
16.2283,360.693,-0.857508
16.23,360.709,-0.857505
16.2317,360.726,-0.857505
16.2333,360.743,-0.857508
16.235,360.759,-0.857521
16.2367,360.776,-0.857538
16.2383,360.793,-0.857564
16.24,360.81,-0.857588
16.2417,360.826,-0.857608
16.2433,360.843,-0.857627
16.245,360.86,-0.857649
16.2467,360.876,-0.857672
16.2483,360.893,-0.857698
16.25,360.909,-0.857723
16.2517,360.926,-0.857753
16.2533,360.943,-0.857788
16.255,360.959,-0.857819
16.2567,360.976,-0.85785
16.2583,360.992,-0.857883
16.26,361.009,-0.857911
16.2617,361.026,-0.857934
16.2633,361.043,-0.857952
16.265,361.059,-0.857962
16.2667,361.076,-0.857965
16.2683,361.092,-0.857971
16.27,361.109,-0.857974
16.2717,361.126,-0.85798
16.2733,361.142,-0.857982
16.275,361.159,-0.857989
16.2767,361.176,-0.857999
16.2783,361.192,-0.858015
16.28,361.209,-0.858033
16.2817,361.226,-0.858044
16.2833,361.242,-0.858055
16.285,361.259,-0.858068
16.2867,361.276,-0.858083
16.2883,361.292,-0.8581
16.29,361.309,-0.858116
16.2917,361.325,-0.858136
16.2933,361.342,-0.858152
16.295,361.359,-0.858169
16.2967,361.376,-0.858184
16.2983,361.392,-0.858202
16.3,361.409,-0.858223
16.3017,361.426,-0.858241
16.3033,361.442,-0.858257
16.305,361.459,-0.858275
16.3067,361.475,-0.858293
16.3083,361.492,-0.85831
16.31,361.508,-0.858323
16.3117,361.525,-0.85834
16.3133,361.542,-0.858353
16.315,361.559,-0.858367
16.3167,361.575,-0.858381
16.3183,361.592,-0.858392
16.32,361.608,-0.858397
16.3217,361.625,-0.85839
16.3233,361.642,-0.858392
16.325,361.658,-0.858397
16.3267,361.675,-0.858397
16.3283,361.692,-0.858401
16.33,361.708,-0.858416
16.3317,361.725,-0.858436
16.3333,361.742,-0.85846
16.335,361.758,-0.858482
16.3367,361.775,-0.858498
16.3383,361.792,-0.858505
16.34,361.808,-0.858516
16.3417,361.825,-0.858529
16.3433,361.841,-0.858532
16.345,361.858,-0.858532
16.3467,361.875,-0.858538
16.3483,361.892,-0.858551
16.35,361.908,-0.858572
16.3517,361.925,-0.858606
16.3533,361.942,-0.85864
16.355,361.958,-0.858671
16.3567,361.975,-0.858707
16.3583,361.992,-0.858739
16.36,362.008,-0.858769
16.3617,362.025,-0.858795
16.3633,362.042,-0.858817
16.365,362.059,-0.858835
16.3667,362.075,-0.858853
16.3683,362.091,-0.858872
16.37,362.108,-0.858896
16.3717,362.124,-0.85891
16.3733,362.141,-0.858924
16.375,362.158,-0.858933
16.3767,362.174,-0.858944
16.3783,362.191,-0.858956
16.38,362.208,-0.858964
16.3817,362.224,-0.858973
16.3833,362.241,-0.858989
16.385,362.258,-0.859005
16.3867,362.274,-0.85902
16.3883,362.291,-0.859035
16.39,362.308,-0.85905
16.3917,362.325,-0.859057
16.3933,362.341,-0.859063
16.395,362.357,-0.859066
16.3967,362.374,-0.859075
16.3983,362.391,-0.859087
16.4,362.407,-0.859097
16.4017,362.424,-0.859111
16.4033,362.441,-0.859123
16.405,362.457,-0.859133
16.4067,362.474,-0.859148
16.4083,362.491,-0.859161
16.41,362.507,-0.859178
16.4117,362.524,-0.859186
16.4133,362.54,-0.859196
16.415,362.557,-0.859202
16.4167,362.574,-0.859209
16.4183,362.591,-0.859214
16.42,362.607,-0.859213
16.4217,362.624,-0.85921
16.4233,362.64,-0.859217
16.425,362.657,-0.859229
16.4267,362.674,-0.859245
16.4283,362.69,-0.859263
16.43,362.707,-0.859275
16.4317,362.724,-0.859293
16.4333,362.74,-0.859309
16.435,362.757,-0.859324
16.4367,362.774,-0.859335
16.4383,362.791,-0.859344
16.44,362.807,-0.859346
16.4417,362.824,-0.859346
16.4433,362.841,-0.859354
16.445,362.857,-0.859363
16.4467,362.874,-0.859381
16.4483,362.891,-0.859392
16.45,362.907,-0.859404
16.4517,362.924,-0.859422
16.4533,362.94,-0.859439
16.455,362.957,-0.859457
16.4567,362.973,-0.859483
16.4583,362.99,-0.859506
16.46,363.007,-0.859534
16.4617,363.024,-0.859563
16.4633,363.04,-0.859598
16.465,363.057,-0.859633
16.4667,363.074,-0.859661
16.4683,363.091,-0.859689
16.47,363.108,-0.859714
16.4717,363.124,-0.859735
16.4733,363.14,-0.859765
16.475,363.157,-0.859785
16.4767,363.174,-0.859803
16.4783,363.19,-0.859821
16.48,363.207,-0.859835
16.4817,363.223,-0.85985
16.4833,363.24,-0.85987
16.485,363.257,-0.85989
16.4867,363.273,-0.859911
16.4883,363.29,-0.859938
16.49,363.307,-0.859963
16.4917,363.324,-0.859985
16.4933,363.34,-0.860012
16.495,363.357,-0.860031
16.4967,363.373,-0.860046
16.4983,363.39,-0.860055
16.5,363.407,-0.860066
16.5017,363.423,-0.860073
16.5033,363.44,-0.860079
16.505,363.457,-0.860094
16.5067,363.473,-0.860123
16.5083,363.49,-0.860153
16.51,363.507,-0.860179
16.5117,363.523,-0.860201
16.5133,363.54,-0.860215
16.515,363.557,-0.860221
16.5167,363.573,-0.860231
16.5183,363.59,-0.860242
16.52,363.607,-0.860242
16.5217,363.624,-0.860234
16.5233,363.64,-0.860218
16.525,363.657,-0.860206
16.5267,363.673,-0.860204
16.5283,363.69,-0.860213
16.53,363.707,-0.860228
16.5317,363.724,-0.860245
16.5333,363.74,-0.86026
16.535,363.757,-0.860268
16.5367,363.773,-0.860283
16.5383,363.79,-0.860293
16.54,363.806,-0.860304
16.5417,363.823,-0.860305
16.5433,363.84,-0.860303
16.545,363.856,-0.860308
16.5467,363.873,-0.860319
16.5483,363.89,-0.860329
16.55,363.906,-0.860346
16.5517,363.923,-0.860368
16.5533,363.94,-0.860391
16.555,363.957,-0.860412
16.5567,363.973,-0.860443
16.5583,363.989,-0.860479
16.56,364.006,-0.860521
16.5617,364.023,-0.860552
16.5633,364.04,-0.860576
16.565,364.056,-0.860592
16.5667,364.073,-0.860597
16.5683,364.089,-0.860593
16.57,364.106,-0.860594
16.5717,364.123,-0.860598
16.5733,364.139,-0.860598
16.575,364.156,-0.860607
16.5767,364.173,-0.860621
16.5783,364.19,-0.860641
16.58,364.206,-0.86067
16.5817,364.223,-0.860709
16.5833,364.239,-0.860749
16.585,364.256,-0.860792
16.5867,364.273,-0.860828
16.5883,364.29,-0.860851
16.59,364.306,-0.860868
16.5917,364.323,-0.860874
16.5933,364.34,-0.860872
16.595,364.356,-0.860866
16.5967,364.373,-0.860854
16.5983,364.389,-0.860836
16.6,364.406,-0.860808
16.6017,364.422,-0.860788
16.6033,364.439,-0.860774
16.605,364.456,-0.860768
16.6067,364.473,-0.860769
16.6083,364.489,-0.860781
16.61,364.506,-0.860788
16.6117,364.523,-0.860803
16.6133,364.54,-0.860829
16.615,364.556,-0.860848
16.6167,364.573,-0.860863
16.6183,364.589,-0.860873
16.62,364.606,-0.860882
16.6217,364.623,-0.860888
16.6233,364.64,-0.860884
16.625,364.656,-0.860886
16.6267,364.673,-0.860886
16.6283,364.689,-0.860893
16.63,364.706,-0.860901
16.6317,364.723,-0.860921
16.6333,364.739,-0.86094
16.635,364.756,-0.860953
16.6367,364.772,-0.86097
16.6383,364.789,-0.860989
16.64,364.806,-0.861006
16.6417,364.822,-0.861011
16.6433,364.839,-0.861018
16.645,364.856,-0.861017
16.6467,364.872,-0.861025
16.6483,364.889,-0.861029
16.65,364.906,-0.861025
16.6517,364.923,-0.861011
16.6533,364.939,-0.860998
16.655,364.956,-0.86099
16.6567,364.972,-0.860991
16.6583,364.989,-0.860989
16.66,365.006,-0.86099
16.6617,365.022,-0.861002
16.6633,365.039,-0.861019
16.665,365.056,-0.861038
16.6667,365.072,-0.861066
16.6683,365.089,-0.86109
16.67,365.105,-0.861109
16.6717,365.122,-0.861133
16.6733,365.139,-0.861154
16.675,365.155,-0.861186
16.6767,365.172,-0.861211
16.6783,365.189,-0.861229
16.68,365.205,-0.861247
16.6817,365.222,-0.861264
16.6833,365.239,-0.86127
16.685,365.255,-0.861269
16.6867,365.272,-0.861267
16.6883,365.289,-0.861262
16.69,365.305,-0.861262
16.6917,365.322,-0.861258
16.6933,365.339,-0.861252
16.695,365.355,-0.861242
16.6967,365.372,-0.861231
16.6983,365.388,-0.861232
16.7,365.405,-0.861245
16.7017,365.422,-0.861252
16.7033,365.439,-0.861252
16.705,365.456,-0.861251
16.7067,365.472,-0.861245
16.7083,365.489,-0.861246
16.71,365.505,-0.861237
16.7117,365.522,-0.861225
16.7133,365.538,-0.861205
16.715,365.555,-0.861195
16.7167,365.572,-0.861189
16.7183,365.588,-0.861185
16.72,365.605,-0.861182
16.7217,365.622,-0.861175
16.7233,365.638,-0.861186
16.725,365.655,-0.861204
16.7267,365.672,-0.861231
16.7283,365.689,-0.861255
16.73,365.705,-0.861276
16.7317,365.722,-0.861298
16.7333,365.738,-0.86132
16.735,365.755,-0.861341
16.7367,365.771,-0.861351
16.7383,365.788,-0.861356
16.74,365.805,-0.861353
16.7417,365.822,-0.86135
16.7433,365.838,-0.861342
16.745,365.855,-0.861334
16.7467,365.872,-0.861324
16.7483,365.888,-0.861312
16.75,365.905,-0.861302
16.7517,365.922,-0.861308
16.7533,365.939,-0.861327
16.755,365.955,-0.861352
16.7567,365.972,-0.861379
16.7583,365.989,-0.861401
16.76,366.005,-0.861426
16.7617,366.022,-0.861443
16.7633,366.038,-0.861458
16.765,366.055,-0.861457
16.7667,366.072,-0.86145
16.7683,366.088,-0.861438
16.77,366.105,-0.861417
16.7717,366.121,-0.861401
16.7733,366.138,-0.861399
16.775,366.155,-0.861405
16.7767,366.17,-0.861416
16.7783,366.187,-0.861429
16.78,366.204,-0.861447
16.7817,366.221,-0.861473
16.7833,366.237,-0.861503
16.785,366.254,-0.861532
16.7867,366.271,-0.86155
16.7883,366.288,-0.861563
16.79,366.304,-0.861578
16.7917,366.321,-0.861586
16.7933,366.337,-0.861589
16.795,366.354,-0.861582
16.7967,366.37,-0.861577
16.7983,366.387,-0.861576
16.8,366.404,-0.861579
16.8017,366.421,-0.861576
16.8033,366.437,-0.861575
16.805,366.454,-0.861589
16.8067,366.471,-0.861606
16.8083,366.487,-0.861626
16.81,366.504,-0.861647
16.8117,366.521,-0.861676
16.8133,366.538,-0.861707
16.815,366.554,-0.86173
16.8167,366.571,-0.861751
16.8183,366.588,-0.861771
16.82,366.604,-0.861781
16.8217,366.621,-0.861789
16.8233,366.638,-0.861799
16.825,366.654,-0.861815
16.8267,366.671,-0.861833
16.8283,366.688,-0.861844
16.83,366.704,-0.86186
16.8317,366.721,-0.861869
16.8333,366.738,-0.861875
16.835,366.754,-0.861877
16.8367,366.771,-0.861873
16.8383,366.788,-0.861872
16.84,366.804,-0.861871
16.8417,366.821,-0.861876
16.8433,366.838,-0.861879
16.845,366.854,-0.861889
16.8467,366.871,-0.8619
16.8483,366.887,-0.861904
16.85,366.904,-0.861911
16.8517,366.921,-0.861923
16.8533,366.937,-0.861936
16.855,366.954,-0.861944
16.8567,366.971,-0.861958
16.8583,366.987,-0.861977
16.86,367.004,-0.861989
16.8617,367.02,-0.861997
16.8633,367.038,-0.86201
16.865,367.054,-0.862024
16.8667,367.07,-0.862034
16.8683,367.087,-0.862038
16.87,367.104,-0.862039
16.8717,367.121,-0.862046
16.8733,367.137,-0.862064
16.875,367.154,-0.862077
16.8767,367.171,-0.862083
16.8783,367.188,-0.862086
16.88,367.204,-0.862093
16.8817,367.221,-0.862104
16.8833,367.237,-0.862118
16.885,367.254,-0.862123
16.8867,367.271,-0.862127
16.8883,367.287,-0.862135
16.89,367.304,-0.862149
16.8917,367.321,-0.862152
16.8933,367.338,-0.86216
16.895,367.354,-0.862163
16.8967,367.371,-0.862169
16.8983,367.388,-0.862179
16.9,367.404,-0.86219
16.9017,367.421,-0.862207
16.9033,367.438,-0.862224
16.905,367.454,-0.86225
16.9067,367.471,-0.862273
16.9083,367.488,-0.862304
16.91,367.504,-0.862337
16.9117,367.521,-0.862364
16.9133,367.537,-0.862386
16.915,367.554,-0.862408
16.9167,367.571,-0.86243
16.9183,367.588,-0.862449
16.92,367.604,-0.862469
16.9217,367.621,-0.862492
16.9233,367.637,-0.862514
16.925,367.654,-0.862527
16.9267,367.671,-0.862534
16.9283,367.688,-0.862534
16.93,367.704,-0.862536
16.9317,367.721,-0.862534
16.9333,367.737,-0.862531
16.935,367.754,-0.862527
16.9367,367.771,-0.862531
16.9383,367.787,-0.862545
16.94,367.804,-0.862561
16.9417,367.821,-0.862582
16.9433,367.837,-0.862599
16.945,367.854,-0.862617
16.9467,367.871,-0.862638
16.9483,367.888,-0.86265
16.95,367.904,-0.862659
16.9517,367.921,-0.862671
16.9533,367.937,-0.862678
16.955,367.954,-0.862684
16.9567,367.971,-0.862686
16.9583,367.988,-0.862679
16.96,368.004,-0.862676
16.9617,368.021,-0.862675
16.9633,368.037,-0.86267
16.965,368.054,-0.862668
16.9667,368.07,-0.862657
16.9683,368.087,-0.86265
16.97,368.104,-0.862648
16.9717,368.12,-0.862653
16.9733,368.137,-0.862668
16.975,368.153,-0.862688
16.9767,368.17,-0.862706
16.9783,368.187,-0.862746
16.98,368.203,-0.862797
16.9817,368.22,-0.862844
16.9833,368.237,-0.862888
16.985,368.254,-0.862924
16.9867,368.27,-0.862945
16.9883,368.287,-0.862942
16.99,368.304,-0.862921
16.9917,368.32,-0.862811
16.9933,368.337,-0.86264
16.995,368.353,-0.862485
16.9967,368.37,-0.862397
16.9983,368.387,-0.862368
17,368.403,-0.862346
17.0017,368.42,-0.862348
17.0033,368.436,-0.862366
17.005,368.453,-0.862402
17.0067,368.47,-0.862443
17.0083,368.487,-0.862497
17.01,368.503,-0.86253
17.0117,368.52,-0.862563
17.0133,368.537,-0.862584
17.015,368.553,-0.862605
17.0167,368.57,-0.862618
17.0183,368.587,-0.862626
17.02,368.603,-0.862638
17.0217,368.62,-0.862646
17.0233,368.637,-0.862658
17.025,368.653,-0.862672
17.0267,368.67,-0.862684
17.0283,368.686,-0.862691
17.03,368.703,-0.862702
17.0317,368.719,-0.862708
17.0333,368.736,-0.862709
17.035,368.753,-0.862702
17.0367,368.769,-0.8627
17.0383,368.786,-0.862693
17.04,368.803,-0.862689
17.0417,368.82,-0.86268
17.0433,368.836,-0.862663
17.045,368.853,-0.862647
17.0467,368.869,-0.862635
17.0483,368.886,-0.862628
17.05,368.903,-0.862625
17.0517,368.919,-0.862626
17.0533,368.936,-0.862625
17.055,368.953,-0.862624
17.0567,368.969,-0.862625
17.0583,368.986,-0.862616
17.06,369.003,-0.862611
17.0617,369.019,-0.862601
17.0633,369.036,-0.862587
17.065,369.053,-0.862577
17.0667,369.069,-0.86257
17.0683,369.086,-0.862572
17.07,369.103,-0.862573
17.0717,369.119,-0.86258
17.0733,369.136,-0.86258
17.075,369.153,-0.862574
17.0767,369.169,-0.86257
17.0783,369.186,-0.862574
17.08,369.203,-0.862579
17.0817,369.22,-0.862585
17.0833,369.236,-0.862585
17.085,369.253,-0.862593
17.0867,369.27,-0.862603
17.0883,369.286,-0.862615
17.09,369.303,-0.862635
17.0917,369.319,-0.862646
17.0933,369.336,-0.862656
17.095,369.352,-0.862674
17.0967,369.369,-0.862688
17.0983,369.386,-0.862698
17.1,369.402,-0.862717
17.1017,369.419,-0.862734
17.1033,369.435,-0.862751
17.105,369.452,-0.862766
17.1067,369.469,-0.862774
17.1083,369.486,-0.862784
17.11,369.502,-0.862788
17.1117,369.519,-0.862787
17.1133,369.536,-0.862783
17.115,369.552,-0.862784
17.1167,369.569,-0.862785
17.1183,369.585,-0.862783
17.12,369.602,-0.862787
17.1217,369.618,-0.8628
17.1233,369.635,-0.862827
17.125,369.652,-0.862862
17.1267,369.668,-0.862897
17.1283,369.685,-0.862932
17.13,369.702,-0.862966
17.1317,369.719,-0.862989
17.1333,369.735,-0.863
17.135,369.752,-0.863008
17.1367,369.768,-0.863007
17.1383,369.785,-0.863
17.14,369.802,-0.862988
17.1417,369.819,-0.86299
17.1433,369.835,-0.862988
17.145,369.852,-0.862981
17.1467,369.869,-0.862977
17.1483,369.885,-0.862986
17.15,369.902,-0.862992
17.1517,369.919,-0.862995
17.1533,369.936,-0.863
17.155,369.952,-0.863003
17.1567,369.969,-0.862989
17.1583,369.985,-0.862971
17.16,370.002,-0.86296
17.1617,370.018,-0.862952
17.1633,370.035,-0.862958
17.165,370.052,-0.862961
17.1667,370.068,-0.862975
17.1683,370.085,-0.862991
17.17,370.102,-0.863008
17.1717,370.118,-0.863016
17.1733,370.135,-0.863023
17.175,370.151,-0.863018
17.1767,370.168,-0.863012
17.1783,370.185,-0.86301
17.18,370.201,-0.863005
17.1817,370.218,-0.863011
17.1833,370.235,-0.863022
17.185,370.251,-0.863032
17.1867,370.268,-0.863046
17.1883,370.285,-0.863061
17.19,370.302,-0.863072
17.1917,370.318,-0.863077
17.1933,370.335,-0.863085
17.195,370.351,-0.863093
17.1967,370.368,-0.863107
17.1983,370.384,-0.863117
17.2,370.401,-0.863124
17.2017,370.418,-0.863134
17.2033,370.435,-0.863142
17.205,370.452,-0.863147
17.2067,370.468,-0.863146
17.2083,370.485,-0.863139
17.21,370.501,-0.863133
17.2117,370.518,-0.863127
17.2133,370.534,-0.863117
17.215,370.551,-0.863097
17.2167,370.568,-0.863072
17.2183,370.584,-0.863048
17.22,370.601,-0.863027
17.2217,370.617,-0.863008
17.2233,370.634,-0.862993
17.225,370.651,-0.862983
17.2267,370.668,-0.862984
17.2283,370.684,-0.86299
17.23,370.701,-0.862996
17.2317,370.717,-0.863003
17.2333,370.734,-0.863018
17.235,370.751,-0.863035
17.2367,370.767,-0.863056
17.2383,370.784,-0.863079
17.24,370.801,-0.863105
17.2417,370.817,-0.86313
17.2433,370.834,-0.863155
17.245,370.851,-0.863176
17.2467,370.867,-0.863199
17.2483,370.884,-0.863211
17.25,370.901,-0.863213
17.2517,370.917,-0.863211
17.2533,370.934,-0.863214
17.255,370.951,-0.863208
17.2567,370.967,-0.863206
17.2583,370.984,-0.863201
17.26,371.001,-0.863192
17.2617,371.017,-0.863183
17.2633,371.034,-0.863167
17.265,371.051,-0.863161
17.2667,371.067,-0.863164
17.2683,371.084,-0.863163
17.27,371.101,-0.863156
17.2717,371.117,-0.863154
17.2733,371.133,-0.86315
17.275,371.15,-0.863155
17.2767,371.167,-0.863159
17.2783,371.183,-0.863172
17.28,371.2,-0.863189
17.2817,371.217,-0.863207
17.2833,371.234,-0.86322
17.285,371.251,-0.863237
17.2867,371.268,-0.863253
17.2883,371.284,-0.863268
17.29,371.301,-0.863276
17.2917,371.318,-0.863275
17.2933,371.334,-0.863263
17.295,371.351,-0.863248
17.2967,371.367,-0.863226
17.2983,371.384,-0.863202
17.3,371.4,-0.863181
17.3017,371.417,-0.863165
17.3033,371.433,-0.863155
17.305,371.45,-0.863148
17.3067,371.467,-0.863155
17.3083,371.483,-0.863156
17.31,371.5,-0.863162
17.3117,371.517,-0.863172
17.3133,371.533,-0.863189
17.315,371.55,-0.863212
17.3167,371.567,-0.863239
17.3183,371.584,-0.863266
17.32,371.6,-0.863301
17.3217,371.617,-0.863351
17.3233,371.633,-0.863391
17.325,371.65,-0.863431
17.3267,371.667,-0.863458
17.3283,371.683,-0.863472
17.33,371.7,-0.863489
17.3317,371.716,-0.863503
17.3333,371.733,-0.863501
17.335,371.75,-0.863489
17.3367,371.766,-0.863468
17.3383,371.783,-0.86344
17.34,371.8,-0.863419
17.3417,371.816,-0.863402
17.3433,371.833,-0.863389
17.345,371.85,-0.863386
17.3467,371.866,-0.863383
17.3483,371.883,-0.86339
17.35,371.9,-0.863395
17.3517,371.916,-0.863401
17.3533,371.933,-0.863415
17.355,371.95,-0.863423
17.3567,371.966,-0.863424
17.3583,371.983,-0.863424
17.36,372,-0.863426
17.3617,372.016,-0.863427
17.3633,372.033,-0.86343
17.365,372.049,-0.863435
17.3667,372.066,-0.863444
17.3683,372.083,-0.863453
17.37,372.1,-0.863453
17.3717,372.116,-0.863448
17.3733,372.133,-0.863442
17.375,372.15,-0.863431
17.3767,372.166,-0.86341
17.3783,372.183,-0.863389
17.38,372.199,-0.863363
17.3817,372.216,-0.863343
17.3833,372.232,-0.863323
17.385,372.249,-0.863312
17.3867,372.266,-0.863305
17.3883,372.282,-0.863296
17.39,372.299,-0.863293
17.3917,372.316,-0.863302
17.3933,372.333,-0.863323
17.395,372.349,-0.863341
17.3967,372.366,-0.863364
17.3983,372.383,-0.863392
17.4,372.399,-0.863416
17.4017,372.416,-0.863439
17.4033,372.432,-0.863461
17.405,372.449,-0.863483
17.4067,372.466,-0.8635
17.4083,372.482,-0.86351
17.41,372.499,-0.863508
17.4117,372.516,-0.863511
17.4133,372.532,-0.863514
17.415,372.549,-0.863511
17.4167,372.566,-0.863509
17.4183,372.582,-0.8635
17.42,372.599,-0.863485
17.4217,372.616,-0.863468
17.4233,372.633,-0.863446
17.425,372.649,-0.863434
17.4267,372.665,-0.863425
17.4283,372.682,-0.863418
17.43,372.699,-0.86341
17.4317,372.716,-0.863404
17.4333,372.732,-0.863407
17.435,372.749,-0.863418
17.4367,372.765,-0.863425
17.4383,372.782,-0.863423
17.44,372.799,-0.86342
17.4417,372.815,-0.863421
17.4433,372.832,-0.863424
17.445,372.849,-0.863432
17.4467,372.865,-0.863443
17.4483,372.882,-0.863455
17.45,372.899,-0.863477
17.4517,372.915,-0.863507
17.4533,372.932,-0.863539
17.455,372.949,-0.863573
17.4567,372.965,-0.863609
17.4583,372.982,-0.863641
17.46,372.998,-0.863664
17.4617,373.015,-0.863679
17.4633,373.032,-0.863695
17.465,373.048,-0.863708
17.4667,373.065,-0.863722
17.4683,373.082,-0.86373
17.47,373.098,-0.863734
17.4717,373.115,-0.863729
17.4733,373.132,-0.863724
17.475,373.148,-0.863714
17.4767,373.165,-0.863712
17.4783,373.181,-0.863714
17.48,373.198,-0.863725
17.4817,373.215,-0.863739
17.4833,373.232,-0.863765
17.485,373.248,-0.863789
17.4867,373.265,-0.863815
17.4883,373.282,-0.863843
17.49,373.298,-0.863855
17.4917,373.315,-0.863858
17.4933,373.332,-0.863857
17.495,373.348,-0.863852
17.4967,373.364,-0.863846
17.4983,373.381,-0.863838
17.5,373.398,-0.863829
17.5017,373.414,-0.863817
17.5033,373.431,-0.863799
17.505,373.448,-0.863775
