Ramp 10.00 °C/min to 375.00 °C,,
Time,Temperature,Heat Flow (Normalized)
min,°C,W/g
5.00333,249.857,-0.205014
5.005,249.857,-0.205019
5.00667,249.857,-0.205023
5.00833,249.857,-0.205026
5.01,249.858,-0.205031
5.01167,249.857,-0.205037
5.01333,249.857,-0.205042
5.015,249.857,-0.205049
5.01667,249.858,-0.205057
5.01833,249.858,-0.205066
5.02,249.858,-0.205072
5.02167,249.858,-0.205078
5.02333,249.859,-0.205086
5.025,249.859,-0.2051
5.02667,249.859,-0.205112
5.02833,249.86,-0.205128
5.03,249.86,-0.205148
5.03167,249.861,-0.205176
5.03333,249.862,-0.205215
5.035,249.863,-0.205255
5.03667,249.864,-0.205295
5.03833,249.865,-0.205328
5.04,249.866,-0.205353
5.04167,249.867,-0.205359
5.04333,249.868,-0.205355
5.045,249.87,-0.205333
5.04667,249.871,-0.20523
5.04833,249.872,-0.204883
5.05,249.874,-0.204179
5.05167,249.876,-0.202972
5.05333,249.878,-0.20046
5.055,249.88,-0.196908
5.05667,249.882,-0.191136
5.05833,249.885,-0.18421
5.06,249.887,-0.176271
5.06167,249.89,-0.167856
5.06333,249.893,-0.159166
5.065,249.896,-0.151289
5.06667,249.899,-0.142271
5.06833,249.903,-0.134514
5.07,249.907,-0.128269
5.07167,249.91,-0.122382
5.07333,249.914,-0.116898
5.075,249.918,-0.111776
5.07667,249.922,-0.106125
5.07833,249.927,-0.101128
5.08,249.932,-0.0965404
5.08167,249.937,-0.0918102
5.08333,249.942,-0.088149
5.085,249.947,-0.0835165
5.08667,249.953,-0.0794947
5.08833,249.958,-0.0756367
5.09,249.964,-0.0731566
5.09167,249.971,-0.0697714
5.09333,249.977,-0.0681967
5.095,249.984,-0.0661235
5.09667,249.99,-0.0662616
5.09833,249.997,-0.0647738
5.1,250.004,-0.0648606
5.10167,250.012,-0.0669135
5.10333,250.019,-0.0687361
5.105,250.027,-0.0705606
5.10667,250.035,-0.072952
5.10833,250.043,-0.0752329
5.11,250.051,-0.0771947
5.11167,250.06,-0.0856823
5.11333,250.068,-0.0893077
5.115,250.077,-0.0920519
5.11667,250.086,-0.0938877
5.11833,250.095,-0.0951502
5.12,250.104,-0.0972538
5.12167,250.113,-0.100856
5.12333,250.123,-0.106068
5.125,250.132,-0.112978
5.12667,250.142,-0.12387
5.12833,250.152,-0.137176
5.13,250.162,-0.15076
5.13167,250.172,-0.164743
5.13333,250.183,-0.174739
5.135,250.193,-0.184061
5.13667,250.204,-0.192348
5.13833,250.215,-0.20134
5.14,250.226,-0.210287
5.14167,250.237,-0.219726
5.14333,250.248,-0.230241
5.145,250.259,-0.241146
5.14667,250.271,-0.249917
5.14833,250.282,-0.260119
5.15,250.294,-0.270028
5.15167,250.305,-0.27882
5.15333,250.317,-0.288913
5.155,250.329,-0.298571
5.15667,250.341,-0.307231
5.15833,250.354,-0.316337
5.16,250.365,-0.323177
5.16167,250.378,-0.332146
5.16333,250.39,-0.340699
5.165,250.402,-0.348873
5.16667,250.414,-0.356411
5.16833,250.427,-0.365316
5.17,250.44,-0.373975
5.17167,250.453,-0.381855
5.17333,250.465,-0.390686
5.175,250.478,-0.398012
5.17667,250.491,-0.405272
5.17833,250.504,-0.412383
5.18,250.518,-0.419641
5.18167,250.531,-0.426364
5.18333,250.544,-0.433171
5.185,250.558,-0.438868
5.18667,250.571,-0.44514
5.18833,250.584,-0.452552
5.19,250.598,-0.459402
5.19167,250.611,-0.464939
5.19333,250.624,-0.471447
5.195,250.638,-0.477644
5.19667,250.652,-0.48486
5.19833,250.666,-0.491783
5.2,250.68,-0.498334
5.20167,250.694,-0.503351
5.20333,250.708,-0.509141
5.205,250.721,-0.513671
5.20667,250.736,-0.519728
5.20833,250.75,-0.524574
5.21,250.764,-0.526949
5.21167,250.778,-0.530391
5.21333,250.792,-0.535393
5.215,250.807,-0.540234
5.21667,250.821,-0.545303
5.21833,250.836,-0.549346
5.22,250.85,-0.553913
5.22167,250.864,-0.557809
5.22333,250.879,-0.561497
5.225,250.893,-0.56782
5.22667,250.908,-0.571225
5.22833,250.922,-0.574818
5.23,250.937,-0.578742
5.23167,250.952,-0.582758
5.23333,250.966,-0.587481
5.235,250.981,-0.592128
5.23667,250.996,-0.595903
5.23833,251.011,-0.600617
5.24,251.026,-0.605564
5.24167,251.04,-0.608845
5.24333,251.056,-0.611151
5.245,251.071,-0.613801
5.24667,251.086,-0.616825
5.24833,251.101,-0.619841
5.25,251.116,-0.622467
5.25167,251.131,-0.625946
5.25333,251.146,-0.629339
5.255,251.161,-0.631935
5.25667,251.176,-0.635796
5.25833,251.192,-0.640528
5.26,251.207,-0.643996
5.26167,251.222,-0.645885
5.26333,251.238,-0.648024
5.265,251.253,-0.65032
5.26667,251.268,-0.653512
5.26833,251.284,-0.655066
5.27,251.299,-0.658147
5.27167,251.314,-0.660187
5.27333,251.33,-0.661741
5.275,251.345,-0.664221
5.27667,251.36,-0.667696
5.27833,251.375,-0.670533
5.28,251.391,-0.672237
5.28167,251.406,-0.674589
5.28333,251.422,-0.675971
5.285,251.437,-0.677803
5.28667,251.453,-0.67962
5.28833,251.469,-0.68075
5.29,251.484,-0.68304
5.29167,251.5,-0.685668
5.29333,251.515,-0.686995
5.295,251.532,-0.689408
5.29667,251.547,-0.691913
5.29833,251.563,-0.694689
5.3,251.579,-0.697011
5.30167,251.594,-0.69904
5.30333,251.61,-0.700444
5.305,251.626,-0.702712
5.30667,251.642,-0.704927
5.30833,251.658,-0.707037
5.31,251.673,-0.708672
5.31167,251.689,-0.710465
5.31333,251.705,-0.711758
5.315,251.721,-0.713806
5.31667,251.736,-0.715383
5.31833,251.752,-0.716592
5.32,251.768,-0.717574
5.32167,251.784,-0.716941
5.32333,251.8,-0.717194
5.325,251.816,-0.717998
5.32667,251.832,-0.718957
5.32833,251.848,-0.719735
5.33,251.863,-0.720897
5.33167,251.879,-0.722417
5.33333,251.895,-0.724176
5.335,251.911,-0.725684
5.33667,251.927,-0.727694
5.33833,251.943,-0.729892
5.34,251.959,-0.731554
5.34167,251.975,-0.733093
5.34333,251.991,-0.734455
5.345,252.007,-0.736214
5.34667,252.023,-0.737588
5.34833,252.04,-0.738634
5.35,252.056,-0.739635
5.35167,252.072,-0.740111
5.35333,252.087,-0.741051
5.355,252.104,-0.741754
5.35667,252.12,-0.742595
5.35833,252.136,-0.743489
5.36,252.151,-0.74374
5.36167,252.168,-0.743853
5.36333,252.184,-0.744276
5.365,252.199,-0.745078
5.36667,252.216,-0.745439
5.36833,252.231,-0.74574
5.37,252.248,-0.746122
5.37167,252.264,-0.746551
5.37333,252.28,-0.747309
5.375,252.296,-0.748322
5.37667,252.312,-0.749287
5.37833,252.329,-0.750345
5.38,252.345,-0.751459
5.38167,252.361,-0.752389
5.38333,252.377,-0.752886
5.385,252.393,-0.753223
5.38667,252.41,-0.753481
5.38833,252.426,-0.753773
5.39,252.442,-0.754125
5.39167,252.458,-0.754484
5.39333,252.474,-0.755259
5.395,252.49,-0.756189
5.39667,252.507,-0.757326
5.39833,252.523,-0.758276
5.4,252.539,-0.759209
5.40167,252.556,-0.760225
5.40333,252.572,-0.760965
5.405,252.588,-0.76166
5.40667,252.604,-0.762318
5.40833,252.62,-0.762809
5.41,252.636,-0.763172
5.41167,252.652,-0.763566
5.41333,252.669,-0.76377
5.415,252.685,-0.763958
5.41667,252.701,-0.764091
5.41833,252.718,-0.764252
5.42,252.734,-0.7644
5.42167,252.75,-0.764574
5.42333,252.767,-0.764916
5.425,252.783,-0.765234
5.42667,252.799,-0.765636
5.42833,252.816,-0.766139
5.43,252.832,-0.766693
5.43167,252.848,-0.767176
5.43333,252.864,-0.767767
5.435,252.881,-0.768443
5.43667,252.897,-0.76899
5.43833,252.913,-0.769395
5.44,252.929,-0.769817
5.44167,252.946,-0.770274
5.44333,252.962,-0.770716
5.445,252.978,-0.771145
5.44667,252.994,-0.771591
5.44833,253.011,-0.771965
5.45,253.027,-0.772504
5.45167,253.043,-0.773072
5.45333,253.059,-0.773734
5.455,253.075,-0.774366
5.45667,253.092,-0.774752
5.45833,253.108,-0.775038
5.46,253.124,-0.775198
5.46167,253.141,-0.775309
5.46333,253.157,-0.775395
5.465,253.173,-0.775736
5.46667,253.19,-0.775766
5.46833,253.206,-0.775835
5.47,253.223,-0.775931
5.47167,253.239,-0.776128
5.47333,253.255,-0.776446
5.475,253.271,-0.776826
5.47667,253.288,-0.77727
5.47833,253.304,-0.777673
5.48,253.32,-0.778073
5.48167,253.337,-0.778399
5.48333,253.353,-0.778695
5.485,253.369,-0.779064
5.48667,253.386,-0.779458
5.48833,253.402,-0.779823
5.49,253.419,-0.780129
5.49167,253.434,-0.780325
5.49333,253.451,-0.78052
5.495,253.468,-0.780675
5.49667,253.484,-0.780805
5.49833,253.501,-0.780936
5.5,253.517,-0.781063
5.50167,253.533,-0.781149
5.50333,253.549,-0.781243
5.505,253.566,-0.781327
5.50667,253.582,-0.781416
5.50833,253.598,-0.781499
5.51,253.615,-0.781548
5.51167,253.631,-0.781596
5.51333,253.647,-0.781641
5.515,253.664,-0.781686
5.51667,253.68,-0.781759
5.51833,253.697,-0.781858
5.52,253.713,-0.782006
5.52167,253.729,-0.782203
5.52333,253.746,-0.782501
5.525,253.762,-0.782932
5.52667,253.779,-0.783275
5.52833,253.795,-0.783604
5.53,253.811,-0.784001
5.53167,253.828,-0.78429
5.53333,253.844,-0.784471
5.535,253.86,-0.784595
5.53667,253.876,-0.784713
5.53833,253.893,-0.78487
5.54,253.909,-0.785011
5.54167,253.925,-0.785212
5.54333,253.942,-0.785521
5.545,253.958,-0.785882
5.54667,253.975,-0.786228
5.54833,253.991,-0.786596
5.55,254.008,-0.786929
5.55167,254.024,-0.787128
5.55333,254.04,-0.787259
5.555,254.057,-0.78737
5.55667,254.073,-0.787446
5.55833,254.09,-0.787522
5.56,254.106,-0.787593
5.56167,254.123,-0.787698
5.56333,254.139,-0.787826
5.565,254.155,-0.787951
5.56667,254.172,-0.788077
5.56833,254.188,-0.788189
5.57,254.204,-0.788299
5.57167,254.221,-0.788399
5.57333,254.237,-0.788474
5.575,254.253,-0.788754
5.57667,254.27,-0.788918
5.57833,254.286,-0.789045
5.58,254.303,-0.789113
5.58167,254.319,-0.789192
5.58333,254.336,-0.789286
5.585,254.352,-0.789434
5.58667,254.369,-0.789632
5.58833,254.385,-0.78985
5.59,254.401,-0.790074
5.59167,254.418,-0.790276
5.59333,254.434,-0.790404
5.595,254.451,-0.790519
5.59667,254.467,-0.790673
5.59833,254.483,-0.790892
5.6,254.5,-0.791047
5.60167,254.516,-0.7912
5.60333,254.533,-0.791332
5.605,254.549,-0.791475
5.60667,254.566,-0.791618
5.60833,254.583,-0.79174
5.61,254.599,-0.791833
5.61167,254.615,-0.79192
5.61333,254.632,-0.792007
5.615,254.648,-0.792094
5.61667,254.665,-0.792194
5.61833,254.681,-0.792285
5.62,254.697,-0.792385
5.62167,254.714,-0.792485
5.62333,254.73,-0.792585
5.625,254.747,-0.792691
5.62667,254.763,-0.792797
5.62833,254.779,-0.792989
5.63,254.796,-0.79319
5.63167,254.812,-0.793407
5.63333,254.829,-0.793691
5.635,254.845,-0.794019
5.63667,254.862,-0.794303
5.63833,254.878,-0.794537
5.64,254.894,-0.79475
5.64167,254.911,-0.794925
5.64333,254.927,-0.79511
5.645,254.944,-0.795284
5.64667,254.96,-0.795435
5.64833,254.977,-0.795549
5.65,254.993,-0.795799
5.65167,255.009,-0.796035
5.65333,255.026,-0.796138
5.655,255.042,-0.796237
5.65667,255.059,-0.796353
5.65833,255.076,-0.796464
5.66,255.093,-0.796552
5.66167,255.109,-0.796643
5.66333,255.125,-0.796749
5.665,255.142,-0.796834
5.66667,255.158,-0.796924
5.66833,255.175,-0.797019
5.67,255.191,-0.797111
5.67167,255.207,-0.797199
5.67333,255.224,-0.797286
5.675,255.24,-0.797379
5.67667,255.256,-0.797483
5.67833,255.272,-0.797594
5.68,255.289,-0.797755
5.68167,255.306,-0.797957
5.68333,255.322,-0.798109
5.685,255.339,-0.798366
5.68667,255.355,-0.798593
5.68833,255.372,-0.798809
5.69,255.389,-0.798989
5.69167,255.405,-0.799099
5.69333,255.422,-0.799201
5.695,255.438,-0.799307
5.69667,255.455,-0.799418
5.69833,255.471,-0.799528
5.7,255.488,-0.799646
5.70167,255.504,-0.79976
5.70333,255.52,-0.799874
5.705,255.537,-0.79999
5.70667,255.553,-0.800109
5.70833,255.57,-0.800254
5.71,255.586,-0.800377
5.71167,255.602,-0.800575
5.71333,255.619,-0.800767
5.715,255.635,-0.800892
5.71667,255.652,-0.801026
5.71833,255.668,-0.801213
5.72,255.685,-0.801351
5.72167,255.701,-0.801482
5.72333,255.718,-0.801609
5.725,255.735,-0.801728
5.72667,255.751,-0.801845
5.72833,255.768,-0.801963
5.73,255.784,-0.80208
5.73167,255.8,-0.802196
5.73333,255.817,-0.802313
5.735,255.833,-0.802431
5.73667,255.85,-0.802553
5.73833,255.867,-0.802676
5.74,255.883,-0.802798
5.74167,255.9,-0.802924
5.74333,255.916,-0.803055
5.745,255.933,-0.803183
5.74667,255.949,-0.803314
5.74833,255.966,-0.803439
5.75,255.982,-0.803558
5.75167,255.999,-0.803679
5.75333,256.015,-0.803791
5.755,256.032,-0.803895
5.75667,256.049,-0.803995
5.75833,256.065,-0.804091
5.76,256.082,-0.804184
5.76167,256.098,-0.804274
5.76333,256.114,-0.804359
5.765,256.131,-0.804457
5.76667,256.147,-0.804559
5.76833,256.163,-0.804667
5.77,256.18,-0.804788
5.77167,256.197,-0.80491
5.77333,256.213,-0.805034
5.775,256.23,-0.80516
5.77667,256.246,-0.80529
5.77833,256.263,-0.805419
5.78,256.279,-0.805544
5.78167,256.296,-0.805662
5.78333,256.312,-0.80578
5.785,256.329,-0.805903
5.78667,256.345,-0.806036
5.78833,256.361,-0.806282
5.79,256.379,-0.806667
5.79167,256.395,-0.806987
5.79333,256.412,-0.80722
5.795,256.428,-0.807572
5.79667,256.445,-0.807818
5.79833,256.461,-0.808093
5.8,256.478,-0.808315
5.80167,256.494,-0.808451
5.80333,256.51,-0.808575
5.805,256.527,-0.808699
5.80667,256.543,-0.808824
5.80833,256.56,-0.808948
5.81,256.577,-0.809063
5.81167,256.593,-0.809171
5.81333,256.61,-0.809278
5.815,256.626,-0.80938
5.81667,256.643,-0.809478
5.81833,256.659,-0.809586
5.82,256.676,-0.809702
5.82167,256.692,-0.809817
5.82333,256.708,-0.80993
5.825,256.725,-0.810044
5.82667,256.742,-0.810161
5.82833,256.758,-0.810281
5.83,256.775,-0.810394
5.83167,256.791,-0.810501
5.83333,256.808,-0.810601
5.835,256.825,-0.810703
5.83667,256.841,-0.810801
5.83833,256.858,-0.810907
5.84,256.874,-0.811014
5.84167,256.891,-0.811124
5.84333,256.907,-0.811231
5.845,256.923,-0.811345
5.84667,256.94,-0.811469
5.84833,256.957,-0.811623
5.85,256.973,-0.811751
5.85167,256.99,-0.811871
5.85333,257.007,-0.811991
5.855,257.023,-0.812107
5.85667,257.04,-0.812221
5.85833,257.056,-0.812335
5.86,257.072,-0.812446
5.86167,257.089,-0.812557
5.86333,257.106,-0.812672
5.865,257.122,-0.812784
5.86667,257.139,-0.812898
5.86833,257.156,-0.813017
5.87,257.172,-0.813129
5.87167,257.189,-0.813239
5.87333,257.205,-0.813349
5.875,257.221,-0.813454
5.87667,257.238,-0.813569
5.87833,257.254,-0.813679
5.88,257.271,-0.813783
5.88167,257.288,-0.813886
5.88333,257.304,-0.813985
5.885,257.321,-0.814082
5.88667,257.337,-0.814181
5.88833,257.353,-0.814292
5.89,257.37,-0.814401
5.89167,257.387,-0.814509
5.89333,257.403,-0.81463
5.895,257.42,-0.814756
5.89667,257.436,-0.814885
5.89833,257.453,-0.815015
5.9,257.47,-0.81514
5.90167,257.486,-0.815261
5.90333,257.503,-0.815381
5.905,257.519,-0.815502
5.90667,257.536,-0.815625
5.90833,257.552,-0.815741
5.91,257.569,-0.815862
5.91167,257.586,-0.815988
5.91333,257.602,-0.816111
5.915,257.619,-0.816227
5.91667,257.635,-0.816345
5.91833,257.652,-0.816467
5.92,257.668,-0.816588
5.92167,257.685,-0.816707
5.92333,257.702,-0.816822
5.925,257.718,-0.816929
5.92667,257.734,-0.817027
5.92833,257.751,-0.817118
5.93,257.768,-0.817214
5.93167,257.784,-0.817311
5.93333,257.8,-0.817411
5.935,257.817,-0.817519
5.93667,257.834,-0.817627
5.93833,257.85,-0.817742
5.94,257.867,-0.817865
5.94167,257.883,-0.817979
5.94333,257.9,-0.818092
5.945,257.916,-0.818189
5.94667,257.933,-0.818285
5.94833,257.95,-0.818378
5.95,257.966,-0.818469
5.95167,257.983,-0.818561
5.95333,257.999,-0.818652
5.955,258.016,-0.818743
5.95667,258.032,-0.818853
5.95833,258.048,-0.818969
5.96,258.065,-0.819094
5.96167,258.082,-0.819232
5.96333,258.098,-0.819432
5.965,258.115,-0.819581
5.96667,258.131,-0.819702
5.96833,258.148,-0.819818
5.97,258.165,-0.819931
5.97167,258.181,-0.820047
5.97333,258.197,-0.820156
5.975,258.214,-0.820261
5.97667,258.231,-0.820365
5.97833,258.247,-0.820476
5.98,258.264,-0.820582
5.98167,258.281,-0.820686
5.98333,258.297,-0.820786
5.985,258.313,-0.820876
5.98667,258.33,-0.820957
5.98833,258.346,-0.821032
5.99,258.363,-0.821104
5.99167,258.38,-0.821178
5.99333,258.396,-0.82125
5.995,258.413,-0.821326
5.99667,258.429,-0.821405
5.99833,258.446,-0.82149
6,258.463,-0.821587
6.00167,258.479,-0.821683
6.00333,258.495,-0.821787
6.005,258.512,-0.8219
6.00667,258.529,-0.822016
6.00833,258.545,-0.822159
6.01,258.562,-0.822335
6.01167,258.578,-0.822507
6.01333,258.595,-0.82262
6.015,258.612,-0.822723
6.01667,258.628,-0.822818
6.01833,258.645,-0.822907
6.02,258.662,-0.82299
6.02167,258.678,-0.823062
6.02333,258.695,-0.823135
6.025,258.712,-0.823203
6.02667,258.728,-0.823278
6.02833,258.744,-0.823355
6.03,258.761,-0.823436
6.03167,258.778,-0.823524
6.03333,258.794,-0.823621
6.035,258.811,-0.823734
6.03667,258.827,-0.823945
6.03833,258.844,-0.82417
6.04,258.861,-0.824344
6.04167,258.877,-0.824459
6.04333,258.894,-0.824567
6.045,258.911,-0.824673
6.04667,258.927,-0.824761
6.04833,258.944,-0.82484
6.05,258.961,-0.824919
6.05167,258.977,-0.824998
6.05333,258.994,-0.825086
6.055,259.01,-0.825172
6.05667,259.027,-0.82526
6.05833,259.043,-0.825356
6.06,259.06,-0.825458
6.06167,259.076,-0.82557
6.06333,259.093,-0.825691
6.065,259.109,-0.825848
6.06667,259.126,-0.826012
6.06833,259.143,-0.826128
6.07,259.159,-0.826245
6.07167,259.176,-0.826355
6.07333,259.193,-0.826449
6.075,259.209,-0.826539
6.07667,259.226,-0.826627
6.07833,259.242,-0.82672
6.08,259.259,-0.826814
6.08167,259.275,-0.826907
6.08333,259.292,-0.826999
6.085,259.309,-0.827103
6.08667,259.325,-0.827205
6.08833,259.342,-0.827312
6.09,259.359,-0.827423
6.09167,259.375,-0.827534
6.09333,259.392,-0.827634
6.095,259.408,-0.827734
6.09667,259.425,-0.82784
6.09833,259.441,-0.82794
6.1,259.458,-0.828039
6.10167,259.474,-0.828137
6.10333,259.491,-0.828231
6.105,259.507,-0.828326
6.10667,259.524,-0.82842
6.10833,259.54,-0.828514
6.11,259.557,-0.82861
6.11167,259.574,-0.828702
6.11333,259.59,-0.828795
6.115,259.607,-0.828878
6.11667,259.624,-0.828947
6.11833,259.641,-0.829016
6.12,259.657,-0.829083
6.12167,259.673,-0.829148
6.12333,259.69,-0.829213
6.125,259.707,-0.829284
6.12667,259.723,-0.829352
6.12833,259.74,-0.829426
6.13,259.757,-0.829501
6.13167,259.773,-0.829575
6.13333,259.79,-0.82965
6.135,259.806,-0.829723
6.13667,259.823,-0.829803
6.13833,259.839,-0.82989
6.14,259.857,-0.829979
6.14167,259.873,-0.830068
6.14333,259.889,-0.830164
6.145,259.906,-0.830264
6.14667,259.923,-0.830359
6.14833,259.939,-0.830445
6.15,259.956,-0.830523
6.15167,259.972,-0.830598
6.15333,259.989,-0.830672
6.155,260.006,-0.830742
6.15667,260.022,-0.830819
6.15833,260.039,-0.830896
6.16,260.055,-0.830972
6.16167,260.072,-0.831056
6.16333,260.088,-0.831144
6.165,260.105,-0.831227
6.16667,260.122,-0.831311
6.16833,260.139,-0.831401
6.17,260.155,-0.831487
6.17167,260.172,-0.831574
6.17333,260.189,-0.831663
6.175,260.205,-0.831756
6.17667,260.222,-0.831842
6.17833,260.238,-0.831928
6.18,260.255,-0.832013
6.18167,260.272,-0.832098
6.18333,260.289,-0.832176
6.185,260.305,-0.83225
6.18667,260.322,-0.832312
6.18833,260.338,-0.83237
6.19,260.355,-0.832417
6.19167,260.371,-0.83246
6.19333,260.388,-0.83251
6.195,260.404,-0.832558
6.19667,260.421,-0.83261
6.19833,260.438,-0.832671
6.2,260.454,-0.832738
6.20167,260.471,-0.832818
6.20333,260.487,-0.832906
6.205,260.504,-0.833
6.20667,260.52,-0.833178
6.20833,260.537,-0.833374
6.21,260.553,-0.833587
6.21167,260.57,-0.833731
6.21333,260.586,-0.833829
6.215,260.603,-0.833918
6.21667,260.62,-0.834
6.21833,260.636,-0.834076
6.22,260.653,-0.834149
6.22167,260.67,-0.834209
6.22333,260.686,-0.834267
6.225,260.703,-0.834334
6.22667,260.72,-0.8344
6.22833,260.736,-0.834471
6.23,260.753,-0.834545
6.23167,260.769,-0.834621
6.23333,260.786,-0.834705
6.235,260.803,-0.834791
6.23667,260.819,-0.834871
6.23833,260.836,-0.834944
6.24,260.853,-0.835015
6.24167,260.87,-0.83509
6.24333,260.886,-0.835154
6.245,260.903,-0.835209
6.24667,260.919,-0.835264
6.24833,260.936,-0.835318
6.25,260.952,-0.835377
6.25167,260.969,-0.835437
6.25333,260.985,-0.835507
6.255,261.002,-0.835575
6.25667,261.019,-0.83564
6.25833,261.035,-0.835708
6.26,261.052,-0.835772
6.26167,261.068,-0.835835
6.26333,261.085,-0.83589
6.265,261.102,-0.835935
6.26667,261.118,-0.835987
6.26833,261.135,-0.836034
6.27,261.152,-0.836078
6.27167,261.169,-0.836134
6.27333,261.185,-0.83619
6.275,261.201,-0.836253
6.27667,261.218,-0.836322
6.27833,261.234,-0.836388
6.28,261.251,-0.836451
6.28167,261.267,-0.836516
6.28333,261.284,-0.83659
6.285,261.301,-0.836665
6.28667,261.318,-0.836739
6.28833,261.335,-0.836806
6.29,261.351,-0.836881
6.29167,261.367,-0.836957
6.29333,261.384,-0.83703
6.295,261.401,-0.837109
6.29667,261.417,-0.837186
6.29833,261.434,-0.837255
6.3,261.451,-0.837325
6.30167,261.467,-0.837396
6.30333,261.484,-0.837468
6.305,261.5,-0.837541
6.30667,261.517,-0.837624
6.30833,261.534,-0.837707
6.31,261.55,-0.837792
6.31167,261.567,-0.837875
6.31333,261.584,-0.837959
6.315,261.6,-0.838037
6.31667,261.617,-0.838115
6.31833,261.634,-0.838192
6.32,261.65,-0.838263
6.32167,261.666,-0.838328
6.32333,261.683,-0.838388
6.325,261.7,-0.838441
6.32667,261.716,-0.838477
6.32833,261.733,-0.838521
6.33,261.749,-0.838564
6.33167,261.766,-0.838608
6.33333,261.783,-0.838657
6.335,261.799,-0.83871
6.33667,261.816,-0.838762
6.33833,261.832,-0.838818
6.34,261.849,-0.838885
6.34167,261.866,-0.83896
6.34333,261.883,-0.839033
6.345,261.899,-0.839102
6.34667,261.916,-0.839171
6.34833,261.933,-0.839241
6.35,261.949,-0.839313
6.35167,261.965,-0.839385
6.35333,261.982,-0.839458
6.355,261.999,-0.839526
6.35667,262.015,-0.839592
6.35833,262.032,-0.839661
6.36,262.049,-0.839733
6.36167,262.065,-0.839798
6.36333,262.082,-0.839853
6.365,262.099,-0.839904
6.36667,262.116,-0.839954
6.36833,262.132,-0.840002
6.37,262.149,-0.840048
6.37167,262.165,-0.8401
6.37333,262.182,-0.840162
6.375,262.199,-0.840225
6.37667,262.215,-0.840286
6.37833,262.231,-0.84034
6.38,262.248,-0.8404
6.38167,262.265,-0.84045
6.38333,262.281,-0.8405
6.385,262.298,-0.840555
6.38667,262.315,-0.840614
6.38833,262.331,-0.840674
6.39,262.348,-0.840736
6.39167,262.365,-0.840805
6.39333,262.381,-0.840879
6.395,262.398,-0.840962
6.39667,262.415,-0.841067
6.39833,262.431,-0.841194
6.4,262.448,-0.841306
6.40167,262.465,-0.841426
6.40333,262.481,-0.841551
6.405,262.498,-0.841643
6.40667,262.514,-0.841724
6.40833,262.531,-0.841791
6.41,262.547,-0.84186
6.41167,262.564,-0.841919
6.41333,262.58,-0.841972
6.415,262.597,-0.84202
6.41667,262.613,-0.842062
6.41833,262.63,-0.842108
6.42,262.647,-0.842164
6.42167,262.664,-0.842228
6.42333,262.68,-0.842301
6.425,262.697,-0.842372
6.42667,262.714,-0.84244
6.42833,262.731,-0.842517
6.43,262.747,-0.842597
6.43167,262.764,-0.842673
6.43333,262.78,-0.842741
6.435,262.797,-0.842796
6.43667,262.813,-0.842839
6.43833,262.83,-0.842888
6.44,262.846,-0.842944
6.44167,262.863,-0.842994
6.44333,262.879,-0.843039
6.445,262.896,-0.843084
6.44667,262.913,-0.843119
6.44833,262.93,-0.843154
6.45,262.946,-0.843192
6.45167,262.963,-0.843227
6.45333,262.98,-0.843269
6.455,262.996,-0.843318
6.45667,263.013,-0.843379
6.45833,263.03,-0.84345
6.46,263.047,-0.843535
6.46167,263.063,-0.843659
6.46333,263.079,-0.843749
6.465,263.096,-0.843829
6.46667,263.113,-0.843906
6.46833,263.129,-0.843973
6.47,263.146,-0.84403
6.47167,263.162,-0.84408
6.47333,263.179,-0.844121
6.475,263.196,-0.844162
6.47667,263.213,-0.844203
6.47833,263.229,-0.844248
6.48,263.246,-0.844285
6.48167,263.263,-0.844328
6.48333,263.279,-0.844377
6.485,263.295,-0.84443
6.48667,263.312,-0.844466
6.48833,263.329,-0.844506
6.49,263.346,-0.844557
6.49167,263.362,-0.84461
6.49333,263.378,-0.844667
6.495,263.395,-0.844729
6.49667,263.412,-0.844796
6.49833,263.429,-0.844865
6.5,263.445,-0.844928
6.50167,263.462,-0.844991
6.50333,263.478,-0.845057
6.505,263.495,-0.845121
6.50667,263.512,-0.84518
6.50833,263.529,-0.845236
6.51,263.545,-0.845294
6.51167,263.562,-0.845353
6.51333,263.578,-0.845413
6.515,263.595,-0.845469
6.51667,263.611,-0.845525
6.51833,263.628,-0.845583
6.52,263.644,-0.84564
6.52167,263.661,-0.845693
6.52333,263.678,-0.845739
6.525,263.695,-0.845784
6.52667,263.711,-0.845832
6.52833,263.728,-0.845879
6.53,263.745,-0.845927
6.53167,263.761,-0.845973
6.53333,263.778,-0.84603
6.535,263.795,-0.846087
6.53667,263.811,-0.846147
6.53833,263.828,-0.846203
6.54,263.845,-0.846248
6.54167,263.861,-0.84629
6.54333,263.878,-0.84634
6.545,263.894,-0.846384
6.54667,263.911,-0.84642
6.54833,263.927,-0.84645
6.55,263.944,-0.846478
6.55167,263.961,-0.846509
6.55333,263.977,-0.846541
6.555,263.994,-0.846565
6.55667,264.01,-0.846584
6.55833,264.027,-0.846606
6.56,264.043,-0.846628
6.56167,264.06,-0.846654
6.56333,264.076,-0.846688
6.565,264.093,-0.846721
6.56667,264.11,-0.846756
6.56833,264.127,-0.846799
6.57,264.143,-0.846847
6.57167,264.16,-0.846903
6.57333,264.177,-0.846964
6.575,264.193,-0.847028
6.57667,264.21,-0.847097
6.57833,264.226,-0.847167
6.58,264.243,-0.847241
6.58167,264.26,-0.847337
6.58333,264.276,-0.847422
6.585,264.293,-0.847508
6.58667,264.31,-0.847583
6.58833,264.326,-0.847646
6.59,264.343,-0.847718
6.59167,264.359,-0.847794
6.59333,264.376,-0.847867
6.595,264.392,-0.847928
6.59667,264.409,-0.847983
6.59833,264.426,-0.848031
6.6,264.443,-0.848073
6.60167,264.459,-0.84811
6.60333,264.476,-0.848142
6.605,264.493,-0.848171
6.60667,264.509,-0.848203
6.60833,264.526,-0.848238
6.61,264.542,-0.84827
6.61167,264.559,-0.848309
6.61333,264.576,-0.848343
6.615,264.592,-0.848379
6.61667,264.609,-0.848415
6.61833,264.625,-0.848456
6.62,264.642,-0.848492
6.62167,264.659,-0.848516
6.62333,264.675,-0.848538
6.625,264.692,-0.84856
6.62667,264.708,-0.848587
6.62833,264.725,-0.848617
6.63,264.741,-0.848646
6.63167,264.758,-0.848676
6.63333,264.775,-0.848709
6.635,264.792,-0.848747
6.63667,264.808,-0.848795
6.63833,264.825,-0.848844
6.64,264.842,-0.84889
6.64167,264.859,-0.848934
6.64333,264.875,-0.848982
6.645,264.892,-0.849031
6.64667,264.909,-0.849086
6.64833,264.925,-0.849136
6.65,264.942,-0.84918
6.65167,264.958,-0.849215
6.65333,264.975,-0.849256
6.655,264.992,-0.849293
6.65667,265.008,-0.849329
6.65833,265.025,-0.849361
6.66,265.041,-0.849395
6.66167,265.058,-0.849433
6.66333,265.074,-0.84948
6.665,265.091,-0.849528
6.66667,265.108,-0.849577
6.66833,265.125,-0.849629
6.67,265.142,-0.849678
6.67167,265.158,-0.849724
6.67333,265.175,-0.849765
6.675,265.192,-0.849805
6.67667,265.208,-0.849846
6.67833,265.225,-0.849892
6.68,265.241,-0.849942
6.68167,265.258,-0.849998
6.68333,265.275,-0.850055
6.685,265.291,-0.850115
6.68667,265.308,-0.850174
6.68833,265.324,-0.850229
6.69,265.341,-0.850278
6.69167,265.357,-0.850315
6.69333,265.374,-0.850356
6.695,265.391,-0.850394
6.69667,265.407,-0.850436
6.69833,265.424,-0.850474
6.7,265.441,-0.850512
6.70167,265.457,-0.850559
6.70333,265.474,-0.850613
6.705,265.491,-0.850662
6.70667,265.507,-0.850711
6.70833,265.524,-0.850763
6.71,265.54,-0.850816
6.71167,265.557,-0.850864
6.71333,265.573,-0.850906
6.715,265.59,-0.850949
6.71667,265.607,-0.85099
6.71833,265.623,-0.851025
6.72,265.64,-0.851061
6.72167,265.657,-0.851098
6.72333,265.674,-0.851134
6.725,265.69,-0.851176
6.72667,265.707,-0.85123
6.72833,265.723,-0.851286
6.73,265.74,-0.851338
6.73167,265.756,-0.851394
6.73333,265.773,-0.851446
6.735,265.79,-0.851496
6.73667,265.807,-0.85154
6.73833,265.823,-0.851582
6.74,265.84,-0.851631
6.74167,265.856,-0.851682
6.74333,265.873,-0.851736
6.745,265.89,-0.851786
6.74667,265.907,-0.851839
6.74833,265.923,-0.851897
6.75,265.94,-0.851957
6.75167,265.956,-0.852007
6.75333,265.973,-0.852054
6.755,265.99,-0.852097
6.75667,266.006,-0.852128
6.75833,266.023,-0.852152
6.76,266.04,-0.852181
6.76167,266.056,-0.852201
6.76333,266.073,-0.852216
6.765,266.089,-0.852231
6.76667,266.106,-0.85225
6.76833,266.123,-0.852269
6.77,266.139,-0.852292
6.77167,266.156,-0.85232
6.77333,266.172,-0.852357
6.775,266.189,-0.852399
6.77667,266.205,-0.852437
6.77833,266.222,-0.852473
6.78,266.239,-0.852513
6.78167,266.256,-0.852554
6.78333,266.273,-0.852588
6.785,266.289,-0.852619
6.78667,266.306,-0.852656
6.78833,266.322,-0.852696
6.79,266.339,-0.852737
6.79167,266.356,-0.852787
6.79333,266.372,-0.852837
6.795,266.389,-0.852886
6.79667,266.405,-0.852928
6.79833,266.422,-0.852977
6.8,266.438,-0.853031
6.80167,266.455,-0.853099
6.80333,266.472,-0.853159
6.805,266.488,-0.853219
6.80667,266.505,-0.853282
6.80833,266.522,-0.853338
6.81,266.538,-0.853395
6.81167,266.555,-0.853442
6.81333,266.572,-0.853484
6.815,266.589,-0.853524
6.81667,266.605,-0.853566
6.81833,266.622,-0.853603
6.82,266.638,-0.853646
6.82167,266.655,-0.853682
6.82333,266.672,-0.853717
6.825,266.688,-0.853752
6.82667,266.705,-0.85379
6.82833,266.721,-0.853834
6.83,266.738,-0.853869
6.83167,266.755,-0.853903
6.83333,266.772,-0.853935
6.835,266.788,-0.853971
6.83667,266.805,-0.853996
6.83833,266.821,-0.854012
6.84,266.838,-0.854032
6.84167,266.854,-0.854057
6.84333,266.871,-0.854089
6.845,266.888,-0.854129
6.84667,266.905,-0.854173
6.84833,266.921,-0.854214
6.85,266.938,-0.854257
6.85167,266.955,-0.854299
6.85333,266.971,-0.854341
6.855,266.988,-0.854384
6.85667,267.004,-0.854416
6.85833,267.021,-0.854442
6.86,267.038,-0.854463
6.86167,267.055,-0.854477
6.86333,267.071,-0.854487
6.865,267.087,-0.8545
6.86667,267.104,-0.854516
6.86833,267.121,-0.854529
6.87,267.138,-0.854543
6.87167,267.155,-0.854567
6.87333,267.171,-0.854596
6.875,267.188,-0.85463
6.87667,267.204,-0.854666
6.87833,267.221,-0.854712
6.88,267.238,-0.854761
6.88167,267.255,-0.85481
6.88333,267.271,-0.854864
6.885,267.288,-0.854927
6.88667,267.305,-0.855028
6.88833,267.321,-0.855118
6.89,267.338,-0.855185
6.89167,267.354,-0.855237
6.89333,267.371,-0.855292
6.895,267.387,-0.85533
6.89667,267.404,-0.855358
6.89833,267.421,-0.855376
6.9,267.437,-0.855396
6.90167,267.454,-0.855414
6.90333,267.471,-0.855437
6.905,267.488,-0.855468
6.90667,267.504,-0.855505
6.90833,267.521,-0.855537
6.91,267.537,-0.855566
6.91167,267.554,-0.855607
6.91333,267.571,-0.855656
6.915,267.588,-0.85571
6.91667,267.604,-0.855758
6.91833,267.62,-0.855802
6.92,267.637,-0.855858
6.92167,267.654,-0.85592
6.92333,267.67,-0.855974
6.925,267.687,-0.856027
6.92667,267.704,-0.856068
6.92833,267.721,-0.85611
6.93,267.737,-0.856155
6.93167,267.754,-0.856198
6.93333,267.771,-0.85624
6.935,267.787,-0.856283
6.93667,267.804,-0.85632
6.93833,267.821,-0.856362
6.94,267.837,-0.856407
6.94167,267.854,-0.856448
6.94333,267.87,-0.85649
6.945,267.887,-0.856536
6.94667,267.903,-0.85658
6.94833,267.92,-0.856619
6.95,267.937,-0.856656
6.95167,267.954,-0.856687
6.95333,267.97,-0.856719
6.955,267.987,-0.85674
6.95667,268.004,-0.856763
6.95833,268.02,-0.856792
6.96,268.037,-0.856828
6.96167,268.053,-0.856868
6.96333,268.07,-0.856913
6.965,268.087,-0.856963
6.96667,268.103,-0.857013
6.96833,268.12,-0.857058
6.97,268.137,-0.857102
6.97167,268.153,-0.857141
6.97333,268.17,-0.857173
6.975,268.187,-0.857203
6.97667,268.203,-0.857231
6.97833,268.22,-0.857255
6.98,268.237,-0.857276
6.98167,268.254,-0.857298
6.98333,268.27,-0.857328
6.985,268.287,-0.857364
6.98667,268.303,-0.857403
6.98833,268.32,-0.857445
6.99,268.337,-0.857488
6.99167,268.353,-0.857527
6.99333,268.37,-0.85757
6.995,268.386,-0.857615
6.99667,268.403,-0.857654
6.99833,268.42,-0.857687
7,268.436,-0.857713
7.00167,268.453,-0.857745
7.00333,268.469,-0.85778
7.005,268.486,-0.857811
7.00667,268.503,-0.857837
7.00833,268.52,-0.857857
7.01,268.536,-0.857869
7.01167,268.553,-0.857879
7.01333,268.569,-0.85789
7.015,268.586,-0.85791
7.01667,268.603,-0.857933
7.01833,268.619,-0.857965
7.02,268.636,-0.85799
7.02167,268.653,-0.858025
7.02333,268.67,-0.858066
7.025,268.687,-0.85811
7.02667,268.703,-0.858155
7.02833,268.72,-0.858197
7.03,268.737,-0.858232
7.03167,268.753,-0.858268
7.03333,268.769,-0.858308
7.035,268.786,-0.858341
7.03667,268.803,-0.858378
7.03833,268.819,-0.858408
7.04,268.835,-0.858437
7.04167,268.852,-0.858466
7.04333,268.869,-0.858496
7.045,268.886,-0.858523
7.04667,268.902,-0.858544
7.04833,268.919,-0.858567
7.05,268.936,-0.858594
7.05167,268.952,-0.858623
7.05333,268.969,-0.858653
7.055,268.985,-0.858689
7.05667,269.002,-0.858728
7.05833,269.019,-0.858771
7.06,269.035,-0.858812
7.06167,269.052,-0.858853
7.06333,269.069,-0.858905
7.065,269.086,-0.858952
7.06667,269.102,-0.858996
7.06833,269.119,-0.859043
7.07,269.135,-0.859092
7.07167,269.152,-0.859138
7.07333,269.169,-0.859183
7.075,269.186,-0.859227
7.07667,269.202,-0.85928
7.07833,269.219,-0.859321
7.08,269.236,-0.859354
7.08167,269.253,-0.859383
7.08333,269.27,-0.859403
7.085,269.286,-0.859422
7.08667,269.303,-0.859443
7.08833,269.319,-0.859459
7.09,269.336,-0.859475
7.09167,269.353,-0.859488
7.09333,269.369,-0.859497
7.095,269.386,-0.859512
7.09667,269.402,-0.859526
7.09833,269.419,-0.859532
7.1,269.436,-0.859538
7.10167,269.453,-0.859545
7.10333,269.469,-0.859563
7.105,269.486,-0.859587
7.10667,269.503,-0.859618
7.10833,269.519,-0.859659
7.11,269.536,-0.859699
7.11167,269.552,-0.859748
7.11333,269.569,-0.8598
7.115,269.586,-0.859859
7.11667,269.602,-0.859934
7.11833,269.619,-0.859993
7.12,269.635,-0.860056
7.12167,269.652,-0.860169
7.12333,269.669,-0.860233
7.125,269.686,-0.860289
7.12667,269.702,-0.860337
7.12833,269.719,-0.860368
7.13,269.736,-0.860402
7.13167,269.752,-0.860431
7.13333,269.769,-0.860469
7.135,269.786,-0.860508
7.13667,269.802,-0.860556
7.13833,269.819,-0.860612
7.14,269.836,-0.860677
7.14167,269.852,-0.860745
7.14333,269.869,-0.860812
7.145,269.885,-0.860868
7.14667,269.902,-0.860915
7.14833,269.918,-0.860951
7.15,269.935,-0.86097
7.15167,269.952,-0.860983
7.15333,269.969,-0.860987
7.155,269.985,-0.860991
7.15667,270.002,-0.860993
7.15833,270.019,-0.861
7.16,270.036,-0.86102
7.16167,270.052,-0.861045
7.16333,270.069,-0.861064
7.165,270.085,-0.861081
7.16667,270.102,-0.861099
7.16833,270.119,-0.861116
7.17,270.135,-0.861126
7.17167,270.152,-0.861141
7.17333,270.169,-0.861156
7.175,270.185,-0.861165
7.17667,270.202,-0.861181
7.17833,270.219,-0.861208
7.18,270.235,-0.861243
7.18167,270.252,-0.861282
7.18333,270.269,-0.861331
7.185,270.285,-0.861381
7.18667,270.302,-0.861435
7.18833,270.318,-0.861488
7.19,270.335,-0.861535
7.19167,270.352,-0.861578
7.19333,270.368,-0.861616
7.195,270.385,-0.861647
7.19667,270.402,-0.861683
7.19833,270.418,-0.861727
7.2,270.435,-0.861765
7.20167,270.452,-0.861797
7.20333,270.468,-0.861834
7.205,270.485,-0.861878
7.20667,270.501,-0.86192
7.20833,270.518,-0.861965
7.21,270.535,-0.862008
7.21167,270.552,-0.862047
7.21333,270.568,-0.862087
7.215,270.585,-0.862131
7.21667,270.601,-0.862174
7.21833,270.618,-0.862209
7.22,270.635,-0.862234
7.22167,270.652,-0.862257
7.22333,270.668,-0.862268
7.225,270.685,-0.862275
7.22667,270.701,-0.862274
7.22833,270.718,-0.862277
7.23,270.735,-0.862273
7.23167,270.751,-0.862277
7.23333,270.768,-0.86229
7.235,270.785,-0.862312
7.23667,270.801,-0.862343
7.23833,270.818,-0.862379
7.24,270.835,-0.862428
7.24167,270.851,-0.862479
7.24333,270.868,-0.862531
7.245,270.884,-0.862576
7.24667,270.901,-0.862624
7.24833,270.918,-0.862669
7.25,270.934,-0.862718
7.25167,270.951,-0.862768
7.25333,270.968,-0.862816
7.255,270.984,-0.862864
7.25667,271.002,-0.862908
7.25833,271.018,-0.86295
7.26,271.035,-0.862996
7.26167,271.051,-0.863037
7.26333,271.068,-0.863075
7.265,271.084,-0.863115
7.26667,271.101,-0.863155
7.26833,271.117,-0.863194
7.27,271.134,-0.863239
7.27167,271.151,-0.86328
7.27333,271.168,-0.863327
7.275,271.184,-0.863367
7.27667,271.201,-0.863407
7.27833,271.218,-0.863446
7.28,271.234,-0.863484
7.28167,271.251,-0.863517
7.28333,271.267,-0.86355
7.285,271.284,-0.863586
7.28667,271.3,-0.863617
7.28833,271.317,-0.863647
7.29,271.333,-0.86367
7.29167,271.35,-0.863692
7.29333,271.367,-0.86371
7.295,271.384,-0.863731
7.29667,271.401,-0.863754
7.29833,271.417,-0.863783
7.3,271.434,-0.863814
7.30167,271.451,-0.863851
7.30333,271.467,-0.863895
7.305,271.484,-0.86394
7.30667,271.501,-0.863982
7.30833,271.517,-0.864024
7.31,271.534,-0.864062
7.31167,271.551,-0.864095
7.31333,271.567,-0.864121
7.315,271.584,-0.864152
7.31667,271.6,-0.864181
7.31833,271.617,-0.864213
7.32,271.634,-0.864238
7.32167,271.65,-0.864269
7.32333,271.667,-0.8643
7.325,271.684,-0.864337
7.32667,271.7,-0.864372
7.32833,271.717,-0.864408
7.33,271.734,-0.864452
7.33167,271.75,-0.864498
7.33333,271.767,-0.864538
7.335,271.784,-0.864572
7.33667,271.8,-0.8646
7.33833,271.817,-0.864618
7.34,271.834,-0.864629
7.34167,271.851,-0.864643
7.34333,271.867,-0.864661
7.345,271.884,-0.864683
7.34667,271.901,-0.864708
7.34833,271.918,-0.864736
7.35,271.934,-0.864767
7.35167,271.951,-0.864799
7.35333,271.967,-0.86484
7.355,271.984,-0.864881
7.35667,272,-0.864916
7.35833,272.017,-0.864966
7.36,272.034,-0.86502
7.36167,272.05,-0.865075
7.36333,272.067,-0.865133
7.365,272.084,-0.86519
7.36667,272.101,-0.865247
7.36833,272.117,-0.865294
7.37,272.134,-0.865339
7.37167,272.151,-0.865384
7.37333,272.167,-0.865427
7.375,272.184,-0.865461
7.37667,272.201,-0.865483
7.37833,272.217,-0.86551
7.38,272.234,-0.865526
7.38167,272.251,-0.865536
7.38333,272.267,-0.865544
7.385,272.284,-0.865558
7.38667,272.3,-0.865575
7.38833,272.317,-0.865595
7.39,272.333,-0.865622
7.39167,272.35,-0.865649
7.39333,272.367,-0.865686
7.395,272.384,-0.865722
7.39667,272.4,-0.865769
7.39833,272.417,-0.865818
7.4,272.434,-0.865876
7.40167,272.45,-0.865931
7.40333,272.467,-0.865986
7.405,272.483,-0.866034
7.40667,272.5,-0.866078
7.40833,272.517,-0.866123
7.41,272.533,-0.866169
7.41167,272.55,-0.866208
7.41333,272.567,-0.866236
7.415,272.583,-0.866265
7.41667,272.6,-0.866298
7.41833,272.616,-0.866323
7.42,272.633,-0.866349
7.42167,272.65,-0.866378
7.42333,272.667,-0.866411
7.425,272.684,-0.866446
7.42667,272.7,-0.866475
7.42833,272.717,-0.866506
7.43,272.733,-0.86655
7.43167,272.75,-0.866591
7.43333,272.767,-0.866628
7.435,272.783,-0.866667
7.43667,272.8,-0.866703
7.43833,272.816,-0.866733
7.44,272.833,-0.86676
7.44167,272.85,-0.866786
7.44333,272.866,-0.866806
7.445,272.883,-0.866826
7.44667,272.9,-0.86685
7.44833,272.916,-0.866872
7.45,272.933,-0.866907
7.45167,272.949,-0.866943
7.45333,272.966,-0.866987
7.455,272.983,-0.867032
7.45667,273,-0.867075
7.45833,273.016,-0.867107
7.46,273.033,-0.867136
7.46167,273.05,-0.867169
7.46333,273.066,-0.867202
7.465,273.083,-0.867239
7.46667,273.099,-0.867285
7.46833,273.116,-0.867338
7.47,273.133,-0.867389
7.47167,273.15,-0.867444
7.47333,273.166,-0.867506
7.475,273.183,-0.867564
7.47667,273.199,-0.867621
7.47833,273.216,-0.867665
7.48,273.233,-0.867699
7.48167,273.249,-0.867728
7.48333,273.266,-0.867748
7.485,273.283,-0.867774
7.48667,273.299,-0.867804
7.48833,273.316,-0.867838
7.49,273.332,-0.867883
7.49167,273.349,-0.867937
7.49333,273.365,-0.867991
7.495,273.382,-0.868048
7.49667,273.399,-0.868105
7.49833,273.415,-0.868155
7.5,273.432,-0.868197
7.50167,273.449,-0.868225
7.50333,273.465,-0.868242
7.505,273.482,-0.868247
7.50667,273.499,-0.868241
7.50833,273.515,-0.868237
7.51,273.532,-0.868233
7.51167,273.549,-0.868229
7.51333,273.566,-0.868231
7.515,273.582,-0.868251
7.51667,273.599,-0.868277
7.51833,273.615,-0.868309
7.52,273.632,-0.86835
7.52167,273.649,-0.868397
7.52333,273.665,-0.868451
7.525,273.682,-0.868512
7.52667,273.698,-0.868629
7.52833,273.715,-0.868767
7.53,273.731,-0.868856
7.53167,273.748,-0.86892
7.53333,273.765,-0.868981
7.535,273.781,-0.869047
7.53667,273.798,-0.869096
7.53833,273.815,-0.869138
7.54,273.831,-0.869181
7.54167,273.848,-0.869215
7.54333,273.865,-0.869244
7.545,273.882,-0.869265
7.54667,273.899,-0.869285
7.54833,273.915,-0.869297
7.55,273.932,-0.869309
7.55167,273.949,-0.869329
7.55333,273.965,-0.869351
7.555,273.982,-0.869376
7.55667,273.999,-0.869409
7.55833,274.015,-0.869456
7.56,274.031,-0.869502
7.56167,274.048,-0.86955
7.56333,274.065,-0.869602
7.565,274.082,-0.869645
7.56667,274.098,-0.869687
7.56833,274.115,-0.869732
7.57,274.132,-0.869772
7.57167,274.149,-0.869812
7.57333,274.165,-0.869843
7.575,274.182,-0.869871
7.57667,274.198,-0.869901
7.57833,274.215,-0.869929
7.58,274.232,-0.869953
7.58167,274.248,-0.869971
7.58333,274.265,-0.869982
7.585,274.281,-0.870001
7.58667,274.298,-0.870025
7.58833,274.315,-0.870051
7.59,274.332,-0.870074
7.59167,274.349,-0.870101
7.59333,274.364,-0.870131
7.595,274.381,-0.870163
7.59667,274.397,-0.870201
7.59833,274.414,-0.870246
7.6,274.43,-0.870284
7.60167,274.447,-0.870332
7.60333,274.464,-0.870367
7.605,274.48,-0.8704
7.60667,274.497,-0.870437
7.60833,274.514,-0.870476
7.61,274.531,-0.870525
7.61167,274.547,-0.870581
7.61333,274.564,-0.870635
7.615,274.581,-0.87069
7.61667,274.597,-0.870741
7.61833,274.613,-0.870789
7.62,274.63,-0.870833
7.62167,274.647,-0.870872
7.62333,274.664,-0.870909
7.625,274.681,-0.870947
7.62667,274.697,-0.870983
7.62833,274.714,-0.871017
7.63,274.73,-0.871043
7.63167,274.747,-0.871062
7.63333,274.763,-0.871078
7.635,274.78,-0.871099
7.63667,274.797,-0.871125
7.63833,274.813,-0.871153
7.64,274.83,-0.871186
7.64167,274.846,-0.87122
7.64333,274.863,-0.871254
7.645,274.88,-0.871289
7.64667,274.896,-0.871317
7.64833,274.913,-0.871337
7.65,274.93,-0.87136
7.65167,274.947,-0.87138
7.65333,274.963,-0.871393
7.655,274.98,-0.871407
7.65667,274.996,-0.87143
7.65833,275.013,-0.871462
7.66,275.03,-0.871498
7.66167,275.046,-0.871538
7.66333,275.063,-0.871579
7.665,275.08,-0.871616
7.66667,275.096,-0.871646
7.66833,275.113,-0.871669
7.67,275.13,-0.87169
7.67167,275.146,-0.871713
7.67333,275.163,-0.871732
7.675,275.179,-0.871755
7.67667,275.196,-0.871774
7.67833,275.213,-0.871792
7.68,275.229,-0.871811
7.68167,275.246,-0.871837
7.68333,275.262,-0.871871
7.685,275.279,-0.871906
7.68667,275.296,-0.871941
7.68833,275.313,-0.871985
7.69,275.329,-0.872036
7.69167,275.346,-0.872093
7.69333,275.363,-0.872147
7.695,275.379,-0.872199
7.69667,275.396,-0.872242
7.69833,275.413,-0.872283
7.7,275.429,-0.872328
7.70167,275.446,-0.872369
7.70333,275.462,-0.872409
7.705,275.479,-0.87245
7.70667,275.496,-0.872487
7.70833,275.512,-0.87252
7.71,275.529,-0.872556
7.71167,275.545,-0.872585
7.71333,275.562,-0.872623
7.715,275.579,-0.872656
7.71667,275.596,-0.872694
7.71833,275.612,-0.872739
7.72,275.629,-0.872778
7.72167,275.646,-0.872822
7.72333,275.662,-0.872868
7.725,275.679,-0.872908
7.72667,275.696,-0.872948
7.72833,275.712,-0.872982
7.73,275.729,-0.873014
7.73167,275.745,-0.873045
7.73333,275.762,-0.873073
7.735,275.779,-0.87309
7.73667,275.795,-0.873108
7.73833,275.812,-0.873126
7.74,275.828,-0.873139
7.74167,275.845,-0.873163
7.74333,275.862,-0.873192
7.745,275.878,-0.87322
7.74667,275.895,-0.873249
7.74833,275.912,-0.873289
7.75,275.928,-0.873332
7.75167,275.945,-0.873374
7.75333,275.961,-0.87341
7.755,275.978,-0.873448
7.75667,275.995,-0.873486
7.75833,276.011,-0.87353
7.76,276.028,-0.873577
7.76167,276.044,-0.873627
7.76333,276.061,-0.873673
7.765,276.078,-0.873729
7.76667,276.094,-0.87379
7.76833,276.111,-0.873849
7.77,276.128,-0.873912
7.77167,276.145,-0.873978
7.77333,276.161,-0.874038
7.775,276.178,-0.874099
7.77667,276.195,-0.874149
7.77833,276.211,-0.874198
7.78,276.228,-0.874242
7.78167,276.245,-0.874279
7.78333,276.261,-0.874311
7.785,276.278,-0.874342
7.78667,276.294,-0.874359
7.78833,276.311,-0.874366
7.79,276.328,-0.874371
7.79167,276.345,-0.874371
7.79333,276.361,-0.874368
7.795,276.378,-0.874367
7.79667,276.395,-0.874363
7.79833,276.411,-0.874362
7.8,276.428,-0.874365
7.80167,276.444,-0.874373
7.80333,276.461,-0.874389
7.805,276.478,-0.874416
7.80667,276.494,-0.874449
7.80833,276.511,-0.874487
7.81,276.527,-0.874529
7.81167,276.544,-0.874573
7.81333,276.561,-0.874621
7.815,276.578,-0.874669
7.81667,276.594,-0.874721
7.81833,276.611,-0.874772
7.82,276.628,-0.874826
7.82167,276.644,-0.874876
7.82333,276.661,-0.87493
7.825,276.677,-0.874982
7.82667,276.694,-0.875028
7.82833,276.71,-0.875074
7.83,276.727,-0.875116
7.83167,276.744,-0.875141
7.83333,276.761,-0.875171
7.835,276.778,-0.875206
7.83667,276.794,-0.875229
7.83833,276.811,-0.87525
7.84,276.827,-0.875267
7.84167,276.844,-0.875278
7.84333,276.86,-0.875295
7.845,276.877,-0.875306
7.84667,276.894,-0.875328
7.84833,276.91,-0.875352
7.85,276.927,-0.875378
7.85167,276.944,-0.875422
7.85333,276.96,-0.875471
7.855,276.977,-0.875517
7.85667,276.994,-0.875569
7.85833,277.011,-0.875623
7.86,277.027,-0.875678
7.86167,277.044,-0.875737
7.86333,277.06,-0.875797
7.865,277.077,-0.87585
7.86667,277.094,-0.875889
7.86833,277.11,-0.875926
7.87,277.127,-0.875968
7.87167,277.143,-0.875999
7.87333,277.16,-0.876024
7.875,277.177,-0.876043
7.87667,277.194,-0.876058
7.87833,277.21,-0.87608
7.88,277.227,-0.876114
7.88167,277.244,-0.876154
7.88333,277.26,-0.876198
7.885,277.277,-0.876245
7.88667,277.293,-0.876299
7.88833,277.31,-0.876345
7.89,277.326,-0.876393
7.89167,277.343,-0.876443
7.89333,277.36,-0.876486
7.895,277.377,-0.87652
7.89667,277.393,-0.876552
7.89833,277.41,-0.876583
7.9,277.426,-0.87661
7.90167,277.443,-0.876638
7.90333,277.46,-0.87666
7.905,277.477,-0.876693
7.90667,277.493,-0.876727
7.90833,277.51,-0.87676
7.91,277.527,-0.876789
7.91167,277.543,-0.87683
7.91333,277.56,-0.876864
7.915,277.576,-0.876898
7.91667,277.593,-0.876939
7.91833,277.61,-0.876987
7.92,277.626,-0.877027
7.92167,277.643,-0.877067
7.92333,277.659,-0.877105
7.925,277.676,-0.877145
7.92667,277.693,-0.877181
7.92833,277.709,-0.877222
7.93,277.726,-0.877269
7.93167,277.743,-0.877305
7.93333,277.76,-0.877334
7.935,277.777,-0.877362
7.93667,277.793,-0.877393
7.93833,277.81,-0.877424
7.94,277.826,-0.877449
7.94167,277.843,-0.877474
7.94333,277.859,-0.877511
7.945,277.876,-0.877548
7.94667,277.893,-0.877585
7.94833,277.909,-0.877623
7.95,277.926,-0.87766
7.95167,277.943,-0.877695
7.95333,277.959,-0.877738
7.955,277.976,-0.877779
7.95667,277.993,-0.87782
7.95833,278.009,-0.877856
7.96,278.026,-0.877892
7.96167,278.043,-0.877934
7.96333,278.059,-0.877971
7.965,278.076,-0.878011
7.96667,278.093,-0.878053
7.96833,278.109,-0.878097
7.97,278.126,-0.878136
7.97167,278.143,-0.878171
7.97333,278.159,-0.878207
7.975,278.176,-0.878243
7.97667,278.193,-0.878276
7.97833,278.209,-0.878308
7.98,278.226,-0.878337
7.98167,278.243,-0.878358
7.98333,278.259,-0.878384
7.985,278.276,-0.878417
7.98667,278.293,-0.87845
7.98833,278.309,-0.878482
7.99,278.326,-0.878519
7.99167,278.343,-0.878559
7.99333,278.359,-0.878594
7.995,278.376,-0.878635
7.99667,278.392,-0.878673
7.99833,278.409,-0.878702
8,278.426,-0.878732
8.00167,278.442,-0.878764
8.00333,278.459,-0.878801
8.005,278.476,-0.87884
8.00667,278.492,-0.878878
8.00833,278.509,-0.878914
8.01,278.526,-0.878954
8.01167,278.542,-0.878997
8.01333,278.559,-0.879042
8.015,278.575,-0.879081
8.01667,278.592,-0.879117
8.01833,278.609,-0.879149
8.02,278.626,-0.879177
8.02167,278.642,-0.879203
8.02333,278.659,-0.879238
8.025,278.676,-0.879284
8.02667,278.692,-0.879332
8.02833,278.709,-0.879393
8.03,278.726,-0.879479
8.03167,278.743,-0.879564
8.03333,278.759,-0.879627
8.035,278.776,-0.879686
8.03667,278.793,-0.879734
8.03833,278.809,-0.87977
8.04,278.826,-0.879792
8.04167,278.842,-0.87981
8.04333,278.859,-0.879814
8.045,278.875,-0.879808
8.04667,278.892,-0.879802
8.04833,278.909,-0.879799
8.05,278.925,-0.879803
8.05167,278.942,-0.879825
8.05333,278.959,-0.879861
8.055,278.976,-0.879897
8.05667,278.992,-0.879932
8.05833,279.009,-0.879971
8.06,279.026,-0.880009
8.06167,279.042,-0.880047
8.06333,279.059,-0.880076
8.065,279.075,-0.880099
8.06667,279.092,-0.880123
8.06833,279.109,-0.880147
8.07,279.125,-0.880174
8.07167,279.142,-0.880214
8.07333,279.158,-0.880254
8.075,279.176,-0.880294
8.07667,279.192,-0.880346
8.07833,279.209,-0.880402
8.08,279.226,-0.880464
8.08167,279.242,-0.880539
8.08333,279.259,-0.880601
8.085,279.275,-0.880662
8.08667,279.292,-0.880723
8.08833,279.309,-0.880791
8.09,279.325,-0.880862
8.09167,279.342,-0.880927
8.09333,279.359,-0.880987
8.095,279.375,-0.881049
8.09667,279.392,-0.881106
8.09833,279.409,-0.881167
8.1,279.426,-0.88122
8.10167,279.442,-0.881259
8.10333,279.458,-0.881288
8.105,279.475,-0.881306
8.10667,279.492,-0.881331
8.10833,279.509,-0.881355
8.11,279.525,-0.881385
8.11167,279.542,-0.881418
8.11333,279.558,-0.881447
8.115,279.575,-0.881475
8.11667,279.592,-0.88151
8.11833,279.609,-0.881546
8.12,279.625,-0.881584
8.12167,279.642,-0.881626
8.12333,279.658,-0.881665
8.125,279.675,-0.881708
8.12667,279.692,-0.881756
8.12833,279.708,-0.881796
8.13,279.725,-0.881836
8.13167,279.741,-0.881868
8.13333,279.758,-0.881898
8.135,279.775,-0.881929
8.13667,279.791,-0.881957
8.13833,279.808,-0.881981
8.14,279.825,-0.882004
8.14167,279.841,-0.882026
8.14333,279.858,-0.882058
8.145,279.875,-0.882093
8.14667,279.891,-0.882134
8.14833,279.908,-0.88218
8.15,279.925,-0.882229
8.15167,279.942,-0.882286
8.15333,279.958,-0.882338
8.155,279.975,-0.88239
8.15667,279.991,-0.882448
8.15833,280.008,-0.882499
8.16,280.025,-0.882544
8.16167,280.041,-0.882593
8.16333,280.058,-0.882641
8.165,280.075,-0.882685
8.16667,280.092,-0.882717
8.16833,280.108,-0.882747
8.17,280.125,-0.882776
8.17167,280.141,-0.882801
8.17333,280.158,-0.88282
8.175,280.175,-0.882841
8.17667,280.191,-0.88287
8.17833,280.208,-0.882896
8.18,280.224,-0.882936
8.18167,280.241,-0.882986
8.18333,280.258,-0.883042
8.185,280.275,-0.883102
8.18667,280.291,-0.883165
8.18833,280.308,-0.883236
8.19,280.324,-0.883302
8.19167,280.341,-0.883358
8.19333,280.358,-0.883404
8.195,280.374,-0.883453
8.19667,280.391,-0.88349
8.19833,280.408,-0.883526
8.2,280.425,-0.883554
8.20167,280.441,-0.883579
8.20333,280.458,-0.883602
8.205,280.475,-0.88362
8.20667,280.491,-0.883634
8.20833,280.508,-0.883649
8.21,280.525,-0.883659
8.21167,280.542,-0.883681
8.21333,280.558,-0.883712
8.215,280.575,-0.883743
8.21667,280.592,-0.883778
8.21833,280.608,-0.883813
8.22,280.625,-0.883845
8.22167,280.642,-0.883885
8.22333,280.658,-0.88393
8.225,280.675,-0.883978
8.22667,280.691,-0.884024
8.22833,280.708,-0.884072
8.23,280.724,-0.884122
8.23167,280.741,-0.884175
8.23333,280.758,-0.884237
8.235,280.775,-0.884288
8.23667,280.792,-0.88433
8.23833,280.808,-0.884371
8.24,280.824,-0.884422
8.24167,280.841,-0.884471
8.24333,280.857,-0.884526
8.245,280.874,-0.884588
8.24667,280.89,-0.884651
8.24833,280.907,-0.884711
8.25,280.924,-0.884773
8.25167,280.94,-0.884833
8.25333,280.957,-0.884882
8.255,280.974,-0.884922
8.25667,280.991,-0.884957
8.25833,281.007,-0.884997
8.26,281.024,-0.885042
8.26167,281.041,-0.885077
8.26333,281.057,-0.885112
8.265,281.074,-0.885146
8.26667,281.09,-0.885185
8.26833,281.107,-0.885226
8.27,281.124,-0.885274
8.27167,281.14,-0.885316
8.27333,281.157,-0.885348
8.275,281.174,-0.88538
8.27667,281.191,-0.885416
8.27833,281.207,-0.885451
8.28,281.223,-0.885479
8.28167,281.241,-0.885503
8.28333,281.257,-0.885521
8.285,281.273,-0.885535
8.28667,281.29,-0.885557
8.28833,281.307,-0.885578
8.29,281.323,-0.885596
8.29167,281.34,-0.88561
8.29333,281.357,-0.885622
8.295,281.373,-0.885637
8.29667,281.39,-0.885652
8.29833,281.407,-0.885663
8.3,281.423,-0.885679
8.30167,281.44,-0.885699
8.30333,281.456,-0.885715
8.305,281.473,-0.885739
8.30667,281.49,-0.885771
8.30833,281.507,-0.885801
8.31,281.523,-0.885831
8.31167,281.54,-0.885863
8.31333,281.556,-0.885901
8.315,281.573,-0.885932
8.31667,281.59,-0.885966
8.31833,281.607,-0.885999
8.32,281.623,-0.886029
8.32167,281.64,-0.886054
8.32333,281.656,-0.886084
8.325,281.673,-0.886123
8.32667,281.69,-0.886161
8.32833,281.706,-0.886198
8.33,281.723,-0.886235
8.33167,281.74,-0.886274
8.33333,281.756,-0.886311
8.335,281.773,-0.886349
8.33667,281.79,-0.886388
8.33833,281.806,-0.886419
8.34,281.823,-0.886445
8.34167,281.839,-0.886477
8.34333,281.856,-0.886512
8.345,281.873,-0.886549
8.34667,281.89,-0.88659
8.34833,281.906,-0.886631
8.35,281.923,-0.886679
8.35167,281.939,-0.886731
8.35333,281.956,-0.886784
8.355,281.973,-0.886838
8.35667,281.989,-0.886889
8.35833,282.006,-0.886938
8.36,282.023,-0.886987
8.36167,282.039,-0.887034
8.36333,282.056,-0.887074
8.365,282.072,-0.887109
8.36667,282.089,-0.887138
8.36833,282.106,-0.887163
8.37,282.122,-0.887182
8.37167,282.14,-0.887201
8.37333,282.156,-0.887221
8.375,282.173,-0.88724
8.37667,282.189,-0.887266
8.37833,282.206,-0.887299
8.38,282.223,-0.887344
8.38167,282.24,-0.88739
8.38333,282.256,-0.887439
8.385,282.273,-0.887482
8.38667,282.289,-0.887517
8.38833,282.306,-0.887554
8.39,282.322,-0.887592
8.39167,282.339,-0.887625
8.39333,282.356,-0.887655
8.395,282.372,-0.887682
8.39667,282.389,-0.887704
8.39833,282.406,-0.887733
8.4,282.423,-0.887777
8.40167,282.439,-0.887818
8.40333,282.456,-0.887861
8.405,282.473,-0.887902
8.40667,282.489,-0.887946
8.40833,282.506,-0.888
8.41,282.522,-0.888052
8.41167,282.539,-0.888106
8.41333,282.556,-0.888157
8.415,282.572,-0.888207
8.41667,282.589,-0.88825
8.41833,282.606,-0.888292
8.42,282.622,-0.888332
8.42167,282.639,-0.888369
8.42333,282.656,-0.888409
8.425,282.672,-0.888447
8.42667,282.689,-0.888489
8.42833,282.706,-0.888529
8.43,282.722,-0.888574
8.43167,282.739,-0.888618
8.43333,282.756,-0.88866
8.435,282.772,-0.888692
8.43667,282.789,-0.88872
8.43833,282.806,-0.888754
8.44,282.822,-0.888787
8.44167,282.839,-0.888815
8.44333,282.856,-0.888835
8.445,282.872,-0.888855
8.44667,282.889,-0.888868
8.44833,282.906,-0.888883
8.45,282.922,-0.888905
8.45167,282.939,-0.888928
8.45333,282.956,-0.888956
8.455,282.972,-0.888988
8.45667,282.989,-0.889026
8.45833,283.005,-0.889064
8.46,283.022,-0.889099
8.46167,283.039,-0.889141
8.46333,283.055,-0.889184
8.465,283.072,-0.889226
8.46667,283.089,-0.889271
8.46833,283.105,-0.889318
8.47,283.122,-0.889366
8.47167,283.138,-0.889414
8.47333,283.155,-0.889464
8.475,283.171,-0.889513
8.47667,283.188,-0.889563
8.47833,283.204,-0.88962
8.48,283.222,-0.889688
8.48167,283.239,-0.889779
8.48333,283.255,-0.889847
8.485,283.273,-0.889916
8.48667,283.289,-0.889979
8.48833,283.306,-0.890039
8.49,283.323,-0.890083
8.49167,283.339,-0.890116
8.49333,283.356,-0.890149
8.495,283.372,-0.890179
8.49667,283.389,-0.890209
8.49833,283.405,-0.89024
8.5,283.422,-0.890274
8.50167,283.439,-0.890299
8.50333,283.456,-0.890323
8.505,283.472,-0.890342
8.50667,283.489,-0.890365
8.50833,283.505,-0.890382
8.51,283.522,-0.890383
8.51167,283.538,-0.89039
8.51333,283.555,-0.890404
8.515,283.572,-0.89043
8.51667,283.588,-0.89046
8.51833,283.605,-0.890499
8.52,283.621,-0.890548
8.52167,283.638,-0.890608
8.52333,283.655,-0.89071
8.525,283.671,-0.890856
8.52667,283.688,-0.890987
8.52833,283.705,-0.891086
8.53,283.721,-0.891185
8.53167,283.738,-0.891291
8.53333,283.755,-0.891371
8.535,283.771,-0.891435
8.53667,283.788,-0.891492
8.53833,283.805,-0.891543
8.54,283.822,-0.891591
8.54167,283.838,-0.891632
8.54333,283.855,-0.891672
8.545,283.871,-0.891707
8.54667,283.888,-0.891745
8.54833,283.905,-0.891786
8.55,283.921,-0.891828
8.55167,283.938,-0.891872
8.55333,283.954,-0.891912
8.555,283.971,-0.891947
8.55667,283.988,-0.891978
8.55833,284.004,-0.892
8.56,284.021,-0.892023
8.56167,284.038,-0.892042
8.56333,284.054,-0.892058
8.565,284.071,-0.892069
8.56667,284.088,-0.892082
8.56833,284.105,-0.8921
8.57,284.121,-0.892115
8.57167,284.138,-0.892138
8.57333,284.155,-0.892167
8.575,284.171,-0.892201
8.57667,284.188,-0.892239
8.57833,284.204,-0.892283
8.58,284.221,-0.892331
8.58167,284.238,-0.892378
8.58333,284.254,-0.89243
8.585,284.271,-0.892477
8.58667,284.288,-0.892525
8.58833,284.304,-0.89257
8.59,284.321,-0.892617
8.59167,284.338,-0.892661
8.59333,284.355,-0.892707
8.595,284.371,-0.892752
8.59667,284.388,-0.892805
8.59833,284.404,-0.892865
8.6,284.421,-0.892933
8.60167,284.437,-0.892991
8.60333,284.454,-0.893041
8.605,284.47,-0.89309
8.60667,284.487,-0.893128
8.60833,284.504,-0.893159
8.61,284.52,-0.893173
8.61167,284.537,-0.893174
8.61333,284.554,-0.893169
8.615,284.57,-0.893169
8.61667,284.587,-0.893181
8.61833,284.604,-0.893198
8.62,284.62,-0.893226
8.62167,284.637,-0.893262
8.62333,284.653,-0.893298
8.625,284.67,-0.89334
8.62667,284.687,-0.893388
8.62833,284.704,-0.893433
8.63,284.72,-0.893482
8.63167,284.737,-0.893534
8.63333,284.754,-0.893589
8.635,284.771,-0.893647
8.63667,284.787,-0.893704
8.63833,284.804,-0.893751
8.64,284.821,-0.893785
8.64167,284.838,-0.893812
8.64333,284.854,-0.893838
8.645,284.87,-0.893867
8.64667,284.887,-0.893889
8.64833,284.904,-0.89391
8.65,284.92,-0.893936
8.65167,284.937,-0.89396
8.65333,284.954,-0.89399
8.655,284.971,-0.894028
8.65667,284.987,-0.894075
8.65833,285.004,-0.894122
8.66,285.021,-0.894172
8.66167,285.037,-0.894226
8.66333,285.054,-0.894286
8.665,285.07,-0.894352
8.66667,285.087,-0.89442
8.66833,285.104,-0.894483
8.67,285.12,-0.894542
8.67167,285.137,-0.894596
8.67333,285.154,-0.894653
8.675,285.171,-0.894702
8.67667,285.187,-0.894752
8.67833,285.204,-0.894799
8.68,285.221,-0.894843
8.68167,285.237,-0.894892
8.68333,285.254,-0.894939
8.685,285.27,-0.894982
8.68667,285.287,-0.895023
8.68833,285.303,-0.895062
8.69,285.32,-0.895096
8.69167,285.337,-0.895123
8.69333,285.353,-0.895156
8.695,285.37,-0.895195
8.69667,285.387,-0.895231
8.69833,285.404,-0.895264
8.7,285.42,-0.8953
8.70167,285.437,-0.895334
8.70333,285.454,-0.895364
8.705,285.47,-0.895401
8.70667,285.487,-0.89544
8.70833,285.504,-0.895481
8.71,285.521,-0.895515
8.71167,285.537,-0.895553
8.71333,285.554,-0.895597
8.715,285.57,-0.89565
8.71667,285.587,-0.895709
8.71833,285.603,-0.895773
8.72,285.62,-0.895835
8.72167,285.637,-0.89589
8.72333,285.653,-0.895948
8.725,285.67,-0.895999
8.72667,285.686,-0.896034
8.72833,285.703,-0.896071
8.73,285.72,-0.896103
8.73167,285.737,-0.89614
8.73333,285.753,-0.896177
8.735,285.77,-0.896222
8.73667,285.786,-0.896275
8.73833,285.803,-0.896328
8.74,285.82,-0.896384
8.74167,285.836,-0.896449
8.74333,285.853,-0.896507
8.745,285.87,-0.896565
8.74667,285.886,-0.896616
8.74833,285.903,-0.896655
8.75,285.92,-0.89669
8.75167,285.936,-0.896716
8.75333,285.953,-0.896735
8.755,285.97,-0.896742
8.75667,285.986,-0.896744
8.75833,286.003,-0.896742
8.76,286.02,-0.896744
8.76167,286.036,-0.896741
8.76333,286.053,-0.896746
8.765,286.07,-0.896761
8.76667,286.086,-0.896786
8.76833,286.103,-0.896814
8.77,286.12,-0.896849
8.77167,286.136,-0.89688
8.77333,286.152,-0.896924
8.775,286.169,-0.896977
8.77667,286.186,-0.897032
8.77833,286.203,-0.897088
8.78,286.219,-0.897144
8.78167,286.236,-0.897198
8.78333,286.253,-0.897251
8.785,286.269,-0.897306
8.78667,286.286,-0.89736
8.78833,286.303,-0.897403
8.79,286.32,-0.897446
8.79167,286.336,-0.897489
8.79333,286.353,-0.897535
8.795,286.369,-0.897584
8.79667,286.385,-0.897626
8.79833,286.402,-0.897669
8.8,286.419,-0.897715
8.80167,286.435,-0.897751
8.80333,286.452,-0.897788
8.805,286.469,-0.897816
8.80667,286.486,-0.897852
8.80833,286.503,-0.897885
8.81,286.52,-0.897914
8.81167,286.536,-0.897939
8.81333,286.553,-0.897969
8.815,286.569,-0.898009
8.81667,286.586,-0.898047
8.81833,286.602,-0.898093
8.82,286.619,-0.898146
8.82167,286.635,-0.898204
8.82333,286.652,-0.898266
8.825,286.669,-0.898329
8.82667,286.686,-0.898386
8.82833,286.702,-0.898439
8.83,286.719,-0.898489
8.83167,286.735,-0.898534
8.83333,286.752,-0.898581
8.835,286.769,-0.898613
8.83667,286.785,-0.898639
8.83833,286.802,-0.898669
8.84,286.819,-0.898697
8.84167,286.835,-0.89873
8.84333,286.852,-0.898768
8.845,286.869,-0.898807
8.84667,286.886,-0.898854
8.84833,286.902,-0.898911
8.85,286.919,-0.898969
8.85167,286.936,-0.899028
8.85333,286.952,-0.899086
8.855,286.969,-0.899143
8.85667,286.986,-0.899199
8.85833,287.002,-0.899254
8.86,287.019,-0.899307
8.86167,287.035,-0.899361
8.86333,287.052,-0.899419
8.865,287.069,-0.899479
8.86667,287.085,-0.89954
8.86833,287.102,-0.899588
8.87,287.119,-0.899634
8.87167,287.135,-0.899677
8.87333,287.152,-0.899722
8.875,287.169,-0.899761
8.87667,287.185,-0.899797
8.87833,287.202,-0.899835
8.88,287.219,-0.899879
8.88167,287.236,-0.899927
8.88333,287.252,-0.899971
8.885,287.269,-0.900018
8.88667,287.285,-0.900076
8.88833,287.302,-0.900138
8.89,287.319,-0.900204
8.89167,287.335,-0.900272
8.89333,287.352,-0.900331
8.895,287.368,-0.900387
8.89667,287.385,-0.900449
8.89833,287.402,-0.900514
8.9,287.419,-0.900579
8.90167,287.435,-0.900638
8.90333,287.452,-0.90069
8.905,287.469,-0.900738
8.90667,287.485,-0.900795
8.90833,287.502,-0.900848
8.91,287.518,-0.900907
8.91167,287.535,-0.900954
8.91333,287.552,-0.900989
8.915,287.569,-0.90101
8.91667,287.585,-0.901025
8.91833,287.602,-0.901039
8.92,287.619,-0.901057
8.92167,287.635,-0.901072
8.92333,287.652,-0.901096
8.925,287.668,-0.901131
8.92667,287.685,-0.901172
8.92833,287.702,-0.901224
8.93,287.719,-0.901293
8.93167,287.735,-0.901387
8.93333,287.752,-0.90146
8.935,287.768,-0.901524
8.93667,287.785,-0.901591
8.93833,287.802,-0.901654
8.94,287.818,-0.901737
8.94167,287.835,-0.901812
8.94333,287.851,-0.901878
8.945,287.868,-0.901938
8.94667,287.885,-0.901992
8.94833,287.901,-0.902043
8.95,287.918,-0.902092
8.95167,287.935,-0.902139
8.95333,287.951,-0.902194
8.955,287.968,-0.902242
8.95667,287.984,-0.902289
8.95833,288.001,-0.902345
8.96,288.018,-0.902395
8.96167,288.034,-0.902444
8.96333,288.051,-0.902497
8.965,288.068,-0.902545
8.96667,288.084,-0.902595
8.96833,288.101,-0.902645
8.97,288.118,-0.902698
8.97167,288.134,-0.902751
8.97333,288.151,-0.902804
8.975,288.168,-0.90286
8.97667,288.185,-0.902919
8.97833,288.201,-0.902979
8.98,288.218,-0.903037
8.98167,288.234,-0.903095
8.98333,288.251,-0.90315
8.985,288.268,-0.903198
8.98667,288.284,-0.903248
8.98833,288.301,-0.903292
8.99,288.317,-0.903333
8.99167,288.334,-0.903366
8.99333,288.35,-0.903399
8.995,288.368,-0.903438
8.99667,288.384,-0.903482
8.99833,288.401,-0.903533
9,288.417,-0.903583
9.00167,288.434,-0.903633
9.00333,288.451,-0.90369
9.005,288.467,-0.903747
9.00667,288.484,-0.903801
9.00833,288.501,-0.903857
9.01,288.517,-0.903908
9.01167,288.534,-0.903953
9.01333,288.55,-0.903987
9.015,288.567,-0.904022
9.01667,288.584,-0.904062
9.01833,288.601,-0.904114
9.02,288.617,-0.904159
9.02167,288.634,-0.904201
9.02333,288.651,-0.904241
9.025,288.668,-0.904283
9.02667,288.684,-0.904325
9.02833,288.701,-0.904373
9.03,288.717,-0.904428
9.03167,288.734,-0.904474
9.03333,288.751,-0.904521
9.035,288.767,-0.904567
9.03667,288.784,-0.904609
9.03833,288.8,-0.904651
9.04,288.817,-0.904685
9.04167,288.834,-0.904725
9.04333,288.85,-0.904764
9.045,288.867,-0.904807
9.04667,288.884,-0.904856
9.04833,288.9,-0.904913
9.05,288.917,-0.904967
9.05167,288.933,-0.905035
9.05333,288.95,-0.905104
9.055,288.967,-0.905164
9.05667,288.984,-0.905224
9.05833,289.001,-0.905285
9.06,289.017,-0.905342
9.06167,289.034,-0.905391
9.06333,289.051,-0.905444
9.065,289.067,-0.9055
9.06667,289.084,-0.905556
9.06833,289.101,-0.905612
9.07,289.117,-0.905674
9.07167,289.134,-0.905733
9.07333,289.15,-0.905787
9.075,289.167,-0.905842
9.07667,289.184,-0.905898
9.07833,289.2,-0.90595
9.08,289.217,-0.905999
9.08167,289.233,-0.906049
9.08333,289.25,-0.9061
9.085,289.267,-0.906151
9.08667,289.284,-0.906197
9.08833,289.3,-0.906247
9.09,289.317,-0.9063
9.09167,289.334,-0.906352
9.09333,289.35,-0.906414
9.095,289.367,-0.906482
9.09667,289.384,-0.906558
9.09833,289.4,-0.90663
9.1,289.417,-0.90671
9.10167,289.433,-0.906846
9.10333,289.45,-0.90694
9.105,289.467,-0.907018
9.10667,289.483,-0.907093
9.10833,289.5,-0.907166
9.11,289.517,-0.907233
9.11167,289.533,-0.9073
9.11333,289.55,-0.907353
9.115,289.567,-0.907403
9.11667,289.584,-0.907454
9.11833,289.6,-0.907512
9.12,289.617,-0.907577
9.12167,289.633,-0.907642
9.12333,289.65,-0.907706
9.125,289.667,-0.907774
9.12667,289.683,-0.907841
9.12833,289.7,-0.907908
9.13,289.716,-0.907968
9.13167,289.733,-0.90802
9.13333,289.749,-0.908078
9.135,289.766,-0.908127
9.13667,289.783,-0.908171
9.13833,289.8,-0.908205
9.14,289.816,-0.908234
9.14167,289.833,-0.908268
9.14333,289.849,-0.908309
9.145,289.866,-0.908355
9.14667,289.883,-0.908408
9.14833,289.9,-0.908461
9.15,289.916,-0.90852
9.15167,289.933,-0.908591
9.15333,289.949,-0.908665
9.155,289.966,-0.908739
9.15667,289.983,-0.908806
9.15833,290,-0.908875
9.16,290.016,-0.908943
9.16167,290.033,-0.909002
9.16333,290.049,-0.909054
9.165,290.066,-0.909108
9.16667,290.082,-0.909162
9.16833,290.099,-0.909214
9.17,290.116,-0.909268
9.17167,290.133,-0.909327
9.17333,290.15,-0.909395
9.175,290.166,-0.909467
9.17667,290.183,-0.909544
9.17833,290.2,-0.909622
9.18,290.216,-0.909693
9.18167,290.233,-0.909757
9.18333,290.25,-0.909818
9.185,290.266,-0.909879
9.18667,290.283,-0.909937
9.18833,290.3,-0.909987
9.19,290.316,-0.91003
9.19167,290.333,-0.91007
9.19333,290.35,-0.910112
9.195,290.366,-0.910158
9.19667,290.383,-0.910202
9.19833,290.399,-0.910235
9.2,290.416,-0.910265
9.20167,290.433,-0.910302
9.20333,290.45,-0.910347
9.205,290.466,-0.910395
9.20667,290.482,-0.910447
9.20833,290.5,-0.910517
9.21,290.516,-0.91061
9.21167,290.533,-0.910779
9.21333,290.549,-0.911055
9.215,290.566,-0.911303
9.21667,290.583,-0.911525
9.21833,290.599,-0.911662
9.22,290.616,-0.911745
9.22167,290.633,-0.911827
9.22333,290.649,-0.911904
9.225,290.666,-0.911979
9.22667,290.683,-0.912039
9.22833,290.699,-0.912097
9.23,290.716,-0.912152
9.23167,290.732,-0.912204
9.23333,290.749,-0.912249
9.235,290.766,-0.912288
9.23667,290.782,-0.91232
9.23833,290.799,-0.912338
9.24,290.816,-0.912352
9.24167,290.833,-0.912367
9.24333,290.85,-0.91239
9.245,290.866,-0.912431
9.24667,290.883,-0.91248
9.24833,290.899,-0.912538
9.25,290.916,-0.912604
9.25167,290.933,-0.912679
9.25333,290.949,-0.912755
9.255,290.966,-0.912823
9.25667,290.982,-0.912889
9.25833,290.999,-0.912959
9.26,291.015,-0.91303
9.26167,291.032,-0.913095
9.26333,291.048,-0.913151
9.265,291.065,-0.913203
9.26667,291.082,-0.913247
9.26833,291.099,-0.913288
9.27,291.115,-0.913321
9.27167,291.132,-0.913354
9.27333,291.149,-0.913394
9.275,291.166,-0.913433
9.27667,291.182,-0.913476
9.27833,291.199,-0.913515
9.28,291.216,-0.913549
9.28167,291.232,-0.913594
9.28333,291.249,-0.913636
9.285,291.265,-0.913684
9.28667,291.282,-0.913732
9.28833,291.299,-0.913786
9.29,291.315,-0.913843
9.29167,291.332,-0.913906
9.29333,291.349,-0.913967
9.295,291.365,-0.914028
9.29667,291.382,-0.914084
9.29833,291.399,-0.914129
9.3,291.416,-0.914181
9.30167,291.432,-0.914244
9.30333,291.449,-0.914313
9.305,291.465,-0.914385
9.30667,291.482,-0.914461
9.30833,291.498,-0.914541
9.31,291.516,-0.914624
9.31167,291.532,-0.914706
9.31333,291.549,-0.91478
9.315,291.566,-0.914849
9.31667,291.582,-0.914903
9.31833,291.599,-0.914954
9.32,291.616,-0.914998
9.32167,291.632,-0.915047
9.32333,291.649,-0.915093
9.325,291.665,-0.915127
9.32667,291.682,-0.915164
9.32833,291.698,-0.915202
9.33,291.715,-0.915236
9.33167,291.731,-0.915273
9.33333,291.748,-0.915309
9.335,291.765,-0.915355
9.33667,291.782,-0.915405
9.33833,291.798,-0.915453
9.34,291.815,-0.91551
9.34167,291.831,-0.915566
9.34333,291.848,-0.915626
9.345,291.865,-0.915691
9.34667,291.882,-0.915768
9.34833,291.898,-0.915834
9.35,291.915,-0.9159
9.35167,291.932,-0.915961
9.35333,291.948,-0.916022
9.355,291.965,-0.916079
9.35667,291.981,-0.916134
9.35833,291.998,-0.916196
9.36,292.015,-0.916254
9.36167,292.031,-0.916317
9.36333,292.048,-0.916387
9.365,292.065,-0.916469
9.36667,292.081,-0.916543
9.36833,292.098,-0.916617
9.37,292.115,-0.91669
9.37167,292.131,-0.916757
9.37333,292.148,-0.916821
9.375,292.165,-0.916881
9.37667,292.182,-0.916944
9.37833,292.198,-0.917003
9.38,292.215,-0.917059
9.38167,292.231,-0.917106
9.38333,292.248,-0.91716
9.385,292.265,-0.917212
9.38667,292.281,-0.917267
9.38833,292.298,-0.917319
9.39,292.315,-0.917373
9.39167,292.332,-0.917431
9.39333,292.348,-0.917488
9.395,292.365,-0.917537
9.39667,292.382,-0.917583
9.39833,292.398,-0.917629
9.4,292.415,-0.917682
9.40167,292.431,-0.917747
9.40333,292.448,-0.917816
9.405,292.464,-0.917884
9.40667,292.481,-0.91795
9.40833,292.498,-0.918024
9.41,292.515,-0.918098
9.41167,292.532,-0.918177
9.41333,292.548,-0.91825
9.415,292.565,-0.918314
9.41667,292.581,-0.91837
9.41833,292.598,-0.918424
9.42,292.615,-0.918478
9.42167,292.631,-0.918534
9.42333,292.648,-0.918585
9.425,292.665,-0.918642
9.42667,292.681,-0.918705
9.42833,292.698,-0.918771
9.43,292.714,-0.918825
9.43167,292.731,-0.918877
9.43333,292.748,-0.91892
9.435,292.764,-0.918961
9.43667,292.78,-0.919
9.43833,292.797,-0.919039
9.44,292.814,-0.919076
9.44167,292.831,-0.91912
9.44333,292.848,-0.919167
9.445,292.865,-0.919221
9.44667,292.881,-0.919285
9.44833,292.898,-0.919346
9.45,292.914,-0.919405
9.45167,292.931,-0.91946
9.45333,292.948,-0.919517
9.455,292.964,-0.919581
9.45667,292.981,-0.919645
9.45833,292.998,-0.919701
9.46,293.014,-0.919758
9.46167,293.031,-0.919817
9.46333,293.047,-0.919878
9.465,293.064,-0.919934
9.46667,293.081,-0.919982
9.46833,293.098,-0.920022
9.47,293.114,-0.920057
9.47167,293.131,-0.920093
9.47333,293.148,-0.920139
9.475,293.164,-0.920189
9.47667,293.181,-0.920242
9.47833,293.197,-0.920304
9.48,293.214,-0.920371
9.48167,293.23,-0.920443
9.48333,293.247,-0.920506
9.485,293.264,-0.920573
9.48667,293.28,-0.920637
9.48833,293.297,-0.9207
9.49,293.314,-0.920765
9.49167,293.331,-0.920841
9.49333,293.347,-0.920918
9.495,293.364,-0.920991
9.49667,293.38,-0.92107
9.49833,293.397,-0.921146
9.5,293.414,-0.921223
9.50167,293.43,-0.921301
9.50333,293.447,-0.921374
9.505,293.464,-0.921443
9.50667,293.48,-0.921509
9.50833,293.497,-0.921579
9.51,293.514,-0.921648
9.51167,293.53,-0.921716
9.51333,293.547,-0.921781
9.515,293.564,-0.921838
9.51667,293.581,-0.921889
9.51833,293.597,-0.921936
9.52,293.614,-0.921972
9.52167,293.631,-0.922002
9.52333,293.647,-0.922026
9.525,293.664,-0.922054
9.52667,293.681,-0.92209
9.52833,293.697,-0.922133
9.53,293.714,-0.92218
9.53167,293.731,-0.922232
9.53333,293.748,-0.922284
9.535,293.764,-0.922339
9.53667,293.781,-0.922398
9.53833,293.797,-0.922451
9.54,293.814,-0.922503
9.54167,293.83,-0.922555
9.54333,293.847,-0.922613
9.545,293.864,-0.922664
9.54667,293.88,-0.92271
9.54833,293.897,-0.922766
9.55,293.914,-0.922832
9.55167,293.93,-0.922897
9.55333,293.947,-0.922959
9.555,293.963,-0.923018
9.55667,293.98,-0.923067
9.55833,293.997,-0.923119
9.56,294.014,-0.923165
9.56167,294.03,-0.923211
9.56333,294.047,-0.923246
9.565,294.063,-0.923287
9.56667,294.08,-0.923332
9.56833,294.097,-0.923393
9.57,294.114,-0.923459
9.57167,294.13,-0.923526
9.57333,294.147,-0.923593
9.575,294.164,-0.923662
9.57667,294.18,-0.923738
9.57833,294.196,-0.923849
9.58,294.213,-0.923973
9.58167,294.23,-0.924102
9.58333,294.246,-0.924204
9.585,294.263,-0.924306
9.58667,294.28,-0.924467
9.58833,294.296,-0.924583
9.59,294.313,-0.924662
9.59167,294.33,-0.92472
9.59333,294.346,-0.924771
9.595,294.363,-0.924812
9.59667,294.38,-0.924846
9.59833,294.396,-0.924872
9.6,294.413,-0.924897
9.60167,294.43,-0.924921
9.60333,294.447,-0.924945
9.605,294.463,-0.924973
9.60667,294.48,-0.925003
9.60833,294.497,-0.925037
9.61,294.513,-0.925077
9.61167,294.529,-0.925117
9.61333,294.546,-0.925155
9.615,294.563,-0.925187
9.61667,294.579,-0.925215
9.61833,294.596,-0.925243
9.62,294.613,-0.925277
9.62167,294.63,-0.925315
9.62333,294.646,-0.925353
9.625,294.663,-0.925399
9.62667,294.679,-0.925451
9.62833,294.696,-0.925502
9.63,294.713,-0.925554
9.63167,294.729,-0.925611
9.63333,294.746,-0.925674
9.635,294.763,-0.925739
9.63667,294.779,-0.925797
9.63833,294.796,-0.925864
9.64,294.813,-0.925938
9.64167,294.83,-0.926005
9.64333,294.847,-0.926077
9.645,294.863,-0.926139
9.64667,294.88,-0.926197
9.64833,294.896,-0.926254
9.65,294.913,-0.926311
9.65167,294.929,-0.92637
9.65333,294.946,-0.926417
9.655,294.963,-0.926458
9.65667,294.98,-0.926501
9.65833,294.996,-0.926546
9.66,295.013,-0.926595
9.66167,295.03,-0.926636
9.66333,295.047,-0.92668
9.665,295.063,-0.926728
9.66667,295.08,-0.926789
9.66833,295.097,-0.926857
9.67,295.113,-0.92693
9.67167,295.13,-0.927024
9.67333,295.146,-0.927102
9.675,295.163,-0.927173
9.67667,295.18,-0.927238
9.67833,295.196,-0.927292
9.68,295.213,-0.927344
9.68167,295.23,-0.927397
9.68333,295.246,-0.927449
9.685,295.263,-0.927514
9.68667,295.28,-0.927582
9.68833,295.296,-0.927649
9.69,295.313,-0.927723
9.69167,295.33,-0.927805
9.69333,295.346,-0.927924
9.695,295.363,-0.928006
9.69667,295.38,-0.928079
9.69833,295.396,-0.928147
9.7,295.413,-0.928199
9.70167,295.43,-0.928251
9.70333,295.446,-0.928296
9.705,295.463,-0.928338
9.70667,295.479,-0.928369
9.70833,295.496,-0.928404
9.71,295.513,-0.928445
9.71167,295.529,-0.92849
9.71333,295.546,-0.92853
9.715,295.563,-0.928566
9.71667,295.58,-0.928601
9.71833,295.596,-0.928629
9.72,295.613,-0.92866
9.72167,295.629,-0.92868
9.72333,295.646,-0.928713
9.725,295.663,-0.928753
9.72667,295.679,-0.928806
9.72833,295.696,-0.928868
9.73,295.713,-0.928939
9.73167,295.729,-0.929014
9.73333,295.746,-0.929085
9.735,295.762,-0.929153
9.73667,295.779,-0.929216
9.73833,295.795,-0.929271
9.74,295.812,-0.929314
9.74167,295.829,-0.929367
9.74333,295.845,-0.929421
9.745,295.862,-0.929475
9.74667,295.879,-0.929526
9.74833,295.896,-0.929574
9.75,295.912,-0.929621
9.75167,295.929,-0.929671
9.75333,295.946,-0.929726
9.755,295.962,-0.929773
9.75667,295.979,-0.929819
9.75833,295.996,-0.929868
9.76,296.012,-0.929922
9.76167,296.029,-0.929984
9.76333,296.045,-0.930042
9.765,296.062,-0.930097
9.76667,296.078,-0.930147
9.76833,296.095,-0.930186
9.77,296.112,-0.930224
9.77167,296.128,-0.930256
9.77333,296.145,-0.930292
9.775,296.162,-0.930315
9.77667,296.178,-0.930341
9.77833,296.195,-0.930375
9.78,296.212,-0.930417
9.78167,296.228,-0.930468
9.78333,296.245,-0.930528
9.785,296.261,-0.930597
9.78667,296.278,-0.930669
9.78833,296.295,-0.930742
9.79,296.311,-0.930806
9.79167,296.328,-0.930865
9.79333,296.345,-0.930915
9.795,296.362,-0.930962
9.79667,296.378,-0.931011
9.79833,296.395,-0.931056
9.8,296.411,-0.931101
9.80167,296.428,-0.931151
9.80333,296.445,-0.931198
9.805,296.461,-0.931239
9.80667,296.478,-0.931281
9.80833,296.495,-0.931313
9.81,296.511,-0.931345
9.81167,296.528,-0.931374
9.81333,296.544,-0.9314
9.815,296.561,-0.931431
9.81667,296.577,-0.931456
9.81833,296.594,-0.931477
9.82,296.611,-0.9315
9.82167,296.628,-0.931533
9.82333,296.645,-0.931573
9.825,296.661,-0.931609
9.82667,296.678,-0.931645
9.82833,296.695,-0.931694
9.83,296.711,-0.931747
9.83167,296.728,-0.931802
9.83333,296.744,-0.93187
9.835,296.761,-0.93194
9.83667,296.778,-0.932026
9.83833,296.794,-0.932116
9.84,296.811,-0.932188
9.84167,296.828,-0.932263
9.84333,296.844,-0.932333
9.845,296.861,-0.932406
9.84667,296.878,-0.932476
9.84833,296.894,-0.932541
9.85,296.911,-0.932592
9.85167,296.927,-0.932644
9.85333,296.944,-0.932695
9.855,296.961,-0.932734
9.85667,296.978,-0.932772
9.85833,296.994,-0.932804
9.86,297.011,-0.932829
9.86167,297.028,-0.932852
9.86333,297.045,-0.932878
9.865,297.061,-0.932905
9.86667,297.078,-0.932937
9.86833,297.095,-0.932971
9.87,297.111,-0.933006
9.87167,297.128,-0.933042
9.87333,297.144,-0.933084
9.875,297.161,-0.933126
9.87667,297.178,-0.933172
9.87833,297.194,-0.933219
9.88,297.211,-0.933278
9.88167,297.228,-0.933347
9.88333,297.245,-0.933415
9.885,297.261,-0.933488
9.88667,297.278,-0.933565
9.88833,297.295,-0.933638
9.89,297.311,-0.933707
9.89167,297.328,-0.933774
9.89333,297.345,-0.933838
9.895,297.361,-0.933898
9.89667,297.378,-0.933951
9.89833,297.395,-0.93401
9.9,297.412,-0.934073
9.90167,297.428,-0.934134
9.90333,297.445,-0.934192
9.905,297.461,-0.934259
9.90667,297.478,-0.93432
9.90833,297.495,-0.934375
9.91,297.511,-0.934426
9.91167,297.528,-0.934483
9.91333,297.544,-0.934535
9.915,297.561,-0.934576
9.91667,297.578,-0.934621
9.91833,297.595,-0.934662
9.92,297.612,-0.934704
9.92167,297.628,-0.934744
9.92333,297.645,-0.934775
9.925,297.661,-0.934802
9.92667,297.678,-0.93483
9.92833,297.695,-0.934861
9.93,297.711,-0.934888
9.93167,297.728,-0.934927
9.93333,297.745,-0.934971
9.935,297.761,-0.935026
9.93667,297.778,-0.935078
9.93833,297.795,-0.93513
9.94,297.811,-0.935193
9.94167,297.828,-0.935261
9.94333,297.844,-0.935321
9.945,297.861,-0.935378
9.94667,297.878,-0.935434
9.94833,297.894,-0.935487
9.95,297.911,-0.935543
9.95167,297.928,-0.935596
9.95333,297.945,-0.93564
9.955,297.961,-0.93568
9.95667,297.978,-0.935717
9.95833,297.995,-0.935761
9.96,298.011,-0.935803
9.96167,298.028,-0.93585
9.96333,298.044,-0.935896
9.965,298.061,-0.935943
9.96667,298.077,-0.936
9.96833,298.094,-0.936059
9.97,298.111,-0.93612
9.97167,298.127,-0.936168
9.97333,298.144,-0.936218
9.975,298.161,-0.936264
9.97667,298.177,-0.936301
9.97833,298.194,-0.936333
9.98,298.211,-0.936366
9.98167,298.227,-0.936397
9.98333,298.244,-0.936429
9.985,298.261,-0.936468
9.98667,298.278,-0.936514
9.98833,298.294,-0.936567
9.99,298.311,-0.93662
9.99167,298.327,-0.936672
9.99333,298.344,-0.936723
9.995,298.361,-0.936767
9.99667,298.378,-0.936819
9.99833,298.394,-0.936865
10,298.411,-0.936911
10.0017,298.427,-0.936956
10.0033,298.444,-0.937001
10.005,298.461,-0.937053
10.0067,298.477,-0.937109
10.0083,298.494,-0.937162
10.01,298.511,-0.937218
10.0117,298.527,-0.937272
10.0133,298.544,-0.937336
10.015,298.561,-0.937397
10.0167,298.577,-0.937451
10.0183,298.594,-0.937501
10.02,298.611,-0.937552
10.0217,298.628,-0.937601
10.0233,298.644,-0.937653
10.025,298.661,-0.93771
10.0267,298.678,-0.937768
10.0283,298.694,-0.937823
10.03,298.711,-0.937881
10.0317,298.728,-0.937945
10.0333,298.744,-0.938006
10.035,298.761,-0.93806
10.0367,298.777,-0.938108
10.0383,298.794,-0.938163
10.04,298.811,-0.938227
10.0417,298.827,-0.938286
10.0433,298.844,-0.938341
10.045,298.861,-0.938401
10.0467,298.878,-0.938456
10.0483,298.894,-0.93851
10.05,298.911,-0.938559
10.0517,298.928,-0.938613
10.0533,298.944,-0.938665
10.055,298.961,-0.938718
10.0567,298.978,-0.938767
10.0583,298.994,-0.938817
10.06,299.011,-0.938862
10.0617,299.027,-0.938904
10.0633,299.044,-0.93895
10.065,299.061,-0.938996
10.0667,299.077,-0.939045
10.0683,299.094,-0.939095
10.07,299.111,-0.939158
10.0717,299.127,-0.939222
10.0733,299.144,-0.939294
10.075,299.161,-0.939374
10.0767,299.177,-0.939455
10.0783,299.194,-0.939539
10.08,299.211,-0.939614
10.0817,299.227,-0.939676
10.0833,299.244,-0.939733
10.085,299.261,-0.939783
10.0867,299.277,-0.939824
10.0883,299.294,-0.939867
10.09,299.31,-0.939909
10.0917,299.327,-0.939946
10.0933,299.344,-0.939993
10.095,299.361,-0.940056
10.0967,299.378,-0.940124
10.0983,299.394,-0.940192
10.1,299.411,-0.94026
10.1017,299.427,-0.94033
10.1033,299.444,-0.940398
10.105,299.461,-0.940463
10.1067,299.477,-0.940527
10.1083,299.494,-0.940583
10.11,299.51,-0.940629
10.1117,299.527,-0.940676
10.1133,299.543,-0.940731
10.115,299.56,-0.940783
10.1167,299.577,-0.940831
10.1183,299.593,-0.940883
10.12,299.611,-0.940942
10.1217,299.627,-0.940996
10.1233,299.644,-0.941053
10.125,299.661,-0.941117
10.1267,299.677,-0.941175
10.1283,299.694,-0.941225
10.13,299.71,-0.941277
10.1317,299.727,-0.94133
10.1333,299.744,-0.941383
10.135,299.76,-0.941438
10.1367,299.777,-0.941489
10.1383,299.794,-0.941538
10.14,299.811,-0.941592
10.1417,299.827,-0.941655
10.1433,299.844,-0.941718
10.145,299.861,-0.941775
10.1467,299.877,-0.941827
10.1483,299.894,-0.941877
10.15,299.91,-0.941934
10.1517,299.927,-0.941977
10.1533,299.943,-0.942018
10.155,299.96,-0.942042
10.1567,299.977,-0.94205
10.1583,299.993,-0.94206
10.16,300.01,-0.942075
10.1617,300.027,-0.942093
10.1633,300.044,-0.942108
10.165,300.06,-0.942127
10.1667,300.077,-0.942155
10.1683,300.094,-0.942187
10.17,300.11,-0.942222
10.1717,300.127,-0.942262
10.1733,300.144,-0.942301
10.175,300.16,-0.942334
10.1767,300.177,-0.942372
10.1783,300.193,-0.942405
10.18,300.21,-0.942444
10.1817,300.227,-0.942485
10.1833,300.243,-0.942526
10.185,300.26,-0.942573
10.1867,300.277,-0.942627
10.1883,300.293,-0.94269
10.19,300.31,-0.942757
10.1917,300.327,-0.942822
10.1933,300.344,-0.942879
10.195,300.36,-0.942937
10.1967,300.376,-0.942992
10.1983,300.393,-0.94304
10.2,300.41,-0.943087
10.2017,300.426,-0.943136
10.2033,300.443,-0.943184
10.205,300.46,-0.943238
10.2067,300.476,-0.94329
10.2083,300.493,-0.943339
10.21,300.509,-0.943393
10.2117,300.526,-0.94344
10.2133,300.543,-0.943478
10.215,300.56,-0.943506
10.2167,300.576,-0.943542
10.2183,300.593,-0.943575
10.22,300.61,-0.943614
10.2217,300.627,-0.943662
10.2233,300.643,-0.943719
10.225,300.66,-0.943783
10.2267,300.676,-0.943856
10.2283,300.693,-0.943965
10.23,300.71,-0.944101
10.2317,300.726,-0.944173
10.2333,300.743,-0.944233
10.235,300.759,-0.944291
10.2367,300.776,-0.944345
10.2383,300.792,-0.9444
10.24,300.809,-0.944448
10.2417,300.826,-0.94449
10.2433,300.843,-0.944529
10.245,300.859,-0.944562
10.2467,300.876,-0.944591
10.2483,300.893,-0.944619
10.25,300.909,-0.944651
10.2517,300.926,-0.944688
10.2533,300.943,-0.94472
10.255,300.96,-0.944752
10.2567,300.976,-0.944796
10.2583,300.993,-0.944848
10.26,301.01,-0.944901
10.2617,301.026,-0.944955
10.2633,301.043,-0.945011
10.265,301.059,-0.945059
10.2667,301.076,-0.945107
10.2683,301.093,-0.945156
10.27,301.109,-0.94521
10.2717,301.126,-0.945265
10.2733,301.142,-0.945309
10.275,301.159,-0.94535
10.2767,301.176,-0.945383
10.2783,301.193,-0.94541
10.28,301.209,-0.945447
10.2817,301.226,-0.94549
10.2833,301.242,-0.945539
10.285,301.259,-0.945588
10.2867,301.276,-0.945644
10.2883,301.292,-0.945702
10.29,301.309,-0.945758
10.2917,301.326,-0.945812
10.2933,301.342,-0.945872
10.295,301.359,-0.945917
10.2967,301.376,-0.945958
10.2983,301.392,-0.945996
10.3,301.409,-0.946034
10.3017,301.426,-0.946075
10.3033,301.442,-0.94611
10.305,301.459,-0.946155
10.3067,301.475,-0.946208
10.3083,301.492,-0.946263
10.31,301.509,-0.946312
10.3117,301.525,-0.946363
10.3133,301.542,-0.946414
10.315,301.558,-0.946466
10.3167,301.575,-0.946518
10.3183,301.592,-0.946569
10.32,301.609,-0.946617
10.3217,301.625,-0.946656
10.3233,301.641,-0.946689
10.325,301.658,-0.94672
10.3267,301.675,-0.946755
10.3283,301.691,-0.946791
10.33,301.708,-0.946821
10.3317,301.725,-0.946856
10.3333,301.742,-0.946894
10.335,301.758,-0.946931
10.3367,301.775,-0.946968
10.3383,301.791,-0.94702
10.34,301.808,-0.947082
10.3417,301.824,-0.947149
10.3433,301.841,-0.947216
10.345,301.858,-0.947281
10.3467,301.875,-0.947349
10.3483,301.891,-0.947415
10.35,301.908,-0.947477
10.3517,301.925,-0.947537
10.3533,301.941,-0.947593
10.355,301.958,-0.947646
10.3567,301.974,-0.947684
10.3583,301.991,-0.947718
10.36,302.007,-0.947751
10.3617,302.024,-0.947777
10.3633,302.041,-0.947801
10.365,302.058,-0.947817
10.3667,302.074,-0.947827
10.3683,302.091,-0.947839
10.37,302.108,-0.947861
10.3717,302.124,-0.947887
10.3733,302.141,-0.947919
10.375,302.158,-0.947952
10.3767,302.174,-0.947987
10.3783,302.191,-0.948036
10.38,302.208,-0.948086
10.3817,302.225,-0.948136
10.3833,302.241,-0.948183
10.385,302.258,-0.948228
10.3867,302.274,-0.948271
10.3883,302.291,-0.948312
10.39,302.308,-0.948353
10.3917,302.324,-0.948393
10.3933,302.341,-0.948429
10.395,302.357,-0.948452
10.3967,302.374,-0.948479
10.3983,302.391,-0.948509
10.4,302.407,-0.948549
10.4017,302.424,-0.948585
10.4033,302.44,-0.94862
10.405,302.457,-0.948655
10.4067,302.474,-0.948691
10.4083,302.491,-0.948735
10.41,302.507,-0.948784
10.4117,302.524,-0.948835
10.4133,302.541,-0.948884
10.415,302.557,-0.948938
10.4167,302.574,-0.948996
10.4183,302.591,-0.949052
10.42,302.607,-0.949102
10.4217,302.624,-0.949148
10.4233,302.641,-0.949196
10.425,302.657,-0.949243
10.4267,302.674,-0.949293
10.4283,302.69,-0.949352
10.43,302.707,-0.949408
10.4317,302.723,-0.949464
10.4333,302.74,-0.949525
10.435,302.757,-0.949579
10.4367,302.774,-0.949634
10.4383,302.79,-0.949687
10.44,302.807,-0.949731
10.4417,302.824,-0.949768
10.4433,302.84,-0.949807
10.445,302.857,-0.949845
10.4467,302.873,-0.949887
10.4483,302.89,-0.949935
10.45,302.907,-0.949983
10.4517,302.924,-0.950039
10.4533,302.94,-0.950101
10.455,302.957,-0.950169
10.4567,302.974,-0.95024
10.4583,302.99,-0.950303
10.46,303.007,-0.950356
10.4617,303.023,-0.950402
10.4633,303.04,-0.950447
10.465,303.057,-0.950487
10.4667,303.073,-0.950528
10.4683,303.09,-0.950576
10.47,303.107,-0.950619
10.4717,303.124,-0.950672
10.4733,303.14,-0.950726
10.475,303.157,-0.950785
10.4767,303.174,-0.950847
10.4783,303.19,-0.950902
10.48,303.207,-0.950949
10.4817,303.223,-0.950986
10.4833,303.24,-0.951016
10.485,303.257,-0.951037
10.4867,303.273,-0.951058
10.4883,303.29,-0.951072
10.49,303.307,-0.95109
10.4917,303.323,-0.951111
10.4933,303.34,-0.951136
10.495,303.357,-0.951167
10.4967,303.373,-0.951195
10.4983,303.39,-0.951218
10.5,303.407,-0.95124
10.5017,303.423,-0.951275
10.5033,303.44,-0.951312
10.505,303.457,-0.951354
10.5067,303.473,-0.951406
10.5083,303.49,-0.951459
10.51,303.506,-0.951513
10.5117,303.523,-0.951563
10.5133,303.54,-0.951613
10.515,303.557,-0.951656
10.5167,303.573,-0.951696
10.5183,303.59,-0.951732
10.52,303.606,-0.95176
10.5217,303.623,-0.951789
10.5233,303.64,-0.951819
10.525,303.656,-0.951853
10.5267,303.673,-0.951887
10.5283,303.69,-0.951931
10.53,303.706,-0.951977
10.5317,303.723,-0.952022
10.5333,303.74,-0.952079
10.535,303.756,-0.952134
10.5367,303.773,-0.952192
10.5383,303.79,-0.952243
10.54,303.806,-0.952285
10.5417,303.823,-0.952322
10.5433,303.84,-0.952368
10.545,303.856,-0.952411
10.5467,303.873,-0.952454
10.5483,303.889,-0.95251
10.55,303.906,-0.952562
10.5517,303.922,-0.952617
10.5533,303.939,-0.952681
10.555,303.956,-0.952738
10.5567,303.972,-0.952787
10.5583,303.989,-0.952831
10.56,304.006,-0.952874
10.5617,304.022,-0.952916
10.5633,304.039,-0.952953
10.565,304.056,-0.952983
10.5667,304.072,-0.953014
10.5683,304.089,-0.953044
10.57,304.106,-0.953081
10.5717,304.123,-0.953118
10.5733,304.139,-0.95315
10.575,304.156,-0.953187
10.5767,304.172,-0.953231
10.5783,304.189,-0.953287
10.58,304.206,-0.953343
10.5817,304.223,-0.953406
10.5833,304.239,-0.953474
10.585,304.256,-0.953537
10.5867,304.272,-0.953594
10.5883,304.289,-0.953648
10.59,304.306,-0.953688
10.5917,304.323,-0.953714
10.5933,304.339,-0.953731
10.595,304.356,-0.953743
10.5967,304.373,-0.953753
10.5983,304.389,-0.953773
10.6,304.406,-0.953803
10.6017,304.422,-0.953836
10.6033,304.439,-0.953871
10.605,304.456,-0.953919
10.6067,304.473,-0.953972
10.6083,304.489,-0.954029
10.61,304.506,-0.954082
10.6117,304.522,-0.954126
10.6133,304.539,-0.954164
10.615,304.556,-0.954208
10.6167,304.572,-0.95426
10.6183,304.589,-0.954308
10.62,304.606,-0.954345
10.6217,304.622,-0.954382
10.6233,304.639,-0.954425
10.625,304.656,-0.954475
10.6267,304.672,-0.954532
10.6283,304.689,-0.954591
10.63,304.706,-0.954653
10.6317,304.722,-0.954718
10.6333,304.739,-0.954781
10.635,304.756,-0.954852
10.6367,304.772,-0.954952
10.6383,304.789,-0.955026
10.64,304.805,-0.955095
10.6417,304.822,-0.955154
10.6433,304.839,-0.955208
10.645,304.856,-0.955266
10.6467,304.872,-0.955318
10.6483,304.889,-0.955378
10.65,304.905,-0.955436
10.6517,304.922,-0.955487
10.6533,304.939,-0.955541
10.655,304.956,-0.955591
10.6567,304.972,-0.955643
10.6583,304.989,-0.955701
10.66,305.006,-0.955759
10.6617,305.022,-0.95582
10.6633,305.039,-0.955877
10.665,305.055,-0.955934
10.6667,305.072,-0.955983
10.6683,305.088,-0.956038
10.67,305.105,-0.956094
10.6717,305.122,-0.956145
10.6733,305.138,-0.956191
10.675,305.155,-0.956239
10.6767,305.172,-0.956292
10.6783,305.189,-0.956341
10.68,305.206,-0.956405
10.6817,305.222,-0.956465
10.6833,305.239,-0.956517
10.685,305.255,-0.956578
10.6867,305.271,-0.956645
10.6883,305.288,-0.956712
10.69,305.305,-0.95678
10.6917,305.321,-0.956836
10.6933,305.338,-0.956884
10.695,305.355,-0.956921
10.6967,305.371,-0.956949
10.6983,305.388,-0.956974
10.7,305.405,-0.956986
10.7017,305.422,-0.956993
10.7033,305.438,-0.957
10.705,305.455,-0.957008
10.7067,305.472,-0.957025
10.7083,305.488,-0.957043
10.71,305.505,-0.957067
10.7117,305.522,-0.957098
10.7133,305.539,-0.957142
10.715,305.555,-0.957191
10.7167,305.572,-0.957246
10.7183,305.588,-0.957299
10.72,305.605,-0.957358
10.7217,305.622,-0.957411
10.7233,305.639,-0.957458
10.725,305.655,-0.9575
10.7267,305.672,-0.957545
10.7283,305.689,-0.95758
10.73,305.705,-0.957622
10.7317,305.722,-0.957675
10.7333,305.739,-0.957735
10.735,305.755,-0.957802
10.7367,305.772,-0.957872
10.7383,305.789,-0.957942
10.74,305.805,-0.958014
10.7417,305.822,-0.958076
10.7433,305.839,-0.958133
10.745,305.855,-0.958175
10.7467,305.872,-0.958216
10.7483,305.889,-0.958265
10.75,305.905,-0.958314
10.7517,305.922,-0.958361
10.7533,305.939,-0.958411
10.755,305.955,-0.958467
10.7567,305.972,-0.958527
10.7583,305.988,-0.958589
10.76,306.005,-0.958648
10.7617,306.022,-0.958709
10.7633,306.038,-0.958767
10.765,306.055,-0.958827
10.7667,306.072,-0.958888
10.7683,306.088,-0.95894
10.77,306.105,-0.958997
10.7717,306.122,-0.959056
10.7733,306.138,-0.959117
10.775,306.155,-0.959179
10.7767,306.172,-0.95924
10.7783,306.188,-0.959301
10.78,306.205,-0.959364
10.7817,306.222,-0.959423
10.7833,306.238,-0.959481
10.785,306.254,-0.959533
10.7867,306.271,-0.959584
10.7883,306.288,-0.959632
10.79,306.304,-0.959679
10.7917,306.321,-0.959724
10.7933,306.338,-0.959771
10.795,306.354,-0.95982
10.7967,306.371,-0.959873
10.7983,306.388,-0.95993
10.8,306.405,-0.959977
10.8017,306.421,-0.960018
10.8033,306.438,-0.960054
10.805,306.455,-0.960088
10.8067,306.471,-0.960126
10.8083,306.488,-0.96016
10.81,306.505,-0.96019
10.8117,306.521,-0.960215
10.8133,306.538,-0.960233
10.815,306.555,-0.96026
10.8167,306.571,-0.960293
10.8183,306.588,-0.960333
10.82,306.605,-0.960379
10.8217,306.621,-0.960427
10.8233,306.638,-0.960486
10.825,306.655,-0.960539
10.8267,306.671,-0.960593
10.8283,306.688,-0.960648
10.83,306.704,-0.960694
10.8317,306.721,-0.960747
10.8333,306.737,-0.960798
10.835,306.754,-0.960854
10.8367,306.771,-0.960916
10.8383,306.788,-0.960976
10.84,306.804,-0.961037
10.8417,306.821,-0.961109
10.8433,306.838,-0.961172
10.845,306.854,-0.961239
10.8467,306.871,-0.96129
10.8483,306.888,-0.961325
10.85,306.905,-0.961351
10.8517,306.921,-0.961368
10.8533,306.938,-0.96138
10.855,306.954,-0.961386
10.8567,306.971,-0.961387
10.8583,306.988,-0.961384
10.86,307.005,-0.961396
10.8617,307.021,-0.961421
10.8633,307.038,-0.961453
10.865,307.054,-0.961495
10.8667,307.071,-0.961554
10.8683,307.087,-0.961616
10.87,307.104,-0.96171
10.8717,307.121,-0.961841
10.8733,307.138,-0.961924
10.875,307.154,-0.96199
10.8767,307.171,-0.962049
10.8783,307.187,-0.962102
10.88,307.204,-0.962152
10.8817,307.221,-0.962191
10.8833,307.237,-0.962231
10.885,307.254,-0.962264
10.8867,307.27,-0.962304
10.8883,307.287,-0.962346
10.89,307.304,-0.962389
10.8917,307.321,-0.962435
10.8933,307.337,-0.962477
10.895,307.354,-0.962515
10.8967,307.37,-0.962547
10.8983,307.387,-0.962581
10.9,307.404,-0.96262
10.9017,307.42,-0.962672
10.9033,307.437,-0.962724
10.905,307.453,-0.962789
10.9067,307.47,-0.962881
10.9083,307.486,-0.963045
10.91,307.503,-0.963223
10.9117,307.52,-0.96334
10.9133,307.537,-0.963416
10.915,307.553,-0.963483
10.9167,307.57,-0.963543
10.9183,307.587,-0.963593
10.92,307.603,-0.963642
10.9217,307.62,-0.963681
10.9233,307.637,-0.963709
10.925,307.653,-0.963736
10.9267,307.67,-0.963762
10.9283,307.687,-0.963781
10.93,307.703,-0.963795
10.9317,307.72,-0.963808
10.9333,307.736,-0.963823
10.935,307.753,-0.963852
10.9367,307.769,-0.963895
10.9383,307.786,-0.963942
10.94,307.803,-0.963994
10.9417,307.82,-0.964047
10.9433,307.836,-0.964108
10.945,307.853,-0.964172
10.9467,307.87,-0.964234
10.9483,307.886,-0.964296
10.95,307.903,-0.964356
10.9517,307.92,-0.964405
10.9533,307.936,-0.964455
10.955,307.953,-0.964501
10.9567,307.97,-0.964545
10.9583,307.986,-0.964585
10.96,308.003,-0.964632
10.9617,308.019,-0.964677
10.9633,308.036,-0.964724
10.965,308.053,-0.964766
10.9667,308.07,-0.964817
10.9683,308.086,-0.96486
10.97,308.103,-0.964904
10.9717,308.12,-0.964949
10.9733,308.136,-0.964993
10.975,308.152,-0.965033
10.9767,308.169,-0.965072
10.9783,308.186,-0.965115
10.98,308.202,-0.965162
10.9817,308.219,-0.965209
10.9833,308.235,-0.965266
10.985,308.252,-0.965326
10.9867,308.269,-0.965396
10.9883,308.286,-0.96547
10.99,308.302,-0.965548
10.9917,308.319,-0.965633
10.9933,308.336,-0.965717
10.995,308.352,-0.965793
10.9967,308.369,-0.965868
10.9983,308.385,-0.965938
11,308.402,-0.965996
11.0017,308.419,-0.966054
11.0033,308.435,-0.966115
11.005,308.452,-0.966175
11.0067,308.468,-0.966232
11.0083,308.486,-0.966278
11.01,308.502,-0.966322
11.0117,308.519,-0.966358
11.0133,308.535,-0.966391
11.015,308.552,-0.96643
11.0167,308.568,-0.966466
11.0183,308.585,-0.966502
11.02,308.602,-0.966539
11.0217,308.618,-0.966579
11.0233,308.635,-0.96662
11.025,308.652,-0.966657
11.0267,308.668,-0.966696
11.0283,308.685,-0.966735
11.03,308.702,-0.966778
11.0317,308.718,-0.966813
11.0333,308.735,-0.966853
11.035,308.752,-0.966896
11.0367,308.768,-0.966945
11.0383,308.785,-0.966994
11.04,308.801,-0.967057
11.0417,308.818,-0.96713
11.0433,308.835,-0.9672
11.045,308.852,-0.967263
11.0467,308.868,-0.967326
11.0483,308.885,-0.96739
11.05,308.901,-0.967445
11.0517,308.918,-0.967498
11.0533,308.935,-0.967552
11.055,308.951,-0.967602
11.0567,308.968,-0.967648
11.0583,308.985,-0.967697
11.06,309.001,-0.96774
11.0617,309.018,-0.967773
11.0633,309.035,-0.967793
11.065,309.051,-0.967814
11.0667,309.068,-0.967838
11.0683,309.084,-0.967864
11.07,309.101,-0.967894
11.0717,309.118,-0.967948
11.0733,309.134,-0.968006
11.075,309.151,-0.96807
11.0767,309.167,-0.96814
11.0783,309.184,-0.968211
11.08,309.201,-0.96828
11.0817,309.217,-0.968349
11.0833,309.234,-0.968414
11.085,309.251,-0.968476
11.0867,309.267,-0.968528
11.0883,309.284,-0.968578
11.09,309.3,-0.968624
11.0917,309.317,-0.968671
11.0933,309.334,-0.968721
11.095,309.35,-0.968769
11.0967,309.367,-0.96882
11.0983,309.383,-0.968868
11.1,309.4,-0.968921
11.1017,309.417,-0.968976
11.1033,309.433,-0.969027
11.105,309.45,-0.969076
11.1067,309.467,-0.96912
11.1083,309.483,-0.969166
11.11,309.5,-0.969216
11.1117,309.516,-0.969271
11.1133,309.533,-0.969332
11.115,309.55,-0.969398
11.1167,309.566,-0.969463
11.1183,309.583,-0.969535
11.12,309.6,-0.969606
11.1217,309.616,-0.969671
11.1233,309.633,-0.969721
11.125,309.65,-0.969757
11.1267,309.666,-0.96979
11.1283,309.683,-0.969818
11.13,309.699,-0.969848
11.1317,309.716,-0.969877
11.1333,309.733,-0.969908
11.135,309.749,-0.969945
11.1367,309.766,-0.969987
11.1383,309.783,-0.970042
11.14,309.799,-0.970097
11.1417,309.816,-0.97015
11.1433,309.833,-0.970191
11.145,309.849,-0.970221
11.1467,309.866,-0.970256
11.1483,309.883,-0.970282
11.15,309.899,-0.970311
11.1517,309.916,-0.970349
11.1533,309.933,-0.970395
11.155,309.949,-0.970445
11.1567,309.966,-0.970497
11.1583,309.983,-0.970553
11.16,310,-0.970607
11.1617,310.016,-0.970652
11.1633,310.033,-0.9707
11.165,310.049,-0.970739
11.1667,310.066,-0.970781
11.1683,310.082,-0.970825
11.17,310.099,-0.970874
11.1717,310.115,-0.970926
11.1733,310.132,-0.97099
11.175,310.148,-0.971055
11.1767,310.165,-0.971121
11.1783,310.182,-0.971192
11.18,310.198,-0.971263
11.1817,310.215,-0.971336
11.1833,310.232,-0.97141
11.185,310.248,-0.971485
11.1867,310.265,-0.971554
11.1883,310.282,-0.971625
11.19,310.298,-0.971694
11.1917,310.315,-0.971782
11.1933,310.331,-0.97186
11.195,310.348,-0.971929
11.1967,310.364,-0.971989
11.1983,310.381,-0.972049
11.2,310.398,-0.972109
11.2017,310.414,-0.972164
11.2033,310.43,-0.972213
11.205,310.447,-0.972256
11.2067,310.464,-0.972293
11.2083,310.48,-0.972334
11.21,310.497,-0.972378
11.2117,310.514,-0.972424
11.2133,310.531,-0.972472
11.215,310.547,-0.972523
11.2167,310.564,-0.972576
11.2183,310.58,-0.972632
11.22,310.598,-0.972697
11.2217,310.614,-0.972763
11.2233,310.631,-0.972831
11.225,310.647,-0.972893
11.2267,310.664,-0.972951
11.2283,310.681,-0.973005
11.23,310.697,-0.973054
11.2317,310.714,-0.973107
11.2333,310.73,-0.973156
11.235,310.747,-0.973204
11.2367,310.764,-0.97325
11.2383,310.781,-0.973295
11.24,310.797,-0.973333
11.2417,310.814,-0.973367
11.2433,310.83,-0.973394
11.245,310.847,-0.973428
11.2467,310.864,-0.973469
11.2483,310.88,-0.973523
11.25,310.897,-0.973579
11.2517,310.914,-0.973637
11.2533,310.93,-0.973691
11.255,310.947,-0.973757
11.2567,310.964,-0.973841
11.2583,310.98,-0.973926
11.26,310.997,-0.97401
11.2617,311.013,-0.974091
11.2633,311.031,-0.974169
11.265,311.047,-0.974242
11.2667,311.064,-0.974308
11.2683,311.08,-0.974374
11.27,311.097,-0.974433
11.2717,311.114,-0.97449
11.2733,311.131,-0.97454
11.275,311.147,-0.974586
11.2767,311.164,-0.974631
11.2783,311.181,-0.974674
11.28,311.197,-0.974726
11.2817,311.214,-0.974781
11.2833,311.231,-0.974835
11.285,311.247,-0.974888
11.2867,311.263,-0.974943
11.2883,311.28,-0.974998
11.29,311.297,-0.975057
11.2917,311.313,-0.975126
11.2933,311.33,-0.9752
11.295,311.347,-0.975274
11.2967,311.363,-0.975351
11.2983,311.38,-0.975434
11.3,311.397,-0.975517
11.3017,311.413,-0.975592
11.3033,311.43,-0.975662
11.305,311.447,-0.975726
11.3067,311.463,-0.975784
11.3083,311.48,-0.975841
11.31,311.496,-0.975893
11.3117,311.513,-0.975946
11.3133,311.53,-0.975998
11.315,311.547,-0.976052
11.3167,311.563,-0.976113
11.3183,311.579,-0.976182
11.32,311.596,-0.976249
11.3217,311.613,-0.976333
11.3233,311.629,-0.976417
11.325,311.646,-0.9765
11.3267,311.663,-0.976582
11.3283,311.68,-0.976666
11.33,311.696,-0.976741
11.3317,311.713,-0.976801
11.3333,311.73,-0.976854
11.335,311.747,-0.976908
11.3367,311.763,-0.976963
11.3383,311.78,-0.977015
11.34,311.796,-0.977076
11.3417,311.812,-0.977135
11.3433,311.829,-0.977195
11.345,311.846,-0.977258
11.3467,311.863,-0.977315
11.3483,311.879,-0.977367
11.35,311.896,-0.977412
11.3517,311.913,-0.977462
11.3533,311.929,-0.977513
11.355,311.946,-0.977564
11.3567,311.963,-0.977615
11.3583,311.979,-0.977675
11.36,311.996,-0.977729
11.3617,312.012,-0.977786
11.3633,312.029,-0.977853
11.365,312.046,-0.977917
11.3667,312.063,-0.977982
11.3683,312.079,-0.978043
11.37,312.096,-0.978106
11.3717,312.112,-0.978169
11.3733,312.129,-0.978225
11.375,312.145,-0.978282
11.3767,312.162,-0.978336
11.3783,312.179,-0.978391
11.38,312.196,-0.978446
11.3817,312.212,-0.978496
11.3833,312.229,-0.978544
11.385,312.246,-0.978594
11.3867,312.263,-0.978645
11.3883,312.279,-0.978695
11.39,312.296,-0.978748
11.3917,312.312,-0.978795
11.3933,312.329,-0.978847
11.395,312.346,-0.978901
11.3967,312.362,-0.978963
11.3983,312.379,-0.979019
11.4,312.396,-0.979077
11.4017,312.412,-0.979139
11.4033,312.429,-0.979214
11.405,312.446,-0.97928
11.4067,312.462,-0.979341
11.4083,312.479,-0.979401
11.41,312.495,-0.979457
11.4117,312.512,-0.979513
11.4133,312.529,-0.979572
11.415,312.546,-0.979636
11.4167,312.563,-0.979705
11.4183,312.579,-0.979782
11.42,312.596,-0.979858
11.4217,312.612,-0.979941
11.4233,312.629,-0.980021
11.425,312.645,-0.980089
11.4267,312.662,-0.980151
11.4283,312.679,-0.980214
11.43,312.695,-0.980275
11.4317,312.712,-0.980328
11.4333,312.729,-0.980376
11.435,312.745,-0.980416
11.4367,312.762,-0.98046
11.4383,312.778,-0.980494
11.44,312.795,-0.980524
11.4417,312.812,-0.980556
11.4433,312.829,-0.980597
11.445,312.846,-0.980635
11.4467,312.862,-0.980671
11.4483,312.879,-0.980712
11.45,312.895,-0.980762
11.4517,312.912,-0.980814
11.4533,312.929,-0.980865
11.455,312.946,-0.980924
11.4567,312.962,-0.98098
11.4583,312.978,-0.981044
11.46,312.995,-0.981113
11.4617,313.012,-0.981188
11.4633,313.029,-0.98127
11.465,313.045,-0.981351
11.4667,313.062,-0.981435
11.4683,313.078,-0.98159
11.47,313.095,-0.981795
11.4717,313.112,-0.981951
11.4733,313.128,-0.982054
11.475,313.145,-0.982139
11.4767,313.162,-0.982214
11.4783,313.178,-0.982286
11.48,313.195,-0.982346
11.4817,313.212,-0.982394
11.4833,313.228,-0.982435
11.485,313.245,-0.982473
11.4867,313.262,-0.982511
11.4883,313.279,-0.982553
11.49,313.295,-0.982601
11.4917,313.312,-0.982658
11.4933,313.328,-0.982721
11.495,313.345,-0.982784
11.4967,313.362,-0.982856
11.4983,313.379,-0.982925
11.5,313.395,-0.982995
11.5017,313.412,-0.983066
11.5033,313.428,-0.983139
11.505,313.445,-0.983212
11.5067,313.461,-0.983291
11.5083,313.478,-0.983372
11.51,313.495,-0.983451
11.5117,313.512,-0.983527
11.5133,313.528,-0.983608
11.515,313.545,-0.983682
11.5167,313.562,-0.983749
11.5183,313.578,-0.983811
11.52,313.595,-0.983862
11.5217,313.611,-0.983912
11.5233,313.627,-0.983965
11.525,313.644,-0.984022
11.5267,313.661,-0.984084
11.5283,313.678,-0.984154
11.53,313.694,-0.984229
11.5317,313.711,-0.984307
11.5333,313.728,-0.98438
11.535,313.745,-0.984462
11.5367,313.761,-0.984549
11.5383,313.778,-0.984628
11.54,313.794,-0.984704
11.5417,313.811,-0.984786
11.5433,313.828,-0.984866
11.545,313.844,-0.98493
11.5467,313.861,-0.984988
11.5483,313.878,-0.985036
11.55,313.894,-0.985072
11.5517,313.911,-0.985094
11.5533,313.927,-0.985113
11.555,313.944,-0.985133
11.5567,313.961,-0.985167
11.5583,313.978,-0.985212
11.56,313.994,-0.985263
11.5617,314.011,-0.985322
11.5633,314.027,-0.98538
11.565,314.044,-0.985448
11.5667,314.061,-0.98552
11.5683,314.077,-0.985584
11.57,314.094,-0.985641
11.5717,314.11,-0.985695
11.5733,314.127,-0.985752
11.575,314.143,-0.985816
11.5767,314.16,-0.98588
11.5783,314.177,-0.985947
11.58,314.193,-0.986023
11.5817,314.21,-0.986096
11.5833,314.227,-0.986167
11.585,314.243,-0.986243
11.5867,314.26,-0.986311
11.5883,314.277,-0.986369
11.59,314.294,-0.986422
11.5917,314.31,-0.986468
11.5933,314.327,-0.986509
11.595,314.343,-0.986544
11.5967,314.36,-0.986582
11.5983,314.377,-0.986622
11.6,314.393,-0.986662
11.6017,314.41,-0.986711
11.6033,314.427,-0.986768
11.605,314.443,-0.986824
11.6067,314.46,-0.986888
11.6083,314.476,-0.98696
11.61,314.493,-0.987032
11.6117,314.51,-0.987103
11.6133,314.527,-0.987172
11.615,314.544,-0.987245
11.6167,314.56,-0.987313
11.6183,314.577,-0.987378
11.62,314.593,-0.987446
11.6217,314.61,-0.987514
11.6233,314.626,-0.987591
11.625,314.643,-0.987673
11.6267,314.66,-0.987758
11.6283,314.676,-0.987841
11.63,314.693,-0.98792
11.6317,314.709,-0.987997
11.6333,314.726,-0.988064
11.635,314.743,-0.988128
11.6367,314.76,-0.988181
11.6383,314.776,-0.988235
11.64,314.793,-0.988293
11.6417,314.81,-0.988347
11.6433,314.826,-0.988413
11.645,314.843,-0.988483
11.6467,314.859,-0.98855
11.6483,314.876,-0.988618
11.65,314.893,-0.988691
11.6517,314.91,-0.98876
11.6533,314.926,-0.988827
11.655,314.943,-0.988889
11.6567,314.96,-0.988952
11.6583,314.976,-0.989018
11.66,314.992,-0.989079
11.6617,315.009,-0.989146
11.6633,315.026,-0.989214
11.665,315.043,-0.989284
11.6667,315.06,-0.989353
11.6683,315.076,-0.989428
11.67,315.093,-0.989495
11.6717,315.11,-0.989567
11.6733,315.126,-0.989643
11.675,315.143,-0.989718
11.6767,315.159,-0.989793
11.6783,315.176,-0.989866
11.68,315.193,-0.989926
11.6817,315.209,-0.989979
11.6833,315.226,-0.990029
11.685,315.242,-0.990081
11.6867,315.259,-0.990135
11.6883,315.276,-0.990189
11.69,315.293,-0.990246
11.6917,315.309,-0.990308
11.6933,315.326,-0.990365
11.695,315.342,-0.990431
11.6967,315.359,-0.9905
11.6983,315.375,-0.990577
11.7,315.392,-0.990661
11.7017,315.409,-0.990738
11.7033,315.426,-0.990809
11.705,315.442,-0.990888
11.7067,315.459,-0.990959
11.7083,315.476,-0.991026
11.71,315.492,-0.991096
11.7117,315.509,-0.991166
11.7133,315.526,-0.991235
11.715,315.542,-0.991311
11.7167,315.558,-0.991393
11.7183,315.575,-0.991484
11.72,315.592,-0.991576
11.7217,315.608,-0.991675
11.7233,315.625,-0.99177
11.725,315.642,-0.991897
11.7267,315.658,-0.991993
11.7283,315.675,-0.992083
11.73,315.692,-0.992163
11.7317,315.708,-0.992247
11.7333,315.725,-0.992324
11.735,315.742,-0.992398
11.7367,315.758,-0.992465
11.7383,315.775,-0.992525
11.74,315.792,-0.992575
11.7417,315.808,-0.99262
11.7433,315.825,-0.992663
11.745,315.842,-0.992703
11.7467,315.858,-0.992747
11.7483,315.875,-0.992796
11.75,315.892,-0.992857
11.7517,315.908,-0.99292
11.7533,315.924,-0.992999
11.755,315.941,-0.993086
11.7567,315.958,-0.993176
11.7583,315.974,-0.993267
11.76,315.991,-0.993356
11.7617,316.008,-0.993451
11.7633,316.025,-0.993538
11.765,316.041,-0.993622
11.7667,316.058,-0.9937
11.7683,316.075,-0.993775
11.77,316.091,-0.993842
11.7717,316.108,-0.993916
11.7733,316.125,-0.993988
11.775,316.141,-0.994058
11.7767,316.158,-0.994135
11.7783,316.175,-0.99421
11.78,316.191,-0.99429
11.7817,316.208,-0.994374
11.7833,316.225,-0.994456
11.785,316.241,-0.994544
11.7867,316.258,-0.994635
11.7883,316.275,-0.994721
11.79,316.291,-0.994802
11.7917,316.308,-0.994875
11.7933,316.325,-0.99494
11.795,316.341,-0.994994
11.7967,316.358,-0.99504
11.7983,316.374,-0.995085
11.8,316.391,-0.995128
11.8017,316.407,-0.99517
11.8033,316.424,-0.995216
11.805,316.441,-0.995268
11.8067,316.458,-0.99532
11.8083,316.474,-0.995391
11.81,316.491,-0.995472
11.8117,316.508,-0.995559
11.8133,316.524,-0.995645
11.815,316.541,-0.995721
11.8167,316.557,-0.995801
11.8183,316.574,-0.995876
11.82,316.59,-0.995946
11.8217,316.607,-0.996019
11.8233,316.624,-0.996092
11.825,316.641,-0.996161
11.8267,316.657,-0.996235
11.8283,316.674,-0.996308
11.83,316.691,-0.996392
11.8317,316.707,-0.996477
11.8333,316.724,-0.996564
11.835,316.741,-0.996654
11.8367,316.757,-0.996744
11.8383,316.774,-0.996836
11.84,316.791,-0.996924
11.8417,316.807,-0.997
11.8433,316.824,-0.997073
11.845,316.841,-0.997143
11.8467,316.857,-0.997212
11.8483,316.874,-0.997279
11.85,316.89,-0.997349
11.8517,316.907,-0.997412
11.8533,316.924,-0.997475
11.855,316.94,-0.997542
11.8567,316.957,-0.997614
11.8583,316.974,-0.99769
11.86,316.99,-0.997767
11.8617,317.007,-0.997844
11.8633,317.023,-0.99792
11.865,317.04,-0.998002
11.8667,317.057,-0.998089
11.8683,317.073,-0.998177
11.87,317.09,-0.998258
11.8717,317.106,-0.998333
11.8733,317.123,-0.998404
11.875,317.14,-0.998474
11.8767,317.157,-0.998541
11.8783,317.174,-0.998608
11.88,317.19,-0.998667
11.8817,317.207,-0.998726
11.8833,317.224,-0.998789
11.885,317.24,-0.998861
11.8867,317.257,-0.998936
11.8883,317.273,-0.999015
11.89,317.29,-0.999103
11.8917,317.306,-0.99919
11.8933,317.323,-0.999277
11.895,317.34,-0.999373
11.8967,317.356,-0.99947
11.8983,317.373,-0.999561
11.9,317.39,-0.999653
11.9017,317.406,-0.999746
11.9033,317.423,-0.999832
11.905,317.44,-0.999924
11.9067,317.456,-1.00002
11.9083,317.473,-1.00012
11.91,317.49,-1.00021
11.9117,317.506,-1.0003
11.9133,317.523,-1.00038
11.915,317.54,-1.00046
11.9167,317.556,-1.00053
11.9183,317.573,-1.0006
11.92,317.589,-1.00068
11.9217,317.606,-1.00076
11.9233,317.623,-1.00084
11.925,317.639,-1.00093
11.9267,317.656,-1.00103
11.9283,317.672,-1.00113
11.93,317.689,-1.00123
11.9317,317.706,-1.00133
11.9333,317.723,-1.00143
11.935,317.739,-1.00152
11.9367,317.756,-1.00161
11.9383,317.772,-1.00169
11.94,317.789,-1.00176
11.9417,317.805,-1.00182
11.9433,317.822,-1.00189
11.945,317.839,-1.00196
11.9467,317.856,-1.00204
11.9483,317.873,-1.00211
11.95,317.889,-1.00218
11.9517,317.906,-1.00226
11.9533,317.923,-1.00234
11.955,317.939,-1.00242
11.9567,317.956,-1.00251
11.9583,317.972,-1.00259
11.96,317.989,-1.00268
11.9617,318.006,-1.00277
11.9633,318.023,-1.00285
11.965,318.039,-1.00294
11.9667,318.056,-1.00302
11.9683,318.072,-1.00311
11.97,318.089,-1.0032
11.9717,318.106,-1.00328
11.9733,318.122,-1.00338
11.975,318.139,-1.00347
11.9767,318.155,-1.00356
11.9783,318.172,-1.00365
11.98,318.189,-1.00375
11.9817,318.206,-1.00384
11.9833,318.222,-1.00392
11.985,318.239,-1.004
11.9867,318.255,-1.00408
11.9883,318.272,-1.00416
11.99,318.289,-1.00423
11.9917,318.306,-1.00429
11.9933,318.322,-1.00435
11.995,318.338,-1.00442
11.9967,318.355,-1.00449
11.9983,318.372,-1.00457
12,318.388,-1.00466
12.0017,318.405,-1.00475
12.0033,318.421,-1.00484
12.005,318.438,-1.00493
12.0067,318.455,-1.00501
12.0083,318.472,-1.0051
12.01,318.488,-1.00518
12.0117,318.505,-1.00526
12.0133,318.522,-1.00535
12.015,318.538,-1.00543
12.0167,318.555,-1.00553
12.0183,318.571,-1.00563
12.02,318.588,-1.00574
12.0217,318.605,-1.00588
12.0233,318.621,-1.00612
12.025,318.638,-1.00635
12.0267,318.654,-1.00652
12.0283,318.671,-1.00663
12.03,318.688,-1.00672
12.0317,318.705,-1.00682
12.0333,318.721,-1.00691
12.035,318.738,-1.007
12.0367,318.754,-1.00707
12.0383,318.771,-1.00715
12.04,318.788,-1.00723
12.0417,318.805,-1.0073
12.0433,318.821,-1.00738
12.045,318.838,-1.00746
12.0467,318.854,-1.00753
12.0483,318.872,-1.00761
12.05,318.888,-1.0077
12.0517,318.905,-1.0078
12.0533,318.921,-1.0079
12.055,318.938,-1.008
12.0567,318.954,-1.0081
12.0583,318.971,-1.00819
12.06,318.988,-1.00829
12.0617,319.005,-1.00839
12.0633,319.021,-1.00847
12.065,319.037,-1.00856
12.0667,319.054,-1.00863
12.0683,319.071,-1.0087
12.07,319.087,-1.00877
12.0717,319.104,-1.00884
12.0733,319.121,-1.00892
12.075,319.137,-1.009
12.0767,319.154,-1.0091
12.0783,319.171,-1.0092
12.08,319.187,-1.00933
12.0817,319.204,-1.00947
12.0833,319.221,-1.0096
12.085,319.237,-1.00971
12.0867,319.254,-1.00982
12.0883,319.271,-1.00993
12.09,319.287,-1.01003
12.0917,319.304,-1.01013
12.0933,319.321,-1.01023
12.095,319.337,-1.01033
12.0967,319.354,-1.01042
12.0983,319.371,-1.01051
12.1,319.388,-1.0106
12.1017,319.404,-1.01071
12.1033,319.421,-1.01081
12.105,319.438,-1.01091
12.1067,319.454,-1.01101
12.1083,319.471,-1.01111
12.11,319.487,-1.01121
12.1117,319.504,-1.01132
12.1133,319.52,-1.01143
12.115,319.537,-1.01152
12.1167,319.554,-1.01162
12.1183,319.571,-1.01171
12.12,319.587,-1.01181
12.1217,319.603,-1.01192
12.1233,319.62,-1.01203
12.125,319.636,-1.01215
12.1267,319.654,-1.0123
12.1283,319.67,-1.01242
12.13,319.687,-1.01253
12.1317,319.703,-1.01264
12.1333,319.72,-1.01274
12.135,319.737,-1.01284
12.1367,319.753,-1.01295
12.1383,319.77,-1.01305
12.14,319.786,-1.01315
12.1417,319.803,-1.01325
12.1433,319.82,-1.01336
12.145,319.836,-1.01345
12.1467,319.853,-1.01355
12.1483,319.87,-1.01364
12.15,319.887,-1.01373
12.1517,319.903,-1.01381
12.1533,319.919,-1.01389
12.155,319.936,-1.01397
12.1567,319.953,-1.01405
12.1583,319.97,-1.01413
12.16,319.986,-1.01422
12.1617,320.003,-1.0143
12.1633,320.019,-1.01439
12.165,320.036,-1.01447
12.1667,320.053,-1.01458
12.1683,320.07,-1.01469
12.17,320.086,-1.0148
12.1717,320.103,-1.01494
12.1733,320.119,-1.01507
12.175,320.136,-1.0152
12.1767,320.153,-1.01534
12.1783,320.169,-1.0155
12.18,320.186,-1.01563
12.1817,320.203,-1.01574
12.1833,320.219,-1.01585
12.185,320.236,-1.01596
12.1867,320.252,-1.01607
12.1883,320.269,-1.01617
12.19,320.285,-1.01629
12.1917,320.302,-1.01641
12.1933,320.319,-1.01653
12.195,320.335,-1.01666
12.1967,320.352,-1.01678
12.1983,320.369,-1.0169
12.2,320.385,-1.017
12.2017,320.402,-1.01711
12.2033,320.419,-1.01721
12.205,320.436,-1.01732
12.2067,320.452,-1.01742
12.2083,320.469,-1.01751
12.21,320.486,-1.01762
12.2117,320.502,-1.01772
12.2133,320.519,-1.01782
12.215,320.536,-1.01794
12.2167,320.553,-1.0181
12.2183,320.569,-1.01827
12.22,320.586,-1.01845
12.2217,320.603,-1.01867
12.2233,320.62,-1.01884
12.225,320.636,-1.01896
12.2267,320.653,-1.01907
12.2283,320.669,-1.01918
12.23,320.685,-1.01929
12.2317,320.702,-1.01938
12.2333,320.719,-1.01947
12.235,320.736,-1.01957
12.2367,320.752,-1.01967
12.2383,320.769,-1.01978
12.24,320.785,-1.01988
12.2417,320.802,-1.01999
12.2433,320.819,-1.0201
12.245,320.835,-1.02021
12.2467,320.852,-1.02034
12.2483,320.869,-1.02046
12.25,320.885,-1.02058
12.2517,320.902,-1.0207
12.2533,320.918,-1.02082
12.255,320.935,-1.02093
12.2567,320.952,-1.02105
12.2583,320.968,-1.02116
12.26,320.985,-1.02127
12.2617,321.001,-1.02139
12.2633,321.018,-1.02152
12.265,321.035,-1.02164
12.2667,321.051,-1.02177
12.2683,321.068,-1.02192
12.27,321.084,-1.02205
12.2717,321.101,-1.02221
12.2733,321.118,-1.02234
12.275,321.135,-1.02247
12.2767,321.151,-1.02261
12.2783,321.168,-1.02274
12.28,321.184,-1.02287
12.2817,321.201,-1.023
12.2833,321.218,-1.02312
12.285,321.235,-1.02324
12.2867,321.251,-1.02336
12.2883,321.268,-1.02349
12.29,321.285,-1.02362
12.2917,321.301,-1.02374
12.2933,321.318,-1.02387
12.295,321.334,-1.024
12.2967,321.351,-1.02413
12.2983,321.368,-1.02426
12.3,321.384,-1.02439
12.3017,321.4,-1.0245
12.3033,321.417,-1.02461
12.305,321.434,-1.02474
12.3067,321.451,-1.02486
12.3083,321.467,-1.02498
12.31,321.484,-1.0251
12.3117,321.5,-1.02523
12.3133,321.517,-1.02539
12.315,321.534,-1.02557
12.3167,321.55,-1.02571
12.3183,321.567,-1.02583
12.32,321.584,-1.02595
12.3217,321.6,-1.02609
12.3233,321.617,-1.02624
12.325,321.633,-1.02638
12.3267,321.65,-1.02651
12.3283,321.667,-1.02664
12.33,321.683,-1.02676
12.3317,321.7,-1.02689
12.3333,321.716,-1.02702
12.335,321.733,-1.02714
12.3367,321.75,-1.02727
12.3383,321.766,-1.02744
12.34,321.783,-1.0277
12.3417,321.8,-1.02808
12.3433,321.816,-1.02849
12.345,321.833,-1.02901
12.3467,321.85,-1.02951
12.3483,321.867,-1.03005
12.35,321.883,-1.0305
12.3517,321.9,-1.0309
12.3533,321.916,-1.03126
12.355,321.933,-1.03151
12.3567,321.95,-1.03179
12.3583,321.966,-1.032
12.36,321.983,-1.03219
12.3617,322,-1.03241
12.3633,322.016,-1.03261
12.365,322.033,-1.03287
12.3667,322.05,-1.03317
12.3683,322.066,-1.03339
12.37,322.083,-1.03358
12.3717,322.099,-1.03376
12.3733,322.116,-1.0339
12.375,322.132,-1.03409
12.3767,322.149,-1.03421
12.3783,322.165,-1.03433
12.38,322.182,-1.03445
12.3817,322.199,-1.03458
12.3833,322.215,-1.03472
12.385,322.232,-1.03486
12.3867,322.249,-1.03499
12.3883,322.265,-1.03513
12.39,322.281,-1.03527
12.3917,322.298,-1.03541
12.3933,322.315,-1.03555
12.395,322.332,-1.03576
12.3967,322.348,-1.03598
12.3983,322.365,-1.03633
12.4,322.381,-1.03679
12.4017,322.398,-1.03732
12.4033,322.415,-1.03786
12.405,322.432,-1.03836
12.4067,322.448,-1.03873
12.4083,322.465,-1.03907
12.41,322.482,-1.03932
12.4117,322.498,-1.03947
12.4133,322.515,-1.03961
12.415,322.531,-1.03974
12.4167,322.548,-1.03987
12.4183,322.565,-1.04
12.42,322.581,-1.04016
12.4217,322.598,-1.04033
12.4233,322.614,-1.04046
12.425,322.631,-1.0406
12.4267,322.648,-1.04076
12.4283,322.664,-1.04098
12.43,322.681,-1.04131
12.4317,322.698,-1.0417
12.4333,322.715,-1.0421
12.435,322.731,-1.04245
12.4367,322.748,-1.04277
12.4383,322.764,-1.04303
12.44,322.781,-1.04318
12.4417,322.798,-1.04338
12.4433,322.814,-1.04372
12.445,322.831,-1.04414
12.4467,322.848,-1.04463
12.4483,322.865,-1.04527
12.45,322.881,-1.04602
12.4517,322.898,-1.04673
12.4533,322.915,-1.04714
12.455,322.931,-1.04748
12.4567,322.948,-1.04772
12.4583,322.964,-1.04789
12.46,322.981,-1.04803
12.4617,322.998,-1.04819
12.4633,323.014,-1.04836
12.465,323.031,-1.04861
12.4667,323.047,-1.04895
12.4683,323.064,-1.0493
12.47,323.081,-1.0497
12.4717,323.098,-1.05011
12.4733,323.114,-1.05051
12.475,323.13,-1.05091
12.4767,323.147,-1.05136
12.4783,323.164,-1.0517
12.48,323.181,-1.05219
12.4817,323.197,-1.05284
12.4833,323.214,-1.05331
12.485,323.231,-1.05371
12.4867,323.247,-1.05407
12.4883,323.264,-1.05446
12.49,323.281,-1.0549
12.4917,323.297,-1.05524
12.4933,323.314,-1.0556
12.495,323.33,-1.05608
12.4967,323.347,-1.05661
12.4983,323.363,-1.05721
12.5,323.38,-1.05785
12.5017,323.397,-1.05865
12.5033,323.414,-1.0592
12.505,323.43,-1.05965
12.5067,323.446,-1.06001
12.5083,323.463,-1.0603
12.51,323.48,-1.06069
12.5117,323.497,-1.06108
12.5133,323.513,-1.06155
12.515,323.53,-1.06198
12.5167,323.547,-1.06246
12.5183,323.563,-1.06292
12.52,323.58,-1.06332
12.5217,323.597,-1.06377
12.5233,323.613,-1.06433
12.525,323.63,-1.06499
12.5267,323.646,-1.06542
12.5283,323.663,-1.06583
12.53,323.679,-1.06623
12.5317,323.696,-1.06655
12.5333,323.713,-1.06683
12.535,323.73,-1.06704
12.5367,323.746,-1.06726
12.5383,323.763,-1.06753
12.54,323.78,-1.06783
12.5417,323.796,-1.06822
12.5433,323.813,-1.0687
12.545,323.829,-1.06931
12.5467,323.846,-1.06987
12.5483,323.863,-1.07056
12.55,323.879,-1.07131
12.5517,323.896,-1.07218
12.5533,323.912,-1.07309
12.555,323.929,-1.07412
12.5567,323.946,-1.07513
12.5583,323.962,-1.07611
12.56,323.979,-1.07699
12.5617,323.996,-1.07768
12.5633,324.013,-1.07835
12.565,324.029,-1.07912
12.5667,324.046,-1.07972
12.5683,324.063,-1.08017
12.57,324.08,-1.08061
12.5717,324.096,-1.08111
12.5733,324.112,-1.08175
12.575,324.129,-1.08233
12.5767,324.146,-1.08288
12.5783,324.162,-1.08343
12.58,324.179,-1.084
12.5817,324.196,-1.08464
12.5833,324.212,-1.08535
12.585,324.229,-1.08608
12.5867,324.245,-1.08694
12.5883,324.262,-1.0879
12.59,324.279,-1.08874
12.5917,324.295,-1.0895
12.5933,324.312,-1.09025
12.595,324.328,-1.09112
12.5967,324.345,-1.09184
12.5983,324.362,-1.09256
12.6,324.378,-1.0932
12.6017,324.395,-1.09394
12.6033,324.411,-1.09466
12.605,324.428,-1.09556
12.6067,324.445,-1.0964
12.6083,324.462,-1.09721
12.61,324.478,-1.09793
12.6117,324.495,-1.09851
12.6133,324.511,-1.09887
12.615,324.528,-1.09917
12.6167,324.545,-1.09942
12.6183,324.561,-1.09961
12.62,324.578,-1.09977
12.6217,324.594,-1.09998
12.6233,324.612,-1.10028
12.625,324.628,-1.10068
12.6267,324.645,-1.10128
12.6283,324.661,-1.10225
12.63,324.678,-1.1034
12.6317,324.695,-1.10461
12.6333,324.711,-1.10591
12.635,324.728,-1.10726
12.6367,324.744,-1.10865
12.6383,324.761,-1.10982
12.64,324.777,-1.11088
12.6417,324.794,-1.11226
12.6433,324.811,-1.11339
12.645,324.827,-1.11486
12.6467,324.844,-1.11638
12.6483,324.86,-1.11743
12.65,324.877,-1.11834
12.6517,324.894,-1.11931
12.6533,324.91,-1.12011
12.655,324.927,-1.12067
12.6567,324.944,-1.12113
12.6583,324.961,-1.1216
12.66,324.978,-1.12194
12.6617,324.994,-1.12238
12.6633,325.01,-1.12289
12.665,325.027,-1.12354
12.6667,325.044,-1.12413
12.6683,325.06,-1.12463
12.67,325.076,-1.12541
12.6717,325.093,-1.1262
12.6733,325.11,-1.12718
12.675,325.127,-1.12829
12.6767,325.143,-1.12963
12.6783,325.16,-1.13092
12.68,325.176,-1.13208
12.6817,325.193,-1.13304
12.6833,325.209,-1.13417
12.685,325.226,-1.13532
12.6867,325.243,-1.13616
12.6883,325.26,-1.13702
12.69,325.276,-1.13808
12.6917,325.293,-1.13925
12.6933,325.31,-1.1409
12.695,325.326,-1.14244
12.6967,325.343,-1.14357
12.6983,325.36,-1.14468
12.7,325.376,-1.14601
12.7017,325.393,-1.14742
12.7033,325.409,-1.14843
12.705,325.426,-1.14936
12.7067,325.443,-1.15049
12.7083,325.459,-1.15169
12.71,325.476,-1.15291
12.7117,325.492,-1.15409
12.7133,325.509,-1.15519
12.715,325.525,-1.15647
12.7167,325.542,-1.15755
12.7183,325.559,-1.15874
12.72,325.575,-1.16005
12.7217,325.592,-1.16097
12.7233,325.608,-1.16197
12.725,325.625,-1.16277
12.7267,325.641,-1.16367
12.7283,325.658,-1.16466
12.73,325.674,-1.16549
12.7317,325.69,-1.16629
12.7333,325.707,-1.16744
12.735,325.723,-1.1689
12.7367,325.74,-1.17058
12.7383,325.757,-1.17239
12.74,325.774,-1.17484
12.7417,325.79,-1.17715
12.7433,325.807,-1.17864
12.745,325.824,-1.17978
12.7467,325.84,-1.1806
12.7483,325.857,-1.18125
12.75,325.873,-1.1817
12.7517,325.89,-1.18209
12.7533,325.907,-1.18255
12.755,325.923,-1.1831
12.7567,325.94,-1.18395
12.7583,325.956,-1.18563
12.76,325.973,-1.18776
12.7617,325.99,-1.18998
12.7633,326.006,-1.19257
12.765,326.023,-1.19485
12.7667,326.039,-1.19701
12.7683,326.056,-1.19956
12.77,326.072,-1.20155
12.7717,326.089,-1.203
12.7733,326.105,-1.20433
12.775,326.122,-1.2055
12.7767,326.139,-1.20613
12.7783,326.155,-1.20636
12.78,326.172,-1.20647
12.7817,326.188,-1.20673
12.7833,326.205,-1.20717
12.785,326.222,-1.20772
12.7867,326.238,-1.2089
12.7883,326.255,-1.21063
12.79,326.271,-1.21246
12.7917,326.288,-1.21513
12.7933,326.304,-1.21804
12.795,326.321,-1.22093
12.7967,326.338,-1.22376
12.7983,326.354,-1.22669
12.8,326.371,-1.22893
12.8017,326.388,-1.23096
12.8033,326.404,-1.23324
12.805,326.421,-1.23552
12.8067,326.437,-1.23747
12.8083,326.454,-1.23919
12.81,326.47,-1.24044
12.8117,326.487,-1.24185
12.8133,326.504,-1.24315
12.815,326.52,-1.24399
12.8167,326.537,-1.24465
12.8183,326.553,-1.24557
12.82,326.57,-1.2466
12.8217,326.587,-1.24789
12.8233,326.603,-1.24934
12.825,326.62,-1.25107
12.8267,326.636,-1.25292
12.8283,326.653,-1.25526
12.83,326.669,-1.25765
12.8317,326.686,-1.25999
12.8333,326.703,-1.26228
12.835,326.719,-1.26479
12.8367,326.736,-1.26752
12.8383,326.752,-1.27134
12.84,326.769,-1.27436
12.8417,326.785,-1.27678
12.8433,326.802,-1.279
12.845,326.819,-1.28081
12.8467,326.835,-1.28283
12.8483,326.851,-1.28501
12.85,326.868,-1.2866
12.8517,326.884,-1.28781
12.8533,326.901,-1.28922
12.855,326.918,-1.29055
12.8567,326.934,-1.29263
12.8583,326.951,-1.29434
12.86,326.967,-1.29503
12.8617,326.984,-1.29562
12.8633,327.001,-1.29663
12.865,327.017,-1.29857
12.8667,327.033,-1.30156
12.8683,327.05,-1.30462
12.87,327.066,-1.30792
12.8717,327.083,-1.31119
12.8733,327.099,-1.31577
12.875,327.116,-1.32028
12.8767,327.132,-1.32423
12.8783,327.149,-1.32702
12.88,327.165,-1.32934
12.8817,327.182,-1.33202
12.8833,327.198,-1.33484
12.885,327.215,-1.33651
12.8867,327.232,-1.33746
12.8883,327.248,-1.33894
12.89,327.264,-1.34024
12.8917,327.281,-1.34228
12.8933,327.298,-1.34412
12.895,327.314,-1.34559
12.8967,327.331,-1.3479
12.8983,327.347,-1.35061
12.9,327.364,-1.35412
12.9017,327.381,-1.35727
12.9033,327.397,-1.36063
12.905,327.413,-1.3629
12.9067,327.43,-1.36529
12.9083,327.447,-1.36771
12.91,327.463,-1.37049
12.9117,327.479,-1.37365
12.9133,327.496,-1.37648
12.915,327.512,-1.37853
12.9167,327.529,-1.3808
12.9183,327.545,-1.38323
12.92,327.562,-1.38579
12.9217,327.578,-1.38981
12.9233,327.595,-1.39407
12.925,327.611,-1.39633
12.9267,327.628,-1.39878
12.9283,327.644,-1.40192
12.93,327.661,-1.40632
12.9317,327.678,-1.40986
12.9333,327.694,-1.41357
12.935,327.711,-1.41698
12.9367,327.727,-1.42032
12.9383,327.744,-1.42362
12.94,327.76,-1.42707
12.9417,327.777,-1.43093
12.9433,327.793,-1.43308
12.945,327.81,-1.43586
12.9467,327.826,-1.43821
12.9483,327.842,-1.44021
12.95,327.859,-1.44271
12.9517,327.875,-1.44554
12.9533,327.892,-1.44756
12.955,327.909,-1.45142
12.9567,327.925,-1.4561
12.9583,327.942,-1.46047
12.96,327.958,-1.46546
12.9617,327.974,-1.46927
12.9633,327.991,-1.47314
12.965,328.007,-1.47686
12.9667,328.023,-1.47989
12.9683,328.04,-1.48282
12.97,328.056,-1.48462
12.9717,328.073,-1.48731
12.9733,328.089,-1.49021
12.975,328.106,-1.49337
12.9767,328.122,-1.49638
12.9783,328.139,-1.49869
12.98,328.155,-1.50216
12.9817,328.172,-1.50595
12.9833,328.188,-1.50994
12.985,328.205,-1.51437
12.9867,328.221,-1.51888
12.9883,328.237,-1.52251
12.99,328.254,-1.5271
12.9917,328.27,-1.53165
12.9933,328.287,-1.53579
12.995,328.303,-1.54
12.9967,328.32,-1.54257
12.9983,328.336,-1.54557
13,328.353,-1.54832
13.0017,328.369,-1.55157
13.0033,328.386,-1.55503
13.005,328.402,-1.55792
13.0067,328.418,-1.56095
13.0083,328.434,-1.56429
13.01,328.451,-1.56846
13.0117,328.467,-1.57323
13.0133,328.484,-1.57766
13.015,328.5,-1.58122
13.0167,328.517,-1.58547
13.0183,328.533,-1.59083
13.02,328.55,-1.59533
13.0217,328.566,-1.59939
13.0233,328.582,-1.60345
13.025,328.599,-1.6066
13.0267,328.615,-1.61094
13.0283,328.632,-1.61469
13.03,328.648,-1.61776
13.0317,328.665,-1.61914
13.0333,328.681,-1.6225
13.035,328.698,-1.62637
13.0367,328.714,-1.62871
13.0383,328.731,-1.63201
13.04,328.747,-1.63409
13.0417,328.763,-1.63675
13.0433,328.78,-1.63967
13.045,328.796,-1.64516
13.0467,328.812,-1.64912
13.0483,328.829,-1.65227
13.05,328.845,-1.65682
13.0517,328.861,-1.66077
13.0533,328.878,-1.6638
13.055,328.894,-1.66748
13.0567,328.91,-1.67245
13.0583,328.927,-1.67607
13.06,328.943,-1.67883
13.0617,328.96,-1.68189
13.0633,328.976,-1.68538
13.065,328.993,-1.68819
13.0667,329.009,-1.6904
13.0683,329.025,-1.69373
13.07,329.042,-1.69708
13.0717,329.058,-1.70018
13.0733,329.074,-1.70319
13.075,329.09,-1.70725
13.0767,329.107,-1.7096
13.0783,329.123,-1.71298
13.08,329.14,-1.7149
13.0817,329.156,-1.71753
13.0833,329.173,-1.71967
13.085,329.189,-1.72036
13.0867,329.205,-1.72204
13.0883,329.222,-1.72371
13.09,329.238,-1.72675
13.0917,329.255,-1.72843
13.0933,329.271,-1.73044
13.095,329.288,-1.73384
13.0967,329.305,-1.73492
13.0983,329.321,-1.7379
13.1,329.337,-1.74061
13.1017,329.354,-1.74304
13.1033,329.37,-1.74477
13.105,329.387,-1.74675
13.1067,329.403,-1.74747
13.1083,329.419,-1.74907
13.11,329.436,-1.75031
13.1117,329.452,-1.7508
13.1133,329.469,-1.75117
13.115,329.485,-1.75195
13.1167,329.502,-1.75241
13.1183,329.518,-1.75292
13.12,329.535,-1.75404
13.1217,329.551,-1.75608
13.1233,329.567,-1.7567
13.125,329.584,-1.75761
13.1267,329.601,-1.75845
13.1283,329.617,-1.75858
13.13,329.633,-1.75857
13.1317,329.65,-1.75835
13.1333,329.666,-1.75823
13.135,329.683,-1.75804
13.1367,329.699,-1.75814
13.1383,329.716,-1.75819
13.14,329.732,-1.75844
13.1417,329.749,-1.75849
13.1433,329.765,-1.75867
13.145,329.782,-1.75882
13.1467,329.799,-1.75871
13.1483,329.815,-1.75587
13.15,329.832,-1.75411
13.1517,329.848,-1.75286
13.1533,329.865,-1.75164
13.155,329.882,-1.75036
13.1567,329.898,-1.74914
13.1583,329.915,-1.74809
13.16,329.931,-1.74721
13.1617,329.948,-1.74618
13.1633,329.965,-1.74519
13.165,329.981,-1.74389
13.1667,329.998,-1.74237
13.1683,330.014,-1.74087
13.17,330.031,-1.73939
13.1717,330.048,-1.73796
13.1733,330.064,-1.73612
13.175,330.081,-1.73398
13.1767,330.097,-1.73137
13.1783,330.114,-1.72831
13.18,330.131,-1.72508
13.1817,330.147,-1.72135
13.1833,330.164,-1.71731
13.185,330.181,-1.71301
13.1867,330.197,-1.70818
13.1883,330.214,-1.70352
13.19,330.231,-1.6987
13.1917,330.248,-1.69327
13.1933,330.265,-1.68772
13.195,330.281,-1.68294
13.1967,330.298,-1.67909
13.1983,330.314,-1.67427
13.2,330.331,-1.6695
13.2017,330.348,-1.66496
13.2033,330.365,-1.65952
13.205,330.381,-1.65447
13.2067,330.398,-1.65033
13.2083,330.415,-1.64579
13.21,330.432,-1.64028
13.2117,330.448,-1.63462
13.2133,330.465,-1.62855
13.215,330.482,-1.62369
13.2167,330.499,-1.61917
13.2183,330.516,-1.61499
13.22,330.533,-1.61018
13.2217,330.55,-1.60476
13.2233,330.566,-1.6006
13.225,330.583,-1.59525
13.2267,330.6,-1.5907
13.2283,330.617,-1.58588
13.23,330.634,-1.58026
13.2317,330.651,-1.57498
13.2333,330.668,-1.56917
13.235,330.685,-1.56259
13.2367,330.701,-1.557
13.2383,330.718,-1.55173
13.24,330.736,-1.54586
13.2417,330.752,-1.53914
13.2433,330.769,-1.53398
13.245,330.786,-1.52814
13.2467,330.803,-1.52233
13.2483,330.82,-1.51542
13.25,330.837,-1.50938
13.2517,330.854,-1.50335
13.2533,330.87,-1.49706
13.255,330.887,-1.49235
13.2567,330.904,-1.48699
13.2583,330.921,-1.47919
13.26,330.938,-1.47338
13.2617,330.955,-1.46863
13.2633,330.972,-1.46297
13.265,330.989,-1.45786
13.2667,331.006,-1.45187
13.2683,331.024,-1.44619
13.27,331.04,-1.44061
13.2717,331.058,-1.43338
13.2733,331.074,-1.42736
13.275,331.091,-1.42249
13.2767,331.108,-1.41571
13.2783,331.125,-1.40916
13.28,331.142,-1.40393
13.2817,331.159,-1.39881
13.2833,331.176,-1.39481
13.285,331.193,-1.39008
13.2867,331.21,-1.38536
13.2883,331.227,-1.3806
13.29,331.244,-1.37582
13.2917,331.261,-1.36916
13.2933,331.278,-1.36244
13.295,331.295,-1.35735
13.2967,331.312,-1.35115
13.2983,331.329,-1.34503
13.3,331.346,-1.33841
13.3017,331.363,-1.33154
13.3033,331.38,-1.32655
13.305,331.397,-1.32186
13.3067,331.414,-1.31856
13.3083,331.431,-1.31349
13.31,331.448,-1.30902
13.3117,331.465,-1.30395
13.3133,331.482,-1.29907
13.315,331.499,-1.295
13.3167,331.516,-1.28937
13.3183,331.533,-1.28482
13.32,331.55,-1.27983
13.3217,331.567,-1.27562
13.3233,331.584,-1.27041
13.325,331.601,-1.2656
13.3267,331.618,-1.26059
13.3283,331.635,-1.25591
13.33,331.652,-1.25081
13.3317,331.669,-1.24571
13.3333,331.686,-1.24063
13.335,331.703,-1.23485
13.3367,331.72,-1.23111
13.3383,331.737,-1.2272
13.34,331.754,-1.22302
13.3417,331.772,-1.21961
13.3433,331.789,-1.21645
13.345,331.806,-1.21261
13.3467,331.823,-1.20965
13.3483,331.84,-1.20516
13.35,331.857,-1.20104
13.3517,331.874,-1.19628
13.3533,331.89,-1.19187
13.355,331.907,-1.18866
13.3567,331.924,-1.18518
13.3583,331.942,-1.18171
13.36,331.958,-1.17886
13.3617,331.975,-1.17658
13.3633,331.992,-1.17307
13.365,332.009,-1.16973
13.3667,332.026,-1.16598
13.3683,332.043,-1.16316
13.37,332.06,-1.15958
13.3717,332.077,-1.15717
13.3733,332.094,-1.1532
13.375,332.111,-1.14957
13.3767,332.128,-1.14612
13.3783,332.145,-1.14263
13.38,332.162,-1.14006
13.3817,332.178,-1.13846
13.3833,332.196,-1.13513
13.385,332.213,-1.1327
13.3867,332.23,-1.13037
13.3883,332.247,-1.12722
13.39,332.263,-1.12465
13.3917,332.28,-1.12106
13.3933,332.298,-1.11851
13.395,332.315,-1.11474
13.3967,332.331,-1.11162
13.3983,332.348,-1.10785
13.4,332.365,-1.10556
13.4017,332.382,-1.10195
13.4033,332.399,-1.09905
13.405,332.416,-1.09662
13.4067,332.433,-1.09427
13.4083,332.45,-1.09177
13.41,332.467,-1.09026
13.4117,332.483,-1.0885
13.4133,332.5,-1.08604
13.415,332.517,-1.08416
13.4167,332.534,-1.08255
13.4183,332.551,-1.08055
13.42,332.568,-1.07813
13.4217,332.584,-1.07732
13.4233,332.602,-1.07615
13.425,332.618,-1.07406
13.4267,332.635,-1.07309
13.4283,332.652,-1.07196
13.43,332.669,-1.07121
13.4317,332.686,-1.06997
13.4333,332.703,-1.06816
13.435,332.72,-1.06638
13.4367,332.737,-1.06465
13.4383,332.754,-1.06124
13.44,332.771,-1.05814
13.4417,332.787,-1.05563
13.4433,332.804,-1.05259
13.445,332.821,-1.0497
13.4467,332.838,-1.04867
13.4483,332.855,-1.04839
13.45,332.872,-1.04726
13.4517,332.888,-1.04686
13.4533,332.905,-1.04557
13.455,332.922,-1.04438
13.4567,332.939,-1.04407
13.4583,332.956,-1.0429
13.46,332.973,-1.04154
13.4617,332.989,-1.03969
13.4633,333.006,-1.03767
13.465,333.023,-1.03663
13.4667,333.04,-1.03614
13.4683,333.057,-1.03543
13.47,333.073,-1.03428
13.4717,333.09,-1.03299
13.4733,333.108,-1.03169
13.475,333.124,-1.03068
13.4767,333.141,-1.02932
13.4783,333.158,-1.0278
13.48,333.175,-1.02601
13.4817,333.192,-1.02422
13.4833,333.208,-1.02275
13.485,333.225,-1.02179
13.4867,333.242,-1.02097
13.4883,333.259,-1.02053
13.49,333.276,-1.02006
13.4917,333.293,-1.01966
13.4933,333.309,-1.01904
13.495,333.326,-1.01835
13.4967,333.342,-1.01741
13.4983,333.359,-1.01632
13.5,333.376,-1.01494
13.5017,333.393,-1.01366
13.5033,333.41,-1.0119
13.505,333.426,-1.00973
13.5067,333.443,-1.00773
13.5083,333.46,-1.00589
13.51,333.477,-1.00426
13.5117,333.494,-1.00339
13.5133,333.511,-1.00306
13.515,333.528,-1.00251
13.5167,333.544,-1.00193
13.5183,333.561,-1.00154
13.52,333.578,-1.00132
13.5217,333.595,-1.00095
13.5233,333.611,-1.00065
13.525,333.628,-1.00014
13.5267,333.645,-0.999503
13.5283,333.662,-0.998725
13.53,333.679,-0.997937
13.5317,333.695,-0.997155
13.5333,333.712,-0.996137
13.535,333.729,-0.995102
13.5367,333.746,-0.994384
13.5383,333.762,-0.993791
13.54,333.779,-0.99327
13.5417,333.796,-0.99281
13.5433,333.812,-0.992406
13.545,333.829,-0.992119
13.5467,333.846,-0.991795
13.5483,333.863,-0.991445
13.55,333.88,-0.991209
13.5517,333.896,-0.990901
13.5533,333.913,-0.990658
13.555,333.93,-0.990382
13.5567,333.946,-0.990094
13.5583,333.963,-0.989817
13.56,333.98,-0.989558
13.5617,333.996,-0.989347
13.5633,334.013,-0.988973
13.565,334.03,-0.988526
13.5667,334.046,-0.987925
13.5683,334.063,-0.987322
13.57,334.08,-0.986851
13.5717,334.097,-0.98651
13.5733,334.114,-0.986166
13.575,334.131,-0.985869
13.5767,334.147,-0.98563
13.5783,334.164,-0.985269
13.58,334.181,-0.984789
13.5817,334.197,-0.984131
13.5833,334.214,-0.983399
13.585,334.231,-0.9829
13.5867,334.247,-0.982364
13.5883,334.264,-0.981845
13.59,334.281,-0.981253
13.5917,334.297,-0.980846
13.5933,334.314,-0.980443
13.595,334.331,-0.980098
13.5967,334.347,-0.979793
13.5983,334.364,-0.979477
13.6,334.381,-0.979097
13.6017,334.398,-0.978738
13.6033,334.415,-0.978437
13.605,334.431,-0.978208
13.6067,334.448,-0.978068
13.6083,334.465,-0.977902
13.61,334.481,-0.977709
13.6117,334.498,-0.977579
13.6133,334.515,-0.977486
13.615,334.531,-0.977425
13.6167,334.548,-0.977286
13.6183,334.565,-0.977136
13.62,334.582,-0.976998
13.6217,334.598,-0.976894
13.6233,334.615,-0.976791
13.625,334.632,-0.976719
13.6267,334.648,-0.976591
13.6283,334.665,-0.976308
13.63,334.681,-0.976013
13.6317,334.698,-0.975782
13.6333,334.715,-0.975485
13.635,334.732,-0.974999
13.6367,334.748,-0.974404
13.6383,334.765,-0.973865
13.64,334.782,-0.973331
13.6417,334.799,-0.972971
13.6433,334.815,-0.972699
13.645,334.832,-0.972445
13.6467,334.849,-0.972192
13.6483,334.865,-0.972047
13.65,334.882,-0.971938
13.6517,334.899,-0.971821
13.6533,334.915,-0.97175
13.655,334.932,-0.97169
13.6567,334.949,-0.97162
13.6583,334.965,-0.97155
13.66,334.982,-0.971457
13.6617,334.999,-0.971358
13.6633,335.015,-0.971239
13.665,335.032,-0.97114
13.6667,335.048,-0.971038
13.6683,335.065,-0.970929
13.67,335.082,-0.970817
13.6717,335.098,-0.970718
13.6733,335.115,-0.970614
13.675,335.132,-0.970549
13.6767,335.148,-0.970482
13.6783,335.165,-0.970415
13.68,335.182,-0.970344
13.6817,335.199,-0.970279
13.6833,335.215,-0.970208
13.685,335.232,-0.970122
13.6867,335.248,-0.970009
13.6883,335.265,-0.969847
13.69,335.282,-0.969685
13.6917,335.298,-0.969441
13.6933,335.315,-0.969283
13.695,335.332,-0.969132
13.6967,335.349,-0.968971
13.6983,335.365,-0.968813
13.7,335.382,-0.968718
13.7017,335.399,-0.968634
13.7033,335.416,-0.968544
13.705,335.432,-0.968459
13.7067,335.449,-0.968374
13.7083,335.465,-0.968293
13.71,335.482,-0.968206
13.7117,335.499,-0.968129
13.7133,335.516,-0.967993
13.715,335.532,-0.967825
13.7167,335.549,-0.96775
13.7183,335.566,-0.96767
13.72,335.582,-0.967592
13.7217,335.599,-0.967513
13.7233,335.616,-0.967432
13.725,335.632,-0.967349
13.7267,335.649,-0.967271
13.7283,335.666,-0.967189
13.73,335.682,-0.967107
13.7317,335.699,-0.96702
13.7333,335.716,-0.966929
13.735,335.733,-0.966814
13.7367,335.749,-0.966679
13.7383,335.766,-0.966561
13.74,335.782,-0.966416
13.7417,335.799,-0.966316
13.7433,335.816,-0.966224
13.745,335.832,-0.966068
13.7467,335.849,-0.965997
13.7483,335.866,-0.965932
13.75,335.883,-0.965875
13.7517,335.899,-0.965809
13.7533,335.916,-0.965733
13.755,335.932,-0.965649
13.7567,335.949,-0.965557
13.7583,335.965,-0.965466
13.76,335.982,-0.965382
13.7617,335.999,-0.965294
13.7633,336.016,-0.965203
13.765,336.032,-0.965118
13.7667,336.049,-0.965043
13.7683,336.066,-0.964971
13.77,336.083,-0.964903
13.7717,336.099,-0.964827
13.7733,336.116,-0.964749
13.775,336.132,-0.96467
13.7767,336.149,-0.964597
13.7783,336.166,-0.964513
13.78,336.182,-0.964417
13.7817,336.199,-0.964317
13.7833,336.216,-0.964214
13.785,336.232,-0.964111
13.7867,336.249,-0.964007
13.7883,336.265,-0.96391
13.79,336.282,-0.963822
13.7917,336.299,-0.963739
13.7933,336.315,-0.963674
13.795,336.332,-0.96362
13.7967,336.348,-0.963575
13.7983,336.365,-0.963523
13.8,336.382,-0.963471
13.8017,336.399,-0.963416
13.8033,336.415,-0.963357
13.805,336.432,-0.963286
13.8067,336.448,-0.963217
13.8083,336.465,-0.963136
13.81,336.482,-0.963055
13.8117,336.499,-0.962974
13.8133,336.516,-0.962887
13.815,336.532,-0.962803
13.8167,336.549,-0.962714
13.8183,336.565,-0.962622
13.82,336.582,-0.962531
13.8217,336.598,-0.96245
13.8233,336.615,-0.96238
13.825,336.631,-0.962323
13.8267,336.648,-0.962274
13.8283,336.665,-0.962221
13.83,336.682,-0.962171
13.8317,336.698,-0.962116
13.8333,336.715,-0.962056
13.835,336.732,-0.961988
13.8367,336.748,-0.96191
13.8383,336.765,-0.961836
13.84,336.781,-0.96176
13.8417,336.798,-0.961679
13.8433,336.815,-0.961606
13.845,336.831,-0.961536
13.8467,336.848,-0.961468
13.8483,336.865,-0.961408
13.85,336.881,-0.961347
13.8517,336.898,-0.961292
13.8533,336.915,-0.961242
13.855,336.931,-0.961198
13.8567,336.948,-0.961162
13.8583,336.965,-0.961129
13.86,336.981,-0.961094
13.8617,336.998,-0.961055
13.8633,337.015,-0.961016
13.865,337.031,-0.960974
13.8667,337.048,-0.960922
13.8683,337.065,-0.960861
13.87,337.082,-0.960792
13.8717,337.098,-0.960716
13.8733,337.115,-0.960637
13.875,337.131,-0.960532
13.8767,337.148,-0.960388
13.8783,337.165,-0.960241
13.88,337.181,-0.960157
13.8817,337.198,-0.960082
13.8833,337.214,-0.960015
13.885,337.231,-0.959962
13.8867,337.247,-0.959921
13.8883,337.264,-0.95989
13.89,337.281,-0.959866
13.8917,337.298,-0.959849
13.8933,337.314,-0.959829
13.895,337.331,-0.959801
13.8967,337.348,-0.959758
13.8983,337.365,-0.959712
13.9,337.381,-0.959654
13.9017,337.398,-0.959587
13.9033,337.414,-0.959517
13.905,337.431,-0.959441
13.9067,337.448,-0.959377
13.9083,337.465,-0.959315
13.91,337.481,-0.959258
13.9117,337.498,-0.9592
13.9133,337.514,-0.95914
13.915,337.531,-0.959081
13.9167,337.548,-0.959038
13.9183,337.564,-0.958995
13.92,337.581,-0.958954
13.9217,337.598,-0.958914
13.9233,337.614,-0.958883
13.925,337.631,-0.958865
13.9267,337.648,-0.958845
13.9283,337.664,-0.958817
13.93,337.681,-0.958791
13.9317,337.697,-0.958751
13.9333,337.714,-0.958717
13.935,337.731,-0.958671
13.9367,337.747,-0.95862
13.9383,337.764,-0.958559
13.94,337.78,-0.958501
13.9417,337.797,-0.958453
13.9433,337.814,-0.958405
13.945,337.83,-0.95836
13.9467,337.847,-0.958315
13.9483,337.864,-0.958271
13.95,337.881,-0.958225
13.9517,337.897,-0.958186
13.9533,337.914,-0.958148
13.955,337.93,-0.958111
13.9567,337.947,-0.958081
13.9583,337.964,-0.958058
13.96,337.98,-0.958036
13.9617,337.997,-0.958021
13.9633,338.013,-0.957998
13.965,338.03,-0.957971
13.9667,338.047,-0.957941
13.9683,338.063,-0.95792
13.97,338.08,-0.957892
13.9717,338.097,-0.957856
13.9733,338.113,-0.957811
13.975,338.13,-0.957762
13.9767,338.147,-0.957713
13.9783,338.163,-0.957666
13.98,338.18,-0.957618
13.9817,338.197,-0.95757
13.9833,338.213,-0.95752
13.985,338.23,-0.957479
13.9867,338.246,-0.957439
13.9883,338.263,-0.957394
13.99,338.28,-0.957351
13.9917,338.297,-0.957311
13.9933,338.313,-0.957269
13.995,338.33,-0.957227
13.9967,338.347,-0.95719
13.9983,338.363,-0.957149
14,338.38,-0.957116
14.0017,338.397,-0.957078
14.0033,338.413,-0.95705
14.005,338.43,-0.95703
14.0067,338.447,-0.957015
14.0083,338.464,-0.956999
14.01,338.48,-0.956981
14.0117,338.497,-0.956975
14.0133,338.513,-0.956968
14.015,338.53,-0.95695
14.0167,338.546,-0.956925
14.0183,338.563,-0.956901
14.02,338.58,-0.956875
14.0217,338.596,-0.956842
14.0233,338.613,-0.95682
14.025,338.63,-0.956794
14.0267,338.646,-0.956774
14.0283,338.663,-0.956763
14.03,338.68,-0.956751
14.0317,338.696,-0.956744
14.0333,338.713,-0.956731
14.035,338.729,-0.95672
14.0367,338.746,-0.95671
14.0383,338.763,-0.956699
14.04,338.779,-0.956686
14.0417,338.796,-0.956671
14.0433,338.813,-0.956647
14.045,338.829,-0.956629
14.0467,338.846,-0.956617
14.0483,338.863,-0.956606
14.05,338.879,-0.956596
14.0517,338.896,-0.95658
14.0533,338.913,-0.956561
14.055,338.93,-0.95654
14.0567,338.946,-0.956512
14.0583,338.963,-0.956486
14.06,338.98,-0.956454
14.0617,338.996,-0.956428
14.0633,339.013,-0.956406
14.065,339.03,-0.956388
14.0667,339.046,-0.956368
14.0683,339.063,-0.956356
14.07,339.08,-0.956344
14.0717,339.096,-0.956317
14.0733,339.113,-0.956281
14.075,339.129,-0.956244
14.0767,339.146,-0.956209
14.0783,339.162,-0.956181
14.08,339.179,-0.956165
14.0817,339.196,-0.956156
14.0833,339.213,-0.956146
14.085,339.23,-0.956148
14.0867,339.246,-0.956159
14.0883,339.263,-0.956168
14.09,339.28,-0.956172
14.0917,339.296,-0.956173
14.0933,339.313,-0.956168
14.095,339.329,-0.956165
14.0967,339.346,-0.956164
14.0983,339.363,-0.956155
14.1,339.38,-0.956144
14.1017,339.396,-0.956137
14.1033,339.413,-0.956128
14.105,339.43,-0.956109
14.1067,339.446,-0.956085
14.1083,339.462,-0.956063
14.11,339.479,-0.956054
14.1117,339.495,-0.956038
14.1133,339.512,-0.956029
14.115,339.529,-0.956026
14.1167,339.546,-0.956023
14.1183,339.563,-0.956028
14.12,339.579,-0.956036
14.1217,339.596,-0.956052
14.1233,339.613,-0.956071
14.125,339.629,-0.956091
14.1267,339.645,-0.95611
14.1283,339.662,-0.956129
14.13,339.679,-0.956143
14.1317,339.695,-0.956146
14.1333,339.712,-0.956147
14.135,339.729,-0.95615
14.1367,339.746,-0.956149
14.1383,339.762,-0.95615
14.14,339.779,-0.956156
14.1417,339.796,-0.956162
14.1433,339.813,-0.956167
14.145,339.829,-0.956164
14.1467,339.846,-0.956164
14.1483,339.862,-0.95616
14.15,339.879,-0.956136
14.1517,339.895,-0.956117
14.1533,339.912,-0.956098
14.155,339.929,-0.956086
14.1567,339.945,-0.956067
14.1583,339.962,-0.956046
14.16,339.979,-0.956032
14.1617,339.995,-0.956021
14.1633,340.012,-0.956018
14.165,340.028,-0.956031
14.1667,340.045,-0.956048
14.1683,340.062,-0.956057
14.17,340.079,-0.956071
14.1717,340.095,-0.956084
14.1733,340.112,-0.956092
14.175,340.129,-0.956095
14.1767,340.146,-0.95609
14.1783,340.162,-0.95608
14.18,340.179,-0.956068
14.1817,340.195,-0.95606
14.1833,340.212,-0.956059
14.185,340.229,-0.956057
14.1867,340.245,-0.956068
14.1883,340.262,-0.95608
14.19,340.279,-0.956087
14.1917,340.295,-0.956098
14.1933,340.312,-0.956115
14.195,340.329,-0.956126
14.1967,340.345,-0.956136
14.1983,340.362,-0.956141
14.2,340.379,-0.956141
14.2017,340.395,-0.956128
14.2033,340.412,-0.956111
14.205,340.428,-0.9561
14.2067,340.445,-0.956081
14.2083,340.462,-0.95607
14.21,340.478,-0.956062
14.2117,340.494,-0.956057
14.2133,340.511,-0.956043
14.215,340.528,-0.956026
14.2167,340.545,-0.956005
14.2183,340.561,-0.955994
14.22,340.578,-0.955984
14.2217,340.595,-0.955975
14.2233,340.611,-0.955973
14.225,340.628,-0.955968
14.2267,340.645,-0.955975
14.2283,340.661,-0.955988
14.23,340.678,-0.956005
14.2317,340.694,-0.956021
14.2333,340.711,-0.956048
14.235,340.727,-0.956077
14.2367,340.744,-0.956125
14.2383,340.761,-0.956199
14.24,340.777,-0.956262
14.2417,340.794,-0.9563
14.2433,340.811,-0.956334
14.245,340.828,-0.956369
14.2467,340.845,-0.956391
14.2483,340.861,-0.9564
14.25,340.878,-0.956401
14.2517,340.894,-0.956406
14.2533,340.912,-0.956408
14.255,340.928,-0.956423
14.2567,340.945,-0.956449
14.2583,340.962,-0.956486
14.26,340.978,-0.956511
14.2617,340.995,-0.956529
14.2633,341.011,-0.956542
14.265,341.028,-0.956555
14.2667,341.045,-0.956558
14.2683,341.061,-0.956546
14.27,341.078,-0.956539
14.2717,341.094,-0.956532
14.2733,341.111,-0.956518
14.275,341.128,-0.956506
14.2767,341.144,-0.956505
14.2783,341.161,-0.956504
14.28,341.178,-0.956509
14.2817,341.194,-0.956526
14.2833,341.211,-0.956558
14.285,341.228,-0.956591
14.2867,341.244,-0.95662
14.2883,341.261,-0.956653
14.29,341.278,-0.956681
14.2917,341.295,-0.956697
14.2933,341.311,-0.956703
14.295,341.328,-0.956697
14.2967,341.345,-0.956694
14.2983,341.361,-0.956691
14.3,341.378,-0.9567
14.3017,341.394,-0.956707
14.3033,341.411,-0.956721
14.305,341.427,-0.95674
14.3067,341.444,-0.956775
14.3083,341.46,-0.956814
14.31,341.477,-0.956856
14.3117,341.494,-0.956895
14.3133,341.511,-0.956924
14.315,341.527,-0.956949
14.3167,341.544,-0.956967
14.3183,341.561,-0.956975
14.32,341.577,-0.956972
14.3217,341.594,-0.956963
14.3233,341.611,-0.956956
14.325,341.627,-0.956955
14.3267,341.644,-0.956961
14.3283,341.661,-0.956971
14.33,341.677,-0.956987
14.3317,341.694,-0.957015
14.3333,341.711,-0.957045
14.335,341.727,-0.95707
14.3367,341.744,-0.957095
14.3383,341.76,-0.957117
14.34,341.777,-0.957133
14.3417,341.794,-0.957148
14.3433,341.81,-0.957164
14.345,341.827,-0.957182
14.3467,341.844,-0.957188
14.3483,341.86,-0.95719
14.35,341.877,-0.957195
14.3517,341.893,-0.957208
14.3533,341.91,-0.957225
14.355,341.927,-0.957238
14.3567,341.944,-0.957242
14.3583,341.96,-0.95724
14.36,341.977,-0.957239
14.3617,341.994,-0.957255
14.3633,342.011,-0.957276
14.365,342.027,-0.957295
14.3667,342.044,-0.957311
14.3683,342.061,-0.957332
14.37,342.077,-0.957359
14.3717,342.094,-0.95738
14.3733,342.111,-0.957398
14.375,342.127,-0.957407
14.3767,342.144,-0.957409
14.3783,342.16,-0.957411
14.38,342.177,-0.957414
14.3817,342.194,-0.95742
14.3833,342.21,-0.957426
14.385,342.227,-0.95744
14.3867,342.243,-0.957472
14.3883,342.26,-0.957511
14.39,342.277,-0.957548
14.3917,342.293,-0.957591
14.3933,342.309,-0.957633
14.395,342.326,-0.957676
14.3967,342.343,-0.957706
14.3983,342.36,-0.957734
14.4,342.376,-0.957755
14.4017,342.393,-0.957783
14.4033,342.41,-0.957813
14.405,342.426,-0.957845
14.4067,342.443,-0.957878
14.4083,342.46,-0.95791
14.41,342.476,-0.957945
14.4117,342.493,-0.957982
14.4133,342.51,-0.958018
14.415,342.526,-0.958034
14.4167,342.543,-0.958057
14.4183,342.56,-0.958084
14.42,342.576,-0.958106
14.4217,342.593,-0.958125
14.4233,342.609,-0.958149
14.425,342.626,-0.958171
14.4267,342.643,-0.958191
14.4283,342.66,-0.958204
14.43,342.677,-0.958222
14.4317,342.693,-0.958238
14.4333,342.71,-0.95825
14.435,342.727,-0.958267
14.4367,342.743,-0.958291
14.4383,342.76,-0.958327
14.44,342.776,-0.958356
14.4417,342.793,-0.958383
14.4433,342.81,-0.958413
14.445,342.826,-0.95844
14.4467,342.843,-0.958472
14.4483,342.859,-0.958498
14.45,342.876,-0.958524
14.4517,342.893,-0.958544
14.4533,342.91,-0.958564
14.455,342.926,-0.958581
14.4567,342.943,-0.958607
14.4583,342.959,-0.958631
14.46,342.976,-0.958656
14.4617,342.993,-0.958678
14.4633,343.009,-0.958695
14.465,343.026,-0.958715
14.4667,343.042,-0.958731
14.4683,343.059,-0.958747
14.47,343.076,-0.958765
14.4717,343.092,-0.958783
14.4733,343.109,-0.958799
14.475,343.125,-0.958821
14.4767,343.142,-0.958849
14.4783,343.159,-0.958876
14.48,343.175,-0.958896
14.4817,343.193,-0.958925
14.4833,343.209,-0.958964
14.485,343.226,-0.959002
14.4867,343.242,-0.959034
14.4883,343.259,-0.959071
14.49,343.276,-0.959109
14.4917,343.292,-0.959141
14.4933,343.309,-0.959175
14.495,343.326,-0.959212
14.4967,343.342,-0.959253
14.4983,343.359,-0.959287
14.5,343.375,-0.959322
14.5017,343.392,-0.959354
14.5033,343.409,-0.959378
14.505,343.425,-0.959392
14.5067,343.442,-0.959405
14.5083,343.459,-0.959416
14.51,343.475,-0.959422
14.5117,343.492,-0.959429
14.5133,343.509,-0.959439
14.515,343.525,-0.959453
14.5167,343.542,-0.959469
14.5183,343.559,-0.959496
14.52,343.576,-0.959527
14.5217,343.592,-0.959553
14.5233,343.609,-0.959578
14.525,343.625,-0.959602
14.5267,343.642,-0.959615
14.5283,343.659,-0.959626
14.53,343.675,-0.959637
14.5317,343.692,-0.959652
14.5333,343.708,-0.959668
14.535,343.725,-0.959678
14.5367,343.742,-0.959696
14.5383,343.759,-0.959728
14.54,343.775,-0.959759
14.5417,343.792,-0.959791
14.5433,343.809,-0.959819
14.545,343.825,-0.959836
14.5467,343.842,-0.959855
14.5483,343.858,-0.959877
14.55,343.875,-0.959897
14.5517,343.892,-0.959919
14.5533,343.908,-0.959939
14.555,343.925,-0.959961
14.5567,343.942,-0.959995
14.5583,343.958,-0.960033
14.56,343.975,-0.960079
14.5617,343.991,-0.960129
14.5633,344.008,-0.960184
14.565,344.025,-0.960236
14.5667,344.041,-0.960291
14.5683,344.058,-0.960348
14.57,344.075,-0.960406
14.5717,344.091,-0.960449
14.5733,344.108,-0.960481
14.575,344.125,-0.960504
14.5767,344.142,-0.960519
14.5783,344.158,-0.960531
14.58,344.175,-0.960542
14.5817,344.192,-0.96055
14.5833,344.208,-0.960558
14.585,344.225,-0.960567
14.5867,344.241,-0.960574
14.5883,344.258,-0.960586
14.59,344.275,-0.960601
14.5917,344.291,-0.960623
14.5933,344.308,-0.960659
14.595,344.324,-0.960701
14.5967,344.341,-0.960748
14.5983,344.358,-0.960789
14.6,344.374,-0.96083
14.6017,344.391,-0.960878
14.6033,344.407,-0.960923
14.605,344.424,-0.960968
14.6067,344.441,-0.961018
14.6083,344.457,-0.961064
14.61,344.474,-0.961104
14.6117,344.491,-0.961148
14.6133,344.508,-0.96119
14.615,344.524,-0.961234
14.6167,344.541,-0.961269
14.6183,344.558,-0.961301
14.62,344.575,-0.961327
14.6217,344.591,-0.961338
14.6233,344.608,-0.96135
14.625,344.624,-0.961365
14.6267,344.641,-0.961372
14.6283,344.658,-0.961379
14.63,344.674,-0.961389
14.6317,344.691,-0.961405
14.6333,344.707,-0.961419
14.635,344.724,-0.961432
14.6367,344.741,-0.961438
14.6383,344.757,-0.961451
14.64,344.773,-0.961469
14.6417,344.79,-0.961499
14.6433,344.807,-0.961538
14.645,344.823,-0.961582
14.6467,344.84,-0.96163
14.6483,344.857,-0.961681
14.65,344.873,-0.961728
14.6517,344.89,-0.961776
14.6533,344.907,-0.961824
14.655,344.923,-0.961863
14.6567,344.94,-0.961904
14.6583,344.957,-0.961935
14.66,344.973,-0.961964
14.6617,344.99,-0.961995
14.6633,345.006,-0.962022
14.665,345.023,-0.962045
14.6667,345.04,-0.962071
14.6683,345.057,-0.962101
14.67,345.073,-0.962128
14.6717,345.09,-0.962157
14.6733,345.107,-0.962185
14.675,345.123,-0.96221
14.6767,345.14,-0.962236
14.6783,345.156,-0.962268
14.68,345.173,-0.962298
14.6817,345.189,-0.962328
14.6833,345.206,-0.962355
14.685,345.223,-0.962379
14.6867,345.239,-0.962407
14.6883,345.256,-0.962431
14.69,345.273,-0.962456
14.6917,345.29,-0.962473
14.6933,345.307,-0.962488
14.695,345.323,-0.962499
14.6967,345.34,-0.962514
14.6983,345.356,-0.962526
14.7,345.373,-0.962539
14.7017,345.39,-0.962557
14.7033,345.406,-0.962576
14.705,345.423,-0.962589
14.7067,345.44,-0.962596
14.7083,345.456,-0.962608
14.71,345.473,-0.962623
14.7117,345.49,-0.962638
14.7133,345.506,-0.962654
14.715,345.523,-0.962671
14.7167,345.539,-0.962692
14.7183,345.556,-0.962721
14.72,345.572,-0.962764
14.7217,345.589,-0.962808
14.7233,345.606,-0.962859
14.725,345.623,-0.962911
14.7267,345.639,-0.962961
14.7283,345.656,-0.963013
14.73,345.673,-0.963072
14.7317,345.689,-0.963137
14.7333,345.706,-0.963198
14.735,345.723,-0.963255
14.7367,345.74,-0.963301
14.7383,345.756,-0.963346
14.74,345.772,-0.963393
14.7417,345.789,-0.963436
14.7433,345.806,-0.963468
14.745,345.823,-0.963495
14.7467,345.84,-0.963518
14.7483,345.856,-0.963536
14.75,345.873,-0.963554
14.7517,345.89,-0.963577
14.7533,345.906,-0.963594
14.755,345.923,-0.963618
14.7567,345.94,-0.963645
14.7583,345.956,-0.963682
14.76,345.972,-0.963722
14.7617,345.989,-0.963756
14.7633,346.006,-0.963794
14.765,346.023,-0.963837
14.7667,346.039,-0.963877
14.7683,346.056,-0.96391
14.77,346.073,-0.963944
14.7717,346.089,-0.96399
14.7733,346.106,-0.964031
14.775,346.122,-0.964073
14.7767,346.139,-0.964114
14.7783,346.156,-0.964161
14.78,346.173,-0.964215
14.7817,346.189,-0.964271
14.7833,346.206,-0.96432
14.785,346.222,-0.964364
14.7867,346.239,-0.964407
14.7883,346.256,-0.964443
14.79,346.272,-0.964474
14.7917,346.289,-0.964509
14.7933,346.305,-0.964541
14.795,346.322,-0.964566
14.7967,346.339,-0.964591
14.7983,346.355,-0.964627
14.8,346.372,-0.964668
14.8017,346.388,-0.964698
14.8033,346.405,-0.96472
14.805,346.422,-0.96474
14.8067,346.439,-0.964771
14.8083,346.455,-0.964809
14.81,346.472,-0.964847
14.8117,346.489,-0.964884
14.8133,346.505,-0.964916
14.815,346.522,-0.96495
14.8167,346.538,-0.964982
14.8183,346.555,-0.965021
14.82,346.572,-0.965054
14.8217,346.589,-0.965088
14.8233,346.605,-0.965119
14.825,346.622,-0.965154
14.8267,346.638,-0.965188
14.8283,346.655,-0.965226
14.83,346.672,-0.96526
14.8317,346.688,-0.965296
14.8333,346.705,-0.965346
14.835,346.722,-0.965406
14.8367,346.738,-0.965466
14.8383,346.755,-0.965524
14.84,346.772,-0.965587
14.8417,346.788,-0.965642
14.8433,346.805,-0.965692
14.845,346.821,-0.965747
14.8467,346.838,-0.965791
14.8483,346.855,-0.965825
14.85,346.872,-0.965856
14.8517,346.889,-0.965889
14.8533,346.905,-0.965933
14.855,346.922,-0.965968
14.8567,346.938,-0.966004
14.8583,346.954,-0.966033
14.86,346.971,-0.966058
14.8617,346.988,-0.966083
14.8633,347.005,-0.966102
14.865,347.021,-0.96612
14.8667,347.038,-0.966135
14.8683,347.055,-0.966144
14.87,347.072,-0.966151
14.8717,347.088,-0.966164
14.8733,347.105,-0.966178
14.875,347.121,-0.966198
14.8767,347.138,-0.966223
14.8783,347.155,-0.966264
14.88,347.171,-0.966315
14.8817,347.188,-0.966359
14.8833,347.204,-0.966403
14.885,347.221,-0.96645
14.8867,347.238,-0.9665
14.8883,347.254,-0.966553
14.89,347.271,-0.966609
14.8917,347.288,-0.966672
14.8933,347.305,-0.966734
14.895,347.322,-0.966799
14.8967,347.338,-0.966883
14.8983,347.355,-0.967007
14.9,347.371,-0.96709
14.9017,347.388,-0.967146
14.9033,347.404,-0.967203
14.905,347.421,-0.967248
14.9067,347.438,-0.967288
14.9083,347.454,-0.967324
14.91,347.471,-0.96736
14.9117,347.488,-0.967387
14.9133,347.504,-0.967405
14.915,347.522,-0.967426
14.9167,347.538,-0.967443
14.9183,347.555,-0.967469
14.92,347.571,-0.967499
14.9217,347.588,-0.967527
14.9233,347.604,-0.967559
14.925,347.621,-0.967595
14.9267,347.637,-0.967635
14.9283,347.654,-0.967667
14.93,347.671,-0.967701
14.9317,347.687,-0.967733
14.9333,347.704,-0.96777
14.935,347.721,-0.967809
14.9367,347.737,-0.967849
14.9383,347.754,-0.967891
14.94,347.771,-0.967937
14.9417,347.788,-0.967993
14.9433,347.804,-0.968052
14.945,347.821,-0.968103
14.9467,347.837,-0.968148
14.9483,347.854,-0.968186
14.95,347.871,-0.968213
14.9517,347.887,-0.968236
14.9533,347.904,-0.96826
14.955,347.92,-0.968284
14.9567,347.937,-0.968312
14.9583,347.954,-0.968341
14.96,347.97,-0.968379
14.9617,347.987,-0.968425
14.9633,348.004,-0.968476
14.965,348.021,-0.96853
14.9667,348.037,-0.968591
14.9683,348.054,-0.96866
14.97,348.07,-0.968719
14.9717,348.087,-0.968771
14.9733,348.104,-0.96882
14.975,348.121,-0.96886
14.9767,348.137,-0.96889
14.9783,348.154,-0.968914
14.98,348.171,-0.968931
14.9817,348.187,-0.968947
14.9833,348.203,-0.968961
14.985,348.22,-0.96898
14.9867,348.237,-0.968999
14.9883,348.253,-0.969026
14.99,348.271,-0.969056
14.9917,348.287,-0.969091
14.9933,348.304,-0.969133
14.995,348.321,-0.969164
14.9967,348.337,-0.969201
14.9983,348.354,-0.969243
15,348.37,-0.969282
15.0017,348.387,-0.969324
15.0033,348.404,-0.969365
15.005,348.42,-0.969405
15.0067,348.437,-0.969439
15.0083,348.453,-0.969475
15.01,348.47,-0.969519
15.0117,348.486,-0.969559
15.0133,348.503,-0.969602
15.015,348.52,-0.969635
15.0167,348.536,-0.96967
15.0183,348.553,-0.969709
15.02,348.57,-0.969744
15.0217,348.586,-0.969782
15.0233,348.603,-0.969825
15.025,348.62,-0.96987
15.0267,348.637,-0.969907
15.0283,348.653,-0.969939
15.03,348.67,-0.96997
15.0317,348.687,-0.97
15.0333,348.703,-0.970024
15.035,348.72,-0.970048
15.0367,348.736,-0.970083
15.0383,348.753,-0.970114
15.04,348.77,-0.970154
15.0417,348.786,-0.970197
15.0433,348.803,-0.970247
15.045,348.82,-0.970301
15.0467,348.837,-0.970353
15.0483,348.853,-0.970407
15.05,348.869,-0.970467
15.0517,348.886,-0.970526
15.0533,348.903,-0.970582
15.055,348.92,-0.970636
15.0567,348.936,-0.970701
15.0583,348.953,-0.970761
15.06,348.969,-0.970813
15.0617,348.986,-0.970864
15.0633,349.003,-0.970905
15.065,349.02,-0.970946
15.0667,349.036,-0.970979
15.0683,349.053,-0.971014
15.07,349.07,-0.971039
15.0717,349.086,-0.971065
15.0733,349.103,-0.971097
15.075,349.12,-0.971136
15.0767,349.136,-0.971164
15.0783,349.153,-0.971188
15.08,349.169,-0.971222
15.0817,349.186,-0.97127
15.0833,349.203,-0.971311
15.085,349.22,-0.971355
15.0867,349.236,-0.9714
15.0883,349.253,-0.971447
15.09,349.27,-0.971479
15.0917,349.286,-0.971507
15.0933,349.303,-0.971537
15.095,349.319,-0.971568
15.0967,349.336,-0.971598
15.0983,349.353,-0.971621
15.1,349.369,-0.971652
15.1017,349.386,-0.97169
15.1033,349.403,-0.97173
15.105,349.419,-0.971774
15.1067,349.436,-0.971822
15.1083,349.452,-0.97186
15.11,349.469,-0.971896
15.1117,349.486,-0.971938
15.1133,349.502,-0.971979
15.115,349.519,-0.972022
15.1167,349.536,-0.972066
15.1183,349.552,-0.972107
15.12,349.569,-0.97215
15.1217,349.586,-0.972187
15.1233,349.603,-0.972231
15.125,349.619,-0.972273
15.1267,349.636,-0.972307
15.1283,349.653,-0.972339
15.13,349.669,-0.97237
15.1317,349.686,-0.972399
15.1333,349.703,-0.972427
15.135,349.719,-0.972451
15.1367,349.736,-0.972476
15.1383,349.752,-0.9725
15.14,349.769,-0.972522
15.1417,349.785,-0.97254
15.1433,349.802,-0.972575
15.145,349.819,-0.97261
15.1467,349.836,-0.972649
15.1483,349.852,-0.972692
15.15,349.869,-0.972738
15.1517,349.886,-0.972787
15.1533,349.902,-0.972837
15.155,349.919,-0.972882
15.1567,349.936,-0.972917
15.1583,349.953,-0.97295
15.16,349.969,-0.972982
15.1617,349.986,-0.973011
15.1633,350.002,-0.973032
15.165,350.019,-0.973057
15.1667,350.036,-0.973076
15.1683,350.052,-0.973096
15.17,350.069,-0.973116
15.1717,350.085,-0.97314
15.1733,350.102,-0.97318
15.175,350.119,-0.973232
15.1767,350.135,-0.973294
15.1783,350.152,-0.973357
15.18,350.169,-0.973495
15.1817,350.185,-0.973628
15.1833,350.203,-0.973752
15.185,350.219,-0.97385
15.1867,350.236,-0.97392
15.1883,350.252,-0.973973
15.19,350.269,-0.974014
15.1917,350.285,-0.974036
15.1933,350.302,-0.974047
15.195,350.319,-0.974042
15.1967,350.335,-0.97404
15.1983,350.352,-0.974043
15.2,350.368,-0.974046
15.2017,350.385,-0.974062
15.2033,350.402,-0.974089
15.205,350.418,-0.974126
15.2067,350.435,-0.974169
15.2083,350.451,-0.974216
15.21,350.468,-0.974264
15.2117,350.485,-0.974309
15.2133,350.501,-0.974358
15.215,350.518,-0.974405
15.2167,350.535,-0.974445
15.2183,350.552,-0.974479
15.22,350.568,-0.974522
15.2217,350.585,-0.974564
15.2233,350.602,-0.974601
15.225,350.618,-0.974638
15.2267,350.635,-0.974682
15.2283,350.652,-0.974724
15.23,350.668,-0.974766
15.2317,350.685,-0.974813
15.2333,350.701,-0.974856
15.235,350.718,-0.974897
15.2367,350.734,-0.97493
15.2383,350.751,-0.974968
15.24,350.768,-0.975008
15.2417,350.784,-0.975039
15.2433,350.801,-0.975068
15.245,350.818,-0.975085
15.2467,350.835,-0.975104
15.2483,350.851,-0.975132
15.25,350.868,-0.975162
15.2517,350.885,-0.975194
15.2533,350.901,-0.97522
15.255,350.918,-0.975251
15.2567,350.934,-0.97529
15.2583,350.951,-0.975339
15.26,350.967,-0.975384
15.2617,350.984,-0.975431
15.2633,351.001,-0.97548
15.265,351.017,-0.975523
15.2667,351.034,-0.975562
15.2683,351.05,-0.975607
15.27,351.067,-0.975655
15.2717,351.084,-0.9757
15.2733,351.101,-0.975745
15.275,351.117,-0.975794
15.2767,351.134,-0.975841
15.2783,351.151,-0.975892
15.28,351.167,-0.975941
15.2817,351.184,-0.975988
15.2833,351.2,-0.976036
15.285,351.217,-0.976086
15.2867,351.233,-0.976139
15.2883,351.25,-0.976173
15.29,351.267,-0.976199
15.2917,351.283,-0.976225
15.2933,351.3,-0.976248
15.295,351.317,-0.976266
15.2967,351.333,-0.976281
15.2983,351.35,-0.976295
15.3,351.367,-0.976308
15.3017,351.383,-0.976326
15.3033,351.4,-0.976351
15.305,351.416,-0.976373
15.3067,351.433,-0.976391
15.3083,351.45,-0.976413
15.31,351.466,-0.976437
15.3117,351.483,-0.976462
15.3133,351.5,-0.976485
15.315,351.516,-0.976498
15.3167,351.533,-0.976516
15.3183,351.55,-0.976542
15.32,351.567,-0.976576
15.3217,351.583,-0.976614
15.3233,351.6,-0.976651
15.325,351.617,-0.976696
15.3267,351.633,-0.976732
15.3283,351.65,-0.976768
15.33,351.666,-0.976806
15.3317,351.683,-0.976846
15.3333,351.699,-0.976888
15.335,351.717,-0.976918
15.3367,351.733,-0.976951
15.3383,351.75,-0.976991
15.34,351.766,-0.977029
15.3417,351.783,-0.977069
15.3433,351.8,-0.97711
15.345,351.817,-0.977146
15.3467,351.833,-0.977184
15.3483,351.85,-0.977217
15.35,351.867,-0.977255
15.3517,351.883,-0.977288
15.3533,351.9,-0.977309
15.355,351.917,-0.977334
15.3567,351.933,-0.977371
15.3583,351.95,-0.977409
15.36,351.966,-0.977454
15.3617,351.983,-0.977508
15.3633,351.999,-0.977562
15.365,352.016,-0.97762
15.3667,352.033,-0.977676
15.3683,352.05,-0.977733
15.37,352.066,-0.977792
15.3717,352.083,-0.977848
15.3733,352.1,-0.97789
15.375,352.117,-0.977929
15.3767,352.133,-0.977969
15.3783,352.149,-0.97801
15.38,352.166,-0.978051
15.3817,352.183,-0.97809
15.3833,352.199,-0.978135
15.385,352.216,-0.978178
15.3867,352.232,-0.978219
15.3883,352.249,-0.978259
15.39,352.266,-0.978307
15.3917,352.282,-0.978345
15.3933,352.299,-0.97838
15.395,352.316,-0.978413
15.3967,352.333,-0.978455
15.3983,352.349,-0.978498
15.4,352.366,-0.978538
15.4017,352.383,-0.978578
15.4033,352.399,-0.978622
15.405,352.416,-0.978666
15.4067,352.432,-0.978707
15.4083,352.449,-0.978757
15.41,352.466,-0.978811
15.4117,352.482,-0.97886
15.4133,352.499,-0.978897
15.415,352.515,-0.97893
15.4167,352.532,-0.978971
15.4183,352.549,-0.979003
15.42,352.565,-0.979031
15.4217,352.582,-0.979055
15.4233,352.598,-0.979073
15.425,352.616,-0.979086
15.4267,352.632,-0.979107
15.4283,352.649,-0.979137
15.43,352.666,-0.97917
15.4317,352.682,-0.979199
15.4333,352.699,-0.979227
15.435,352.716,-0.979269
15.4367,352.732,-0.979304
15.4383,352.749,-0.979338
15.44,352.765,-0.97937
15.4417,352.783,-0.979399
15.4433,352.798,-0.979428
15.445,352.815,-0.979463
15.4467,352.832,-0.979507
15.4483,352.848,-0.97954
15.45,352.865,-0.979574
15.4517,352.882,-0.979607
15.4533,352.898,-0.979648
15.455,352.915,-0.979689
15.4567,352.932,-0.979728
15.4583,352.948,-0.979774
15.46,352.965,-0.979815
15.4617,352.982,-0.979851
15.4633,352.999,-0.979896
15.465,353.015,-0.979951
15.4667,353.032,-0.980009
15.4683,353.049,-0.980071
15.47,353.065,-0.980132
15.4717,353.082,-0.980186
15.4733,353.098,-0.980241
15.475,353.115,-0.980295
15.4767,353.132,-0.980355
15.4783,353.148,-0.98041
15.48,353.165,-0.980457
15.4817,353.182,-0.980489
15.4833,353.198,-0.980514
15.485,353.215,-0.980543
15.4867,353.231,-0.980562
15.4883,353.248,-0.980576
15.49,353.265,-0.980583
15.4917,353.282,-0.980585
15.4933,353.298,-0.98059
15.495,353.315,-0.980603
15.4967,353.332,-0.980628
15.4983,353.348,-0.980656
15.5,353.365,-0.980685
15.5017,353.381,-0.980719
15.5033,353.398,-0.980755
15.505,353.414,-0.980796
15.5067,353.431,-0.980846
15.5083,353.448,-0.980891
15.51,353.464,-0.980935
15.5117,353.481,-0.980986
15.5133,353.497,-0.981036
15.515,353.514,-0.981082
15.5167,353.531,-0.981121
15.5183,353.548,-0.981156
15.52,353.564,-0.981191
15.5217,353.581,-0.981226
15.5233,353.597,-0.981264
15.525,353.614,-0.981301
15.5267,353.631,-0.981343
15.5283,353.648,-0.981388
15.53,353.664,-0.981436
15.5317,353.681,-0.98148
15.5333,353.698,-0.981516
15.535,353.714,-0.981545
15.5367,353.731,-0.981568
15.5383,353.748,-0.981599
15.54,353.764,-0.981634
15.5417,353.781,-0.981665
15.5433,353.798,-0.981692
15.545,353.814,-0.981724
15.5467,353.831,-0.981757
15.5483,353.848,-0.981794
15.55,353.864,-0.981825
15.5517,353.881,-0.981855
15.5533,353.898,-0.981882
15.555,353.914,-0.981897
15.5567,353.931,-0.981912
15.5583,353.947,-0.981941
15.56,353.964,-0.981967
15.5617,353.981,-0.981989
15.5633,353.997,-0.982012
15.565,354.014,-0.982037
15.5667,354.03,-0.982065
15.5683,354.047,-0.982086
15.57,354.063,-0.982117
15.5717,354.08,-0.982149
15.5733,354.097,-0.982176
15.575,354.114,-0.982211
15.5767,354.13,-0.982255
15.5783,354.147,-0.982303
15.58,354.164,-0.982348
15.5817,354.181,-0.982397
15.5833,354.197,-0.982436
15.585,354.214,-0.982478
15.5867,354.231,-0.982521
15.5883,354.247,-0.982568
15.59,354.264,-0.982615
15.5917,354.28,-0.982655
15.5933,354.297,-0.982693
15.595,354.313,-0.982727
15.5967,354.33,-0.982753
15.5983,354.347,-0.982781
15.6,354.364,-0.982802
15.6017,354.38,-0.982823
15.6033,354.397,-0.982855
15.605,354.414,-0.982889
15.6067,354.43,-0.982929
15.6083,354.447,-0.98297
15.61,354.464,-0.983017
15.6117,354.48,-0.983065
15.6133,354.497,-0.983118
15.615,354.513,-0.983164
15.6167,354.53,-0.983211
15.6183,354.547,-0.983252
15.62,354.563,-0.983286
15.6217,354.58,-0.983311
15.6233,354.597,-0.983337
15.625,354.613,-0.983359
15.6267,354.63,-0.983371
15.6283,354.647,-0.983382
15.63,354.663,-0.983398
15.6317,354.68,-0.983417
15.6333,354.696,-0.983442
15.635,354.713,-0.98347
15.6367,354.73,-0.98351
15.6383,354.747,-0.983556
15.64,354.763,-0.983606
15.6417,354.78,-0.983656
15.6433,354.797,-0.983694
15.645,354.813,-0.98372
15.6467,354.83,-0.98374
15.6483,354.847,-0.983764
15.65,354.863,-0.983793
15.6517,354.88,-0.98382
15.6533,354.896,-0.983844
15.655,354.913,-0.983875
15.6567,354.929,-0.983904
15.6583,354.946,-0.983947
15.66,354.963,-0.983996
15.6617,354.979,-0.984041
15.6633,354.996,-0.984093
15.665,355.013,-0.984131
15.6667,355.03,-0.984178
15.6683,355.046,-0.984233
15.67,355.063,-0.984279
15.6717,355.08,-0.984317
15.6733,355.096,-0.984344
15.675,355.113,-0.984366
15.6767,355.129,-0.98439
15.6783,355.146,-0.984412
15.68,355.162,-0.984426
15.6817,355.179,-0.984439
15.6833,355.196,-0.984456
15.685,355.213,-0.984483
15.6867,355.229,-0.984513
15.6883,355.246,-0.984549
15.69,355.262,-0.984591
15.6917,355.279,-0.98464
15.6933,355.296,-0.984699
15.695,355.313,-0.984762
15.6967,355.329,-0.984826
15.6983,355.346,-0.984884
15.7,355.362,-0.98494
15.7017,355.379,-0.984994
15.7033,355.396,-0.985048
15.705,355.412,-0.985104
15.7067,355.429,-0.985152
15.7083,355.446,-0.985198
15.71,355.462,-0.985239
15.7117,355.479,-0.985271
15.7133,355.496,-0.985289
15.715,355.512,-0.985299
15.7167,355.529,-0.985316
15.7183,355.546,-0.985338
15.72,355.562,-0.98536
15.7217,355.578,-0.985378
15.7233,355.595,-0.985406
15.725,355.612,-0.985436
15.7267,355.629,-0.985476
15.7283,355.645,-0.985514
15.73,355.662,-0.985538
15.7317,355.679,-0.985554
15.7333,355.695,-0.985574
15.735,355.712,-0.985597
15.7367,355.729,-0.985617
15.7383,355.746,-0.985641
15.74,355.762,-0.985663
15.7417,355.779,-0.985684
15.7433,355.795,-0.985719
15.745,355.812,-0.985757
15.7467,355.828,-0.985802
15.7483,355.845,-0.985859
15.75,355.861,-0.985913
15.7517,355.878,-0.985959
15.7533,355.895,-0.986009
15.755,355.912,-0.98606
15.7567,355.929,-0.9861
15.7583,355.945,-0.986138
15.76,355.962,-0.986176
15.7617,355.979,-0.986217
15.7633,355.995,-0.986253
15.765,356.012,-0.986296
15.7667,356.029,-0.986337
15.7683,356.046,-0.986382
15.77,356.063,-0.986421
15.7717,356.079,-0.98646
15.7733,356.096,-0.986497
15.775,356.112,-0.986537
15.7767,356.129,-0.986571
15.7783,356.145,-0.986589
15.78,356.162,-0.986608
15.7817,356.179,-0.986624
15.7833,356.195,-0.986639
15.785,356.212,-0.986645
15.7867,356.228,-0.986662
15.7883,356.245,-0.98669
15.79,356.262,-0.986724
15.7917,356.279,-0.986762
15.7933,356.296,-0.986799
15.795,356.312,-0.986846
15.7967,356.329,-0.986902
15.7983,356.345,-0.986961
15.8,356.362,-0.98702
15.8017,356.379,-0.987075
15.8033,356.395,-0.987124
15.805,356.412,-0.987157
15.8067,356.428,-0.987187
15.8083,356.445,-0.98721
15.81,356.461,-0.987225
15.8117,356.478,-0.987237
15.8133,356.495,-0.987254
15.815,356.511,-0.987288
15.8167,356.528,-0.987319
15.8183,356.545,-0.987349
15.82,356.561,-0.987376
15.8217,356.578,-0.987409
15.8233,356.595,-0.98744
15.825,356.612,-0.987469
15.8267,356.629,-0.9875
15.8283,356.645,-0.98753
15.83,356.662,-0.987559
15.8317,356.678,-0.987593
15.8333,356.695,-0.987626
15.835,356.712,-0.987657
15.8367,356.728,-0.987691
15.8383,356.745,-0.987728
15.84,356.761,-0.987775
15.8417,356.778,-0.987822
15.8433,356.794,-0.987877
15.845,356.811,-0.987938
15.8467,356.827,-0.987995
15.8483,356.845,-0.988052
15.85,356.861,-0.988102
15.8517,356.878,-0.988143
15.8533,356.894,-0.98818
15.855,356.911,-0.988206
15.8567,356.928,-0.988228
15.8583,356.944,-0.988253
15.86,356.961,-0.988281
15.8617,356.977,-0.988318
15.8633,356.994,-0.988351
15.865,357.011,-0.988388
15.8667,357.028,-0.988432
15.8683,357.044,-0.988481
15.87,357.061,-0.988536
15.8717,357.077,-0.98858
15.8733,357.094,-0.988614
15.875,357.111,-0.988626
15.8767,357.127,-0.988634
15.8783,357.144,-0.988648
15.88,357.161,-0.988668
15.8817,357.177,-0.988687
15.8833,357.194,-0.988703
15.885,357.211,-0.988723
15.8867,357.227,-0.988752
15.8883,357.244,-0.988787
15.89,357.26,-0.988818
15.8917,357.277,-0.988854
15.8933,357.294,-0.988878
15.895,357.31,-0.988894
15.8967,357.327,-0.9889
15.8983,357.344,-0.988907
15.9,357.361,-0.988928
15.9017,357.377,-0.988948
15.9033,357.394,-0.988973
15.905,357.41,-0.989003
15.9067,357.427,-0.989033
15.9083,357.444,-0.989063
15.91,357.46,-0.989093
15.9117,357.477,-0.989122
15.9133,357.494,-0.989155
15.915,357.51,-0.989193
15.9167,357.527,-0.989237
15.9183,357.543,-0.98928
15.92,357.56,-0.989326
15.9217,357.577,-0.989377
15.9233,357.594,-0.989432
15.925,357.61,-0.98949
15.9267,357.627,-0.989537
15.9283,357.644,-0.989577
15.93,357.66,-0.989611
15.9317,357.677,-0.989632
15.9333,357.694,-0.989643
15.935,357.71,-0.989651
15.9367,357.727,-0.989659
15.9383,357.743,-0.989664
15.94,357.76,-0.989674
15.9417,357.777,-0.98968
15.9433,357.793,-0.989692
15.945,357.81,-0.989706
15.9467,357.827,-0.989722
15.9483,357.843,-0.989739
15.95,357.86,-0.989759
15.9517,357.877,-0.989782
15.9533,357.893,-0.98981
15.955,357.91,-0.989851
15.9567,357.927,-0.989893
15.9583,357.943,-0.989931
15.96,357.96,-0.989969
15.9617,357.977,-0.990014
15.9633,357.993,-0.990063
15.965,358.01,-0.990111
15.9667,358.026,-0.990164
15.9683,358.043,-0.990211
15.97,358.06,-0.990259
15.9717,358.077,-0.990301
15.9733,358.093,-0.990334
15.975,358.11,-0.990358
15.9767,358.126,-0.990372
15.9783,358.143,-0.990378
15.98,358.159,-0.990383
15.9817,358.176,-0.990386
15.9833,358.193,-0.990389
15.985,358.209,-0.990408
15.9867,358.226,-0.990442
15.9883,358.243,-0.99049
15.99,358.26,-0.990539
15.9917,358.276,-0.990591
15.9933,358.293,-0.99064
15.995,358.31,-0.99069
15.9967,358.326,-0.990742
15.9983,358.343,-0.99078
16,358.36,-0.990805
16.0017,358.376,-0.990815
16.0033,358.393,-0.990816
16.005,358.409,-0.990823
16.0067,358.426,-0.990839
16.0083,358.443,-0.990856
16.01,358.459,-0.990876
16.0117,358.476,-0.990907
16.0133,358.492,-0.99095
16.015,358.509,-0.991005
16.0167,358.526,-0.991058
16.0183,358.543,-0.99111
16.02,358.559,-0.991156
16.0217,358.576,-0.991198
16.0233,358.593,-0.991237
16.025,358.609,-0.991277
16.0267,358.625,-0.991305
16.0283,358.643,-0.991336
16.03,358.659,-0.991369
16.0317,358.676,-0.9914
16.0333,358.692,-0.991428
16.035,358.708,-0.991454
16.0367,358.725,-0.991473
16.0383,358.742,-0.991488
16.04,358.759,-0.991505
16.0417,358.776,-0.991515
16.0433,358.792,-0.991516
16.045,358.809,-0.991518
16.0467,358.825,-0.991523
16.0483,358.842,-0.991538
16.05,358.859,-0.991555
16.0517,358.875,-0.991577
16.0533,358.892,-0.99161
16.055,358.909,-0.991646
16.0567,358.925,-0.991688
16.0583,358.942,-0.991734
16.06,358.959,-0.991785
16.0617,358.975,-0.991827
16.0633,358.992,-0.99187
16.065,359.009,-0.991913
16.0667,359.025,-0.991944
16.0683,359.042,-0.991974
16.07,359.059,-0.992006
16.0717,359.075,-0.992044
16.0733,359.092,-0.992086
16.075,359.109,-0.992125
16.0767,359.126,-0.992163
16.0783,359.142,-0.992204
16.08,359.159,-0.992237
16.0817,359.175,-0.992267
16.0833,359.192,-0.992302
16.085,359.208,-0.992331
16.0867,359.225,-0.992366
16.0883,359.242,-0.992406
16.09,359.259,-0.992451
16.0917,359.275,-0.992504
16.0933,359.292,-0.992552
16.095,359.308,-0.992596
16.0967,359.325,-0.992631
16.0983,359.342,-0.992659
16.1,359.359,-0.992693
16.1017,359.375,-0.992728
16.1033,359.392,-0.992754
16.105,359.408,-0.992776
16.1067,359.425,-0.992801
16.1083,359.442,-0.992824
16.11,359.458,-0.992848
16.1117,359.475,-0.992868
16.1133,359.491,-0.992886
16.115,359.508,-0.9929
16.1167,359.525,-0.992923
16.1183,359.541,-0.992957
16.12,359.558,-0.99301
16.1217,359.575,-0.993057
16.1233,359.591,-0.993109
16.125,359.608,-0.993163
16.1267,359.625,-0.993207
16.1283,359.642,-0.993243
16.13,359.659,-0.993274
16.1317,359.675,-0.993304
16.1333,359.692,-0.993325
16.135,359.708,-0.993344
16.1367,359.725,-0.993362
16.1383,359.742,-0.993379
16.14,359.758,-0.993401
16.1417,359.775,-0.99343
16.1433,359.791,-0.993462
16.145,359.808,-0.993495
16.1467,359.825,-0.993538
16.1483,359.841,-0.993581
16.15,359.858,-0.993618
16.1517,359.875,-0.993661
16.1533,359.892,-0.993707
16.155,359.909,-0.993745
16.1567,359.925,-0.993776
16.1583,359.942,-0.993806
16.16,359.959,-0.993833
16.1617,359.975,-0.993861
16.1633,359.992,-0.993891
16.165,360.009,-0.99392
16.1667,360.025,-0.99395
16.1683,360.042,-0.993973
16.17,360.058,-0.99399
16.1717,360.075,-0.994008
16.1733,360.092,-0.994037
16.175,360.109,-0.994066
16.1767,360.125,-0.994094
16.1783,360.142,-0.994128
16.18,360.158,-0.994166
16.1817,360.175,-0.994207
16.1833,360.191,-0.994245
16.185,360.208,-0.994281
16.1867,360.225,-0.994304
16.1883,360.241,-0.994319
16.19,360.258,-0.994338
16.1917,360.275,-0.994359
16.1933,360.291,-0.994375
16.195,360.308,-0.994387
16.1967,360.325,-0.9944
16.1983,360.341,-0.994418
16.2,360.358,-0.994439
16.2017,360.375,-0.994467
16.2033,360.391,-0.994505
16.205,360.408,-0.99455
16.2067,360.424,-0.994601
16.2083,360.441,-0.994665
16.21,360.458,-0.994731
16.2117,360.474,-0.994781
16.2133,360.491,-0.994822
16.215,360.507,-0.99486
16.2167,360.525,-0.994897
16.2183,360.541,-0.994928
16.22,360.558,-0.994945
16.2217,360.575,-0.994962
16.2233,360.591,-0.994982
16.225,360.608,-0.995005
16.2267,360.625,-0.995031
16.2283,360.641,-0.995066
16.23,360.658,-0.995089
16.2317,360.675,-0.995117
16.2333,360.691,-0.995144
16.235,360.708,-0.995171
16.2367,360.724,-0.995198
16.2383,360.741,-0.99522
16.24,360.757,-0.995242
16.2417,360.774,-0.995272
16.2433,360.791,-0.995306
16.245,360.807,-0.995338
16.2467,360.824,-0.995367
16.2483,360.841,-0.995396
16.25,360.857,-0.995426
16.2517,360.874,-0.995452
16.2533,360.891,-0.995471
16.255,360.907,-0.99549
16.2567,360.924,-0.995516
16.2583,360.941,-0.995532
16.26,360.957,-0.995549
16.2617,360.974,-0.995568
16.2633,360.991,-0.995585
16.265,361.008,-0.995611
16.2667,361.024,-0.995643
16.2683,361.041,-0.995683
16.27,361.057,-0.995721
16.2717,361.074,-0.995756
16.2733,361.091,-0.9958
16.275,361.107,-0.995841
16.2767,361.124,-0.995879
16.2783,361.141,-0.995913
16.28,361.157,-0.995955
16.2817,361.174,-0.995992
16.2833,361.191,-0.996042
16.285,361.207,-0.996096
16.2867,361.223,-0.996148
16.2883,361.24,-0.996201
16.29,361.257,-0.996251
16.2917,361.273,-0.99629
16.2933,361.29,-0.996327
16.295,361.307,-0.996357
16.2967,361.324,-0.996382
16.2983,361.34,-0.996405
16.3,361.357,-0.996425
16.3017,361.374,-0.996446
16.3033,361.39,-0.996466
16.305,361.407,-0.996487
16.3067,361.423,-0.996511
16.3083,361.44,-0.996542
16.31,361.457,-0.996565
16.3117,361.473,-0.996589
16.3133,361.49,-0.996612
16.315,361.506,-0.996639
16.3167,361.523,-0.996663
16.3183,361.54,-0.996688
16.32,361.557,-0.996709
16.3217,361.574,-0.996729
16.3233,361.59,-0.996754
16.325,361.606,-0.996784
16.3267,361.623,-0.996817
16.3283,361.64,-0.996838
16.33,361.657,-0.996858
16.3317,361.673,-0.996872
16.3333,361.689,-0.996883
16.335,361.706,-0.996887
16.3367,361.723,-0.996892
16.3383,361.74,-0.996892
16.34,361.756,-0.9969
16.3417,361.773,-0.996912
16.3433,361.79,-0.996927
16.345,361.806,-0.99695
16.3467,361.823,-0.996974
16.3483,361.84,-0.997006
16.35,361.857,-0.997044
16.3517,361.873,-0.997082
16.3533,361.89,-0.99712
16.355,361.906,-0.997163
16.3567,361.923,-0.997204
16.3583,361.94,-0.997241
16.36,361.957,-0.997281
16.3617,361.973,-0.997314
16.3633,361.99,-0.997338
16.365,362.006,-0.997359
16.3667,362.023,-0.997376
16.3683,362.039,-0.99739
16.37,362.056,-0.997409
16.3717,362.072,-0.997429
16.3733,362.089,-0.997455
16.375,362.106,-0.997485
16.3767,362.123,-0.997514
16.3783,362.14,-0.997545
16.38,362.156,-0.997572
16.3817,362.173,-0.997602
16.3833,362.19,-0.997629
16.385,362.206,-0.997653
16.3867,362.223,-0.997676
16.3883,362.239,-0.997698
16.39,362.256,-0.997728
16.3917,362.273,-0.997753
16.3933,362.289,-0.997775
16.395,362.306,-0.997796
16.3967,362.323,-0.997816
16.3983,362.339,-0.997827
16.4,362.356,-0.997844
16.4017,362.373,-0.997867
16.4033,362.389,-0.997882
16.405,362.406,-0.997894
16.4067,362.422,-0.997913
16.4083,362.439,-0.997943
16.41,362.456,-0.997974
16.4117,362.472,-0.998007
16.4133,362.489,-0.998047
16.415,362.505,-0.998102
16.4167,362.522,-0.998153
16.4183,362.538,-0.998196
16.42,362.555,-0.998231
16.4217,362.572,-0.998265
16.4233,362.588,-0.998298
16.425,362.605,-0.998328
16.4267,362.622,-0.998353
16.4283,362.639,-0.998381
16.43,362.656,-0.998407
16.4317,362.673,-0.998433
16.4333,362.689,-0.99846
16.435,362.706,-0.998483
16.4367,362.722,-0.998503
16.4383,362.739,-0.998523
16.44,362.755,-0.998539
16.4417,362.772,-0.998553
16.4433,362.789,-0.998568
16.445,362.805,-0.998588
16.4467,362.822,-0.998608
16.4483,362.839,-0.998622
16.45,362.855,-0.998631
16.4517,362.872,-0.998642
16.4533,362.888,-0.998652
16.455,362.905,-0.998667
16.4567,362.921,-0.998688
16.4583,362.938,-0.99871
16.46,362.955,-0.99874
16.4617,362.971,-0.998774
16.4633,362.988,-0.998814
16.465,363.005,-0.998853
16.4667,363.021,-0.998899
16.4683,363.038,-0.998939
16.47,363.055,-0.99898
16.4717,363.071,-0.99901
16.4733,363.088,-0.999036
16.475,363.105,-0.999052
16.4767,363.121,-0.999059
16.4783,363.138,-0.999055
16.48,363.155,-0.999051
16.4817,363.171,-0.999049
16.4833,363.188,-0.999042
16.485,363.205,-0.999042
16.4867,363.221,-0.99905
16.4883,363.238,-0.999058
16.49,363.255,-0.999072
16.4917,363.271,-0.999092
16.4933,363.288,-0.999122
16.495,363.304,-0.999158
16.4967,363.321,-0.999196
16.4983,363.338,-0.999233
16.5,363.355,-0.999271
16.5017,363.371,-0.999305
16.5033,363.388,-0.999342
16.505,363.404,-0.99938
16.5067,363.421,-0.999422
16.5083,363.438,-0.999459
16.51,363.454,-0.999491
16.5117,363.471,-0.999524
16.5133,363.488,-0.999554
16.515,363.505,-0.999581
16.5167,363.521,-0.99961
16.5183,363.538,-0.999635
16.52,363.555,-0.999647
16.5217,363.571,-0.999656
16.5233,363.588,-0.999657
16.525,363.604,-0.999655
16.5267,363.621,-0.999657
16.5283,363.638,-0.999661
16.53,363.654,-0.999673
16.5317,363.671,-0.999691
16.5333,363.688,-0.999703
16.535,363.704,-0.99972
16.5367,363.721,-0.99975
16.5383,363.737,-0.999788
16.54,363.754,-0.99983
16.5417,363.771,-0.999869
16.5433,363.788,-0.999909
16.545,363.804,-0.999958
16.5467,363.821,-1.00001
16.5483,363.837,-1.00007
16.55,363.854,-1.00012
16.5517,363.87,-1.00016
16.5533,363.887,-1.00021
16.555,363.904,-1.00026
16.5567,363.92,-1.0003
16.5583,363.937,-1.00035
16.56,363.953,-1.00037
16.5617,363.97,-1.0004
16.5633,363.987,-1.00043
16.565,364.004,-1.00046
16.5667,364.02,-1.00049
16.5683,364.037,-1.00052
16.57,364.054,-1.00055
16.5717,364.07,-1.00058
16.5733,364.087,-1.0006
16.575,364.104,-1.00062
16.5767,364.12,-1.00064
16.5783,364.137,-1.00065
16.58,364.154,-1.00065
16.5817,364.17,-1.00065
16.5833,364.187,-1.00064
16.585,364.203,-1.00065
16.5867,364.22,-1.00065
16.5883,364.236,-1.00065
16.59,364.253,-1.00065
16.5917,364.27,-1.00066
16.5933,364.287,-1.00066
16.595,364.303,-1.00067
16.5967,364.319,-1.00068
16.5983,364.336,-1.00069
16.6,364.353,-1.00071
16.6017,364.37,-1.00074
16.6033,364.386,-1.00077
16.605,364.403,-1.00081
16.6067,364.419,-1.00084
16.6083,364.436,-1.00088
16.61,364.453,-1.00092
16.6117,364.47,-1.00096
16.6133,364.486,-1.00099
16.615,364.503,-1.00101
16.6167,364.52,-1.00102
16.6183,364.536,-1.00103
16.62,364.553,-1.00104
16.6217,364.569,-1.00103
16.6233,364.586,-1.00104
16.625,364.603,-1.00104
16.6267,364.62,-1.00105
16.6283,364.636,-1.00106
16.63,364.653,-1.00108
16.6317,364.669,-1.00111
16.6333,364.686,-1.00115
16.635,364.703,-1.00121
16.6367,364.719,-1.00126
16.6383,364.736,-1.00133
16.64,364.753,-1.00139
16.6417,364.77,-1.00143
16.6433,364.786,-1.00148
16.645,364.802,-1.00152
16.6467,364.819,-1.00156
16.6483,364.836,-1.00159
16.65,364.852,-1.00161
16.6517,364.869,-1.00162
16.6533,364.886,-1.00164
16.655,364.903,-1.00165
16.6567,364.919,-1.00167
16.6583,364.936,-1.00168
16.66,364.953,-1.0017
16.6617,364.969,-1.00172
16.6633,364.986,-1.00174
16.665,365.003,-1.00177
16.6667,365.019,-1.0018
16.6683,365.036,-1.00183
16.67,365.053,-1.00186
16.6717,365.069,-1.0019
16.6733,365.086,-1.00193
16.675,365.103,-1.00196
16.6767,365.119,-1.002
16.6783,365.136,-1.00202
16.68,365.153,-1.00205
16.6817,365.169,-1.00208
16.6833,365.186,-1.0021
16.685,365.202,-1.00212
16.6867,365.219,-1.00214
16.6883,365.235,-1.00217
16.69,365.252,-1.00219
16.6917,365.269,-1.00221
16.6933,365.286,-1.00223
16.695,365.302,-1.00225
16.6967,365.319,-1.00227
16.6983,365.336,-1.00229
16.7,365.352,-1.00231
16.7017,365.369,-1.00233
16.7033,365.385,-1.00236
16.705,365.402,-1.0024
16.7067,365.419,-1.00244
16.7083,365.435,-1.00249
16.71,365.452,-1.00254
16.7117,365.468,-1.00258
16.7133,365.485,-1.00263
16.715,365.502,-1.00266
16.7167,365.518,-1.0027
16.7183,365.535,-1.00273
16.72,365.552,-1.00277
16.7217,365.569,-1.00281
16.7233,365.585,-1.00284
16.725,365.602,-1.00286
16.7267,365.619,-1.00288
16.7283,365.635,-1.00289
16.73,365.652,-1.00289
16.7317,365.669,-1.00289
16.7333,365.686,-1.0029
16.735,365.702,-1.00291
16.7367,365.718,-1.00291
16.7383,365.735,-1.00291
16.74,365.752,-1.00291
16.7417,365.768,-1.00292
16.7433,365.785,-1.00293
16.745,365.801,-1.00295
16.7467,365.818,-1.00298
16.7483,365.834,-1.00301
16.75,365.851,-1.00305
16.7517,365.868,-1.0031
16.7533,365.884,-1.00315
16.755,365.901,-1.0032
16.7567,365.917,-1.00326
16.7583,365.934,-1.00331
16.76,365.951,-1.00335
16.7617,365.968,-1.00339
16.7633,365.985,-1.00344
16.765,366.002,-1.00347
16.7667,366.018,-1.00349
16.7683,366.034,-1.00351
16.77,366.051,-1.00353
16.7717,366.067,-1.00355
16.7733,366.084,-1.00358
16.775,366.1,-1.00359
16.7767,366.117,-1.00361
16.7783,366.133,-1.00364
16.78,366.15,-1.00367
16.7817,366.167,-1.0037
16.7833,366.184,-1.00372
16.785,366.201,-1.00375
16.7867,366.217,-1.00378
16.7883,366.234,-1.00381
16.79,366.251,-1.00385
16.7917,366.267,-1.00389
16.7933,366.284,-1.00393
16.795,366.3,-1.00396
16.7967,366.317,-1.004
16.7983,366.334,-1.00402
16.8,366.35,-1.00405
16.8017,366.367,-1.00407
16.8033,366.384,-1.00408
16.805,366.4,-1.0041
16.8067,366.417,-1.00412
16.8083,366.434,-1.00413
16.81,366.451,-1.00415
16.8117,366.467,-1.00416
16.8133,366.484,-1.00417
16.815,366.5,-1.00418
16.8167,366.517,-1.0042
16.8183,366.534,-1.00421
16.82,366.55,-1.00422
16.8217,366.567,-1.00423
16.8233,366.583,-1.00425
16.825,366.6,-1.00426
16.8267,366.617,-1.00428
16.8283,366.634,-1.0043
16.83,366.65,-1.00431
16.8317,366.667,-1.00433
16.8333,366.684,-1.00435
16.835,366.701,-1.00438
16.8367,366.717,-1.00441
16.8383,366.734,-1.00444
16.84,366.75,-1.00447
16.8417,366.767,-1.0045
16.8433,366.784,-1.00454
16.845,366.8,-1.00458
16.8467,366.817,-1.00462
16.8483,366.834,-1.00465
16.85,366.851,-1.00469
16.8517,366.867,-1.00474
16.8533,366.884,-1.00477
16.855,366.901,-1.00481
16.8567,366.917,-1.00485
16.8583,366.934,-1.00489
16.86,366.95,-1.00493
16.8617,366.967,-1.00498
16.8633,366.983,-1.00503
16.865,367,-1.00507
16.8667,367.017,-1.0051
16.8683,367.033,-1.00514
16.87,367.05,-1.00516
16.8717,367.067,-1.00519
16.8733,367.083,-1.00522
16.875,367.1,-1.00523
16.8767,367.117,-1.00525
16.8783,367.133,-1.00527
16.88,367.15,-1.00529
16.8817,367.167,-1.0053
16.8833,367.184,-1.00533
16.885,367.2,-1.00535
16.8867,367.217,-1.00538
16.8883,367.233,-1.0054
16.89,367.25,-1.00544
16.8917,367.267,-1.00547
16.8933,367.283,-1.00551
16.895,367.3,-1.00555
16.8967,367.317,-1.00559
16.8983,367.334,-1.00563
16.9,367.35,-1.00566
16.9017,367.367,-1.0057
16.9033,367.384,-1.00573
16.905,367.4,-1.00576
16.9067,367.417,-1.00578
16.9083,367.433,-1.0058
16.91,367.45,-1.00582
16.9117,367.466,-1.00585
16.9133,367.483,-1.00589
16.915,367.5,-1.00594
16.9167,367.517,-1.00598
16.9183,367.533,-1.00603
16.92,367.55,-1.00608
16.9217,367.567,-1.00613
16.9233,367.583,-1.00617
16.925,367.6,-1.0062
16.9267,367.617,-1.00623
16.9283,367.633,-1.00624
16.93,367.65,-1.00626
16.9317,367.666,-1.00626
16.9333,367.683,-1.00627
16.935,367.699,-1.00628
16.9367,367.716,-1.0063
16.9383,367.733,-1.00633
16.94,367.75,-1.00636
16.9417,367.766,-1.0064
16.9433,367.783,-1.00645
16.945,367.799,-1.0065
16.9467,367.816,-1.00655
16.9483,367.833,-1.00659
16.95,367.85,-1.00661
16.9517,367.867,-1.00663
16.9533,367.883,-1.00664
16.955,367.9,-1.00666
16.9567,367.917,-1.00666
16.9583,367.933,-1.00666
16.96,367.95,-1.00665
16.9617,367.966,-1.00666
16.9633,367.983,-1.00668
16.965,367.999,-1.00669
16.9667,368.016,-1.00671
16.9683,368.033,-1.00673
16.97,368.049,-1.00675
16.9717,368.066,-1.00675
16.9733,368.083,-1.00676
16.975,368.099,-1.00678
16.9767,368.116,-1.00678
16.9783,368.132,-1.00679
16.98,368.149,-1.00681
16.9817,368.166,-1.00684
16.9833,368.183,-1.00688
16.985,368.2,-1.00692
16.9867,368.216,-1.00697
16.9883,368.233,-1.00702
16.99,368.249,-1.00707
16.9917,368.266,-1.00712
16.9933,368.283,-1.00716
16.995,368.3,-1.0072
16.9967,368.316,-1.00722
16.9983,368.333,-1.00723
17,368.349,-1.00724
17.0017,368.366,-1.00726
17.0033,368.383,-1.00728
17.005,368.399,-1.00729
17.0067,368.416,-1.0073
17.0083,368.433,-1.00731
17.01,368.45,-1.00731
17.0117,368.466,-1.00732
17.0133,368.483,-1.00733
17.015,368.499,-1.00735
17.0167,368.516,-1.00738
17.0183,368.533,-1.00741
17.02,368.549,-1.00745
17.0217,368.566,-1.0075
17.0233,368.582,-1.00754
17.025,368.599,-1.00759
17.0267,368.616,-1.00763
17.0283,368.632,-1.00768
17.03,368.649,-1.00773
17.0317,368.665,-1.00777
17.0333,368.682,-1.00781
17.035,368.699,-1.00784
17.0367,368.715,-1.00786
17.0383,368.732,-1.00787
17.04,368.749,-1.00788
17.0417,368.766,-1.00789
17.0433,368.782,-1.0079
17.045,368.799,-1.00789
17.0467,368.816,-1.0079
17.0483,368.832,-1.00791
17.05,368.849,-1.00793
17.0517,368.865,-1.00795
17.0533,368.882,-1.00797
17.055,368.899,-1.00799
17.0567,368.915,-1.00801
17.0583,368.932,-1.00804
17.06,368.948,-1.00808
17.0617,368.965,-1.00813
17.0633,368.982,-1.00817
17.065,368.999,-1.00821
17.0667,369.015,-1.00826
17.0683,369.032,-1.00829
17.07,369.049,-1.00831
17.0717,369.065,-1.00832
17.0733,369.082,-1.00833
17.075,369.099,-1.00834
17.0767,369.116,-1.00835
17.0783,369.132,-1.00838
17.08,369.149,-1.0084
17.0817,369.166,-1.00841
17.0833,369.182,-1.00844
17.085,369.199,-1.00847
17.0867,369.215,-1.00849
17.0883,369.232,-1.00852
17.09,369.249,-1.00854
17.0917,369.265,-1.00855
17.0933,369.282,-1.00858
17.095,369.298,-1.0086
17.0967,369.315,-1.00862
17.0983,369.332,-1.00865
17.1,369.349,-1.00867
17.1017,369.365,-1.0087
17.1033,369.381,-1.00874
17.105,369.398,-1.00878
17.1067,369.415,-1.00881
17.1083,369.432,-1.00884
17.11,369.448,-1.00888
17.1117,369.465,-1.00892
17.1133,369.482,-1.00896
17.115,369.498,-1.00899
17.1167,369.515,-1.00902
17.1183,369.531,-1.00905
17.12,369.548,-1.00907
17.1217,369.565,-1.00908
17.1233,369.582,-1.0091
17.125,369.598,-1.00911
17.1267,369.615,-1.00912
17.1283,369.632,-1.00914
17.13,369.648,-1.00915
17.1317,369.665,-1.00916
17.1333,369.681,-1.00918
17.135,369.698,-1.00918
17.1367,369.715,-1.00919
17.1383,369.731,-1.0092
17.14,369.748,-1.00921
17.1417,369.764,-1.00922
17.1433,369.782,-1.00924
17.145,369.798,-1.00926
17.1467,369.815,-1.00928
17.1483,369.831,-1.0093
17.15,369.848,-1.00932
17.1517,369.865,-1.00935
17.1533,369.882,-1.00937
17.155,369.898,-1.0094
17.1567,369.915,-1.00943
17.1583,369.932,-1.00946
17.16,369.948,-1.0095
17.1617,369.964,-1.00955
17.1633,369.981,-1.00959
17.165,369.998,-1.00966
17.1667,370.015,-1.00974
17.1683,370.031,-1.0098
17.17,370.048,-1.00985
17.1717,370.065,-1.0099
17.1733,370.081,-1.00993
17.175,370.098,-1.00995
17.1767,370.115,-1.00997
17.1783,370.131,-1.00997
17.18,370.148,-1.00997
17.1817,370.165,-1.00997
17.1833,370.182,-1.00996
17.185,370.198,-1.00996
17.1867,370.215,-1.00997
17.1883,370.231,-1.00998
17.19,370.248,-1.01002
17.1917,370.264,-1.01006
17.1933,370.281,-1.0101
17.195,370.298,-1.01013
17.1967,370.314,-1.01017
17.1983,370.331,-1.01021
17.2,370.348,-1.01025
17.2017,370.364,-1.01029
17.2033,370.381,-1.01032
17.205,370.398,-1.01035
17.2067,370.414,-1.01038
17.2083,370.431,-1.01041
17.21,370.447,-1.01045
17.2117,370.464,-1.01049
17.2133,370.481,-1.01053
17.215,370.497,-1.01056
17.2167,370.514,-1.01059
17.2183,370.531,-1.01062
17.22,370.547,-1.01064
17.2217,370.564,-1.01067
17.2233,370.581,-1.01068
17.225,370.598,-1.01069
17.2267,370.615,-1.0107
17.2283,370.631,-1.01071
17.23,370.648,-1.01072
17.2317,370.664,-1.01072
17.2333,370.681,-1.01072
17.235,370.697,-1.01073
17.2367,370.714,-1.01073
17.2383,370.731,-1.01074
17.24,370.747,-1.01076
17.2417,370.764,-1.01079
17.2433,370.781,-1.01081
17.245,370.797,-1.01084
17.2467,370.814,-1.01087
17.2483,370.83,-1.0109
17.25,370.847,-1.01093
17.2517,370.864,-1.01095
17.2533,370.88,-1.01097
17.255,370.897,-1.011
17.2567,370.914,-1.01103
17.2583,370.93,-1.01107
17.26,370.947,-1.0111
17.2617,370.964,-1.01114
17.2633,370.981,-1.01117
17.265,370.997,-1.0112
17.2667,371.014,-1.01123
17.2683,371.03,-1.01126
17.27,371.047,-1.01128
17.2717,371.063,-1.01129
17.2733,371.08,-1.01131
17.275,371.097,-1.01132
17.2767,371.114,-1.01133
17.2783,371.13,-1.01133
17.28,371.147,-1.01134
17.2817,371.164,-1.01135
17.2833,371.181,-1.01136
17.285,371.197,-1.01137
17.2867,371.213,-1.01138
17.2883,371.23,-1.01139
17.29,371.247,-1.01141
17.2917,371.263,-1.01142
17.2933,371.28,-1.01144
17.295,371.297,-1.01146
17.2967,371.313,-1.01149
17.2983,371.33,-1.01151
17.3,371.347,-1.01154
17.3017,371.364,-1.01157
17.3033,371.38,-1.0116
17.305,371.397,-1.01163
17.3067,371.414,-1.01167
17.3083,371.43,-1.01171
17.31,371.447,-1.01174
17.3117,371.463,-1.01177
17.3133,371.48,-1.0118
17.315,371.496,-1.01182
17.3167,371.514,-1.01184
17.3183,371.53,-1.01186
17.32,371.547,-1.01188
17.3217,371.563,-1.0119
17.3233,371.58,-1.01192
17.325,371.597,-1.01194
17.3267,371.613,-1.01196
17.3283,371.63,-1.01198
17.33,371.647,-1.01201
17.3317,371.663,-1.01206
17.3333,371.68,-1.0121
17.335,371.696,-1.01214
17.3367,371.713,-1.01218
17.3383,371.73,-1.01223
17.34,371.746,-1.01228
17.3417,371.763,-1.01231
17.3433,371.78,-1.01234
17.345,371.796,-1.01236
17.3467,371.813,-1.01237
17.3483,371.829,-1.01239
17.35,371.846,-1.01242
17.3517,371.863,-1.01244
17.3533,371.879,-1.01248
17.355,371.896,-1.01251
17.3567,371.913,-1.01253
17.3583,371.929,-1.01256
17.36,371.946,-1.01259
17.3617,371.963,-1.0126
17.3633,371.979,-1.0126
17.365,371.996,-1.0126
17.3667,372.013,-1.01259
17.3683,372.029,-1.01259
17.37,372.046,-1.01258
17.3717,372.063,-1.01259
17.3733,372.079,-1.0126
17.375,372.096,-1.01262
17.3767,372.113,-1.01265
17.3783,372.129,-1.01268
17.38,372.146,-1.0127
17.3817,372.162,-1.01273
17.3833,372.179,-1.01274
17.385,372.196,-1.01275
17.3867,372.212,-1.01276
17.3883,372.229,-1.01277
17.39,372.246,-1.01279
17.3917,372.262,-1.01281
17.3933,372.279,-1.01284
17.395,372.295,-1.01287
17.3967,372.312,-1.01291
17.3983,372.329,-1.01295
17.4,372.345,-1.01299
17.4017,372.362,-1.01304
17.4033,372.379,-1.01309
17.405,372.396,-1.01313
17.4067,372.412,-1.01318
17.4083,372.428,-1.01323
17.41,372.445,-1.01328
17.4117,372.462,-1.01333
17.4133,372.478,-1.01337
17.415,372.495,-1.01341
17.4167,372.512,-1.01344
17.4183,372.528,-1.01347
17.42,372.545,-1.0135
17.4217,372.562,-1.01353
17.4233,372.578,-1.01355
17.425,372.595,-1.01357
17.4267,372.612,-1.01359
17.4283,372.628,-1.01361
17.43,372.645,-1.01363
17.4317,372.662,-1.01365
17.4333,372.678,-1.01366
17.435,372.695,-1.01368
17.4367,372.711,-1.0137
17.4383,372.728,-1.01372
17.44,372.745,-1.01375
17.4417,372.762,-1.01376
17.4433,372.779,-1.01378
17.445,372.795,-1.0138
17.4467,372.811,-1.01382
17.4483,372.828,-1.01383
17.45,372.845,-1.01385
17.4517,372.862,-1.01386
17.4533,372.878,-1.01388
17.455,372.895,-1.01392
17.4567,372.911,-1.01395
17.4583,372.928,-1.01399
17.46,372.945,-1.01404
17.4617,372.961,-1.01412
17.4633,372.978,-1.01417
17.465,372.995,-1.01423
17.4667,373.012,-1.01428
17.4683,373.028,-1.01433
17.47,373.045,-1.01436
17.4717,373.062,-1.0144
17.4733,373.078,-1.01444
17.475,373.095,-1.01446
17.4767,373.112,-1.01449
17.4783,373.128,-1.0145
17.48,373.145,-1.01451
17.4817,373.162,-1.01452
17.4833,373.178,-1.01454
17.485,373.195,-1.01455
17.4867,373.211,-1.01456
17.4883,373.228,-1.01457
17.49,373.245,-1.01459
17.4917,373.261,-1.01462
17.4933,373.278,-1.01466
17.495,373.295,-1.0147
17.4967,373.311,-1.01473
17.4983,373.328,-1.01478
17.5,373.344,-1.01483
17.5017,373.361,-1.01488
17.5033,373.377,-1.01492
17.505,373.394,-1.01496
