Ramp 10.00 °C/min to 375.00 °C,,
Time,Temperature,Heat Flow (Normalized)
min,°C,W/g
40.38,249.91,-0.153324
40.3817,249.911,-0.153307
40.3833,249.911,-0.153299
40.385,249.91,-0.153301
40.3867,249.91,-0.153302
40.3883,249.91,-0.1533
40.39,249.91,-0.153298
40.3917,249.91,-0.153311
40.3933,249.91,-0.153319
40.395,249.91,-0.153328
40.3967,249.911,-0.15334
40.3983,249.911,-0.153347
40.4,249.911,-0.15335
40.4017,249.912,-0.153351
40.4033,249.912,-0.153352
40.405,249.913,-0.15336
40.4067,249.913,-0.153375
40.4083,249.914,-0.153394
40.41,249.914,-0.153427
40.4117,249.915,-0.153462
40.4133,249.916,-0.153502
40.415,249.917,-0.153538
40.4167,249.918,-0.153577
40.4183,249.919,-0.153618
40.42,249.921,-0.153662
40.4217,249.922,-0.153702
40.4233,249.923,-0.15373
40.425,249.925,-0.153747
40.4267,249.926,-0.153754
40.4283,249.928,-0.153752
40.43,249.931,-0.153737
40.4317,249.933,-0.153691
40.4333,249.935,-0.153576
40.435,249.937,-0.153268
40.4367,249.94,-0.152732
40.4383,249.943,-0.15197
40.44,249.945,-0.150821
40.4417,249.948,-0.149117
40.4433,249.951,-0.146329
40.445,249.955,-0.143292
40.4467,249.958,-0.139744
40.4483,249.962,-0.136265
40.45,249.965,-0.133167
40.4517,249.969,-0.130575
40.4533,249.974,-0.128244
40.455,249.979,-0.126119
40.4567,249.983,-0.123923
40.4583,249.988,-0.122103
40.46,249.993,-0.121046
40.4617,249.998,-0.120081
40.4633,250.004,-0.119498
40.465,250.009,-0.119038
40.4667,250.015,-0.118795
40.4683,250.021,-0.118679
40.47,250.027,-0.118634
40.4717,250.033,-0.118595
40.4733,250.039,-0.118642
40.475,250.046,-0.118726
40.4767,250.053,-0.119099
40.4783,250.06,-0.119309
40.48,250.068,-0.119418
40.4817,250.075,-0.119685
40.4833,250.083,-0.120363
40.485,250.091,-0.122095
40.4867,250.099,-0.125412
40.4883,250.107,-0.130641
40.49,250.115,-0.137541
40.4917,250.124,-0.146042
40.4933,250.133,-0.15595
40.495,250.142,-0.166076
40.4967,250.151,-0.176719
40.4983,250.16,-0.187122
40.5,250.169,-0.195602
40.5017,250.179,-0.202543
40.5033,250.189,-0.210631
40.505,250.199,-0.217576
40.5067,250.209,-0.224905
40.5083,250.219,-0.232784
40.51,250.229,-0.240826
40.5117,250.24,-0.248288
40.5133,250.25,-0.256282
40.515,250.261,-0.264094
40.5167,250.272,-0.271826
40.5183,250.283,-0.279765
40.52,250.294,-0.288526
40.5217,250.305,-0.296509
40.5233,250.317,-0.303949
40.525,250.328,-0.311686
40.5267,250.339,-0.317933
40.5283,250.351,-0.32512
40.53,250.362,-0.332947
40.5317,250.375,-0.339489
40.5333,250.386,-0.345679
40.535,250.398,-0.353025
40.5367,250.411,-0.360136
40.5383,250.422,-0.368237
40.54,250.435,-0.375885
40.5417,250.447,-0.383414
40.5433,250.46,-0.389488
40.545,250.472,-0.396046
40.5467,250.485,-0.402675
40.5483,250.498,-0.409592
40.55,250.51,-0.415717
40.5517,250.524,-0.421442
40.5533,250.537,-0.427812
40.555,250.55,-0.433258
40.5567,250.563,-0.438479
40.5583,250.576,-0.44406
40.56,250.589,-0.450561
40.5617,250.602,-0.456209
40.5633,250.616,-0.461017
40.565,250.629,-0.467116
40.5667,250.643,-0.472902
40.5683,250.657,-0.478523
40.57,250.67,-0.48298
40.5717,250.684,-0.486768
40.5733,250.698,-0.490584
40.575,250.711,-0.494279
40.5767,250.725,-0.497892
40.5783,250.739,-0.502409
40.58,250.753,-0.506233
40.5817,250.767,-0.510457
40.5833,250.781,-0.513558
40.585,250.795,-0.517868
40.5867,250.809,-0.523148
40.5883,250.824,-0.527724
40.59,250.838,-0.531677
40.5917,250.853,-0.534094
40.5933,250.867,-0.538172
40.595,250.882,-0.541567
40.5967,250.896,-0.545584
40.5983,250.91,-0.548807
40.6,250.925,-0.552259
40.6017,250.94,-0.55606
40.6033,250.954,-0.559734
40.605,250.969,-0.563536
40.6067,250.984,-0.566477
40.6083,250.999,-0.568998
40.61,251.013,-0.571787
40.6117,251.028,-0.576091
40.6133,251.043,-0.58034
40.615,251.057,-0.582457
40.6167,251.072,-0.584307
40.6183,251.087,-0.587617
40.62,251.102,-0.591168
40.6217,251.118,-0.593682
40.6233,251.133,-0.595885
40.625,251.148,-0.598805
40.6267,251.163,-0.60084
40.6283,251.178,-0.602753
40.63,251.193,-0.605643
40.6317,251.208,-0.607839
40.6333,251.223,-0.609719
40.635,251.239,-0.611614
40.6367,251.254,-0.613586
40.6383,251.269,-0.616293
40.64,251.285,-0.62023
40.6417,251.3,-0.623544
40.6433,251.316,-0.625272
40.645,251.331,-0.62744
40.6467,251.346,-0.629356
40.6483,251.362,-0.630644
40.65,251.378,-0.63317
40.6517,251.393,-0.633678
40.6533,251.408,-0.635281
40.655,251.424,-0.638158
40.6567,251.439,-0.64055
40.6583,251.455,-0.641691
40.66,251.47,-0.643388
40.6617,251.486,-0.644709
40.6633,251.502,-0.64617
40.665,251.517,-0.647905
40.6667,251.533,-0.650673
40.6683,251.549,-0.651682
40.67,251.564,-0.653673
40.6717,251.58,-0.655857
40.6733,251.596,-0.657697
40.675,251.612,-0.658998
40.6767,251.627,-0.660677
40.6783,251.643,-0.662227
40.68,251.659,-0.663514
40.6817,251.674,-0.664025
40.6833,251.69,-0.664089
40.685,251.706,-0.66448
40.6867,251.722,-0.664765
40.6883,251.738,-0.665299
40.69,251.753,-0.666516
40.6917,251.769,-0.667574
40.6933,251.785,-0.66874
40.695,251.801,-0.669761
40.6967,251.817,-0.671151
40.6983,251.833,-0.672245
40.7,251.849,-0.673409
40.7017,251.865,-0.67414
40.7033,251.881,-0.674826
40.705,251.897,-0.675826
40.7067,251.912,-0.677155
40.7083,251.928,-0.6782
40.71,251.944,-0.67968
40.7117,251.961,-0.681519
40.7133,251.977,-0.68279
40.715,251.993,-0.684175
40.7167,252.009,-0.685696
40.7183,252.025,-0.686976
40.72,252.041,-0.688227
40.7217,252.057,-0.689545
40.7233,252.073,-0.690308
40.725,252.089,-0.690632
40.7267,252.105,-0.690752
40.7283,252.121,-0.690918
40.73,252.137,-0.691241
40.7317,252.153,-0.691596
40.7333,252.169,-0.691768
40.735,252.186,-0.691983
40.7367,252.201,-0.692325
40.7383,252.217,-0.692728
40.74,252.234,-0.693371
40.7417,252.25,-0.694058
40.7433,252.266,-0.694392
40.745,252.283,-0.694574
40.7467,252.299,-0.694783
40.7483,252.315,-0.695028
40.75,252.331,-0.695215
40.7517,252.347,-0.695439
40.7533,252.363,-0.695884
40.755,252.38,-0.696153
40.7567,252.396,-0.696726
40.7583,252.412,-0.697445
40.76,252.428,-0.698332
40.7617,252.444,-0.699236
40.7633,252.46,-0.700137
40.765,252.476,-0.701241
40.7667,252.492,-0.702022
40.7683,252.509,-0.702753
40.77,252.525,-0.703331
40.7717,252.541,-0.703699
40.7733,252.557,-0.7042
40.775,252.574,-0.704753
40.7767,252.59,-0.705382
40.7783,252.606,-0.706076
40.78,252.622,-0.706687
40.7817,252.639,-0.707189
40.7833,252.655,-0.707625
40.785,252.672,-0.708011
40.7867,252.687,-0.708279
40.7883,252.704,-0.708495
40.79,252.72,-0.708751
40.7917,252.736,-0.709068
40.7933,252.753,-0.709424
40.795,252.769,-0.709758
40.7967,252.785,-0.710062
40.7983,252.801,-0.710312
40.8,252.818,-0.710569
40.8017,252.834,-0.71077
40.8033,252.85,-0.710965
40.805,252.867,-0.711171
40.8067,252.883,-0.711394
40.8083,252.899,-0.711604
40.81,252.915,-0.711819
40.8117,252.932,-0.712103
40.8133,252.948,-0.712477
40.815,252.965,-0.712795
40.8167,252.981,-0.71307
40.8183,252.998,-0.713385
40.82,253.014,-0.713715
40.8217,253.03,-0.71399
40.8233,253.046,-0.714243
40.825,253.062,-0.714473
40.8267,253.079,-0.714633
40.8283,253.095,-0.714838
40.83,253.111,-0.71513
40.8317,253.127,-0.71545
40.8333,253.144,-0.715711
40.835,253.16,-0.715925
40.8367,253.177,-0.71618
40.8383,253.193,-0.716559
40.84,253.209,-0.716831
40.8417,253.226,-0.717044
40.8433,253.242,-0.717216
40.845,253.258,-0.717352
40.8467,253.275,-0.717459
40.8483,253.292,-0.717582
40.85,253.308,-0.717694
40.8517,253.324,-0.717765
40.8533,253.34,-0.717833
40.855,253.357,-0.717909
40.8567,253.373,-0.718001
40.8583,253.39,-0.718123
40.86,253.406,-0.71827
40.8617,253.422,-0.718494
40.8633,253.439,-0.718699
40.865,253.455,-0.718933
40.8667,253.472,-0.719234
40.8683,253.488,-0.71958
40.87,253.504,-0.71992
40.8717,253.521,-0.72014
40.8733,253.537,-0.720339
40.875,253.553,-0.720584
40.8767,253.57,-0.720866
40.8783,253.586,-0.72103
40.88,253.602,-0.721135
40.8817,253.619,-0.721315
40.8833,253.636,-0.721479
40.885,253.652,-0.721604
40.8867,253.668,-0.721737
40.8883,253.685,-0.721803
40.89,253.701,-0.722159
40.8917,253.717,-0.722432
40.8933,253.734,-0.722692
40.895,253.75,-0.722896
40.8967,253.767,-0.723105
40.8983,253.783,-0.723293
40.9,253.799,-0.723344
40.9017,253.816,-0.723401
40.9033,253.832,-0.723555
40.905,253.848,-0.723604
40.9067,253.865,-0.723656
40.9083,253.881,-0.723712
40.91,253.898,-0.723776
40.9117,253.914,-0.723863
40.9133,253.931,-0.72402
40.915,253.947,-0.724247
40.9167,253.964,-0.724471
40.9183,253.98,-0.724697
40.92,253.996,-0.725024
40.9217,254.013,-0.725198
40.9233,254.029,-0.725362
40.925,254.046,-0.725517
40.9267,254.062,-0.725597
40.9283,254.078,-0.725666
40.93,254.095,-0.725882
40.9317,254.111,-0.725956
40.9333,254.128,-0.726028
40.935,254.144,-0.7261
40.9367,254.161,-0.726181
40.9383,254.177,-0.726262
40.94,254.193,-0.726341
40.9417,254.21,-0.726427
40.9433,254.226,-0.726553
40.945,254.243,-0.726636
40.9467,254.259,-0.72672
40.9483,254.276,-0.726809
40.95,254.292,-0.726897
40.9517,254.309,-0.726984
40.9533,254.325,-0.72707
40.955,254.342,-0.727192
40.9567,254.358,-0.727348
40.9583,254.375,-0.727472
40.96,254.391,-0.727639
40.9617,254.408,-0.727821
40.9633,254.424,-0.727927
40.965,254.44,-0.728018
40.9667,254.457,-0.728109
40.9683,254.473,-0.728196
40.97,254.49,-0.72828
40.9717,254.506,-0.728372
40.9733,254.522,-0.728463
40.975,254.538,-0.728552
40.9767,254.555,-0.72864
40.9783,254.572,-0.728732
40.98,254.589,-0.728827
40.9817,254.605,-0.728926
40.9833,254.622,-0.729036
40.985,254.638,-0.729141
40.9867,254.654,-0.72924
40.9883,254.67,-0.729341
40.99,254.687,-0.729437
40.9917,254.703,-0.72953
40.9933,254.72,-0.729626
40.995,254.736,-0.729719
40.9967,254.753,-0.729808
40.9983,254.769,-0.729896
41,254.786,-0.729991
41.0017,254.803,-0.730088
41.0033,254.819,-0.730178
41.005,254.836,-0.730266
41.0067,254.852,-0.730356
41.0083,254.869,-0.730442
41.01,254.885,-0.730539
41.0117,254.902,-0.730637
41.0133,254.918,-0.73073
41.015,254.934,-0.73083
41.0167,254.951,-0.730933
41.0183,254.967,-0.731036
41.02,254.984,-0.731135
41.0217,255,-0.731233
41.0233,255.017,-0.731334
41.025,255.033,-0.731437
41.0267,255.05,-0.731544
41.0283,255.066,-0.731646
41.03,255.082,-0.731742
41.0317,255.099,-0.731837
41.0333,255.115,-0.73193
41.035,255.132,-0.732022
41.0367,255.149,-0.732108
41.0383,255.165,-0.732192
41.04,255.181,-0.732279
41.0417,255.198,-0.732367
41.0433,255.214,-0.732458
41.045,255.231,-0.732554
41.0467,255.248,-0.732651
41.0483,255.264,-0.732742
41.05,255.28,-0.732843
41.0517,255.297,-0.732945
41.0533,255.313,-0.733041
41.055,255.33,-0.733134
41.0567,255.346,-0.733228
41.0583,255.363,-0.733318
41.06,255.379,-0.733412
41.0617,255.396,-0.733514
41.0633,255.412,-0.733634
41.065,255.429,-0.73378
41.0667,255.445,-0.734
41.0683,255.462,-0.734236
41.07,255.478,-0.734492
41.0717,255.495,-0.734608
41.0733,255.512,-0.734717
41.075,255.528,-0.734829
41.0767,255.544,-0.734934
41.0783,255.561,-0.735028
41.08,255.578,-0.735116
41.0817,255.594,-0.735212
41.0833,255.61,-0.7353
41.085,255.627,-0.735388
41.0867,255.644,-0.735477
41.0883,255.66,-0.735575
41.09,255.677,-0.735669
41.0917,255.693,-0.735757
41.0933,255.709,-0.735838
41.095,255.726,-0.735923
41.0967,255.742,-0.736
41.0983,255.759,-0.736079
41.1,255.776,-0.736166
41.1017,255.792,-0.736251
41.1033,255.809,-0.736344
41.105,255.825,-0.736438
41.1067,255.842,-0.736532
41.1083,255.858,-0.736631
41.11,255.875,-0.736734
41.1117,255.892,-0.736842
41.1133,255.908,-0.736951
41.115,255.924,-0.737062
41.1167,255.941,-0.73716
41.1183,255.957,-0.737259
41.12,255.974,-0.737358
41.1217,255.99,-0.737452
41.1233,256.007,-0.737547
41.125,256.023,-0.737641
41.1267,256.04,-0.737734
41.1283,256.056,-0.737816
41.13,256.073,-0.737902
41.1317,256.09,-0.737992
41.1333,256.106,-0.738091
41.135,256.123,-0.738181
41.1367,256.139,-0.738279
41.1383,256.156,-0.738382
41.14,256.172,-0.738487
41.1417,256.189,-0.738598
41.1433,256.205,-0.738712
41.145,256.222,-0.738826
41.1467,256.238,-0.738932
41.1483,256.255,-0.73903
41.15,256.271,-0.739122
41.1517,256.288,-0.73921
41.1533,256.304,-0.739296
41.155,256.321,-0.739377
41.1567,256.338,-0.739461
41.1583,256.354,-0.739551
41.16,256.37,-0.739638
41.1617,256.387,-0.739726
41.1633,256.403,-0.739811
41.165,256.42,-0.739902
41.1667,256.437,-0.739991
41.1683,256.453,-0.740081
41.17,256.47,-0.740172
41.1717,256.486,-0.740254
41.1733,256.503,-0.740344
41.175,256.519,-0.740432
41.1767,256.536,-0.740524
41.1783,256.552,-0.740625
41.18,256.569,-0.740729
41.1817,256.585,-0.740837
41.1833,256.602,-0.740942
41.185,256.618,-0.741043
41.1867,256.635,-0.741139
41.1883,256.651,-0.741226
41.19,256.668,-0.7413
41.1917,256.684,-0.741371
41.1933,256.701,-0.741431
41.195,256.717,-0.741491
41.1967,256.734,-0.741551
41.1983,256.751,-0.741617
41.2,256.767,-0.741689
41.2017,256.783,-0.741773
41.2033,256.8,-0.741873
41.205,256.816,-0.741999
41.2067,256.833,-0.74214
41.2083,256.85,-0.742309
41.21,256.866,-0.742419
41.2117,256.883,-0.742518
41.2133,256.899,-0.742618
41.215,256.916,-0.742712
41.2167,256.932,-0.742803
41.2183,256.949,-0.742897
41.22,256.965,-0.742988
41.2217,256.982,-0.743077
41.2233,256.999,-0.743166
41.225,257.015,-0.743259
41.2267,257.032,-0.743348
41.2283,257.048,-0.743435
41.23,257.065,-0.743522
41.2317,257.081,-0.743603
41.2333,257.098,-0.743676
41.235,257.115,-0.743753
41.2367,257.131,-0.743825
41.2383,257.148,-0.743897
41.24,257.164,-0.743973
41.2417,257.181,-0.74405
41.2433,257.197,-0.744134
41.245,257.214,-0.74422
41.2467,257.23,-0.744304
41.2483,257.247,-0.744389
41.25,257.263,-0.74448
41.2517,257.28,-0.744564
41.2533,257.296,-0.744651
41.255,257.313,-0.744739
41.2567,257.329,-0.744822
41.2583,257.346,-0.744903
41.26,257.363,-0.744978
41.2617,257.38,-0.745054
41.2633,257.396,-0.74512
41.265,257.413,-0.745178
41.2667,257.429,-0.745245
41.2683,257.446,-0.745318
41.27,257.463,-0.745405
41.2717,257.479,-0.745492
41.2733,257.495,-0.74559
41.275,257.512,-0.745684
41.2767,257.528,-0.745774
41.2783,257.545,-0.745862
41.28,257.561,-0.745953
41.2817,257.578,-0.746024
41.2833,257.595,-0.746091
41.285,257.611,-0.74616
41.2867,257.628,-0.746222
41.2883,257.644,-0.746289
41.29,257.661,-0.746362
41.2917,257.678,-0.746439
41.2933,257.694,-0.746516
41.295,257.711,-0.746591
41.2967,257.728,-0.746672
41.2983,257.744,-0.746758
41.3,257.761,-0.746844
41.3017,257.777,-0.746926
41.3033,257.793,-0.747018
41.305,257.81,-0.747112
41.3067,257.826,-0.747207
41.3083,257.843,-0.747301
41.31,257.859,-0.747387
41.3117,257.876,-0.747477
41.3133,257.893,-0.747568
41.315,257.909,-0.747653
41.3167,257.926,-0.747723
41.3183,257.943,-0.747801
41.32,257.959,-0.747885
41.3217,257.976,-0.747974
41.3233,257.992,-0.74806
41.325,258.009,-0.748149
41.3267,258.025,-0.748235
41.3283,258.042,-0.748331
41.33,258.059,-0.748429
41.3317,258.075,-0.748532
41.3333,258.091,-0.748639
41.335,258.108,-0.748733
41.3367,258.124,-0.748822
41.3383,258.141,-0.748902
41.34,258.158,-0.748974
41.3417,258.174,-0.749034
41.3433,258.191,-0.749095
41.345,258.208,-0.749148
41.3467,258.224,-0.749195
41.3483,258.241,-0.749243
41.35,258.258,-0.749291
41.3517,258.274,-0.749345
41.3533,258.29,-0.749406
41.355,258.307,-0.749472
41.3567,258.323,-0.749544
41.3583,258.34,-0.749631
41.36,258.357,-0.749718
41.3617,258.373,-0.749812
41.3633,258.39,-0.749898
41.365,258.407,-0.749977
41.3667,258.423,-0.750053
41.3683,258.44,-0.750122
41.37,258.457,-0.750181
41.3717,258.473,-0.750231
41.3733,258.489,-0.750276
41.375,258.506,-0.750327
41.3767,258.522,-0.750385
41.3783,258.539,-0.750447
41.38,258.555,-0.750503
41.3817,258.572,-0.750571
41.3833,258.589,-0.750641
41.385,258.605,-0.750719
41.3867,258.622,-0.750798
41.3883,258.638,-0.750877
41.39,258.655,-0.75095
41.3917,258.672,-0.751021
41.3933,258.688,-0.751089
41.395,258.705,-0.75116
41.3967,258.721,-0.751237
41.3983,258.738,-0.751315
41.4,258.754,-0.751391
41.4017,258.771,-0.751465
41.4033,258.787,-0.751539
41.405,258.804,-0.751616
41.4067,258.821,-0.751697
41.4083,258.837,-0.751776
41.41,258.854,-0.751851
41.4117,258.871,-0.751932
41.4133,258.887,-0.752013
41.415,258.904,-0.752094
41.4167,258.921,-0.752173
41.4183,258.938,-0.752241
41.42,258.954,-0.75231
41.4217,258.971,-0.752372
41.4233,258.987,-0.752433
41.425,259.004,-0.752495
41.4267,259.02,-0.752557
41.4283,259.037,-0.752619
41.43,259.053,-0.752685
41.4317,259.07,-0.752753
41.4333,259.087,-0.752823
41.435,259.103,-0.752897
41.4367,259.12,-0.752974
41.4383,259.137,-0.753043
41.44,259.153,-0.753098
41.4417,259.17,-0.753152
41.4433,259.186,-0.753208
41.445,259.203,-0.753261
41.4467,259.22,-0.753308
41.4483,259.236,-0.753347
41.45,259.252,-0.753389
41.4517,259.269,-0.753432
41.4533,259.286,-0.753472
41.455,259.302,-0.753524
41.4567,259.319,-0.753585
41.4583,259.336,-0.753651
41.46,259.352,-0.75371
41.4617,259.369,-0.753771
41.4633,259.386,-0.753833
41.465,259.402,-0.753895
41.4667,259.418,-0.753956
41.4683,259.435,-0.754019
41.47,259.451,-0.75408
41.4717,259.468,-0.754144
41.4733,259.485,-0.754211
41.475,259.501,-0.754279
41.4767,259.518,-0.75435
41.4783,259.535,-0.754418
41.48,259.551,-0.754482
41.4817,259.568,-0.754551
41.4833,259.585,-0.754612
41.485,259.601,-0.754666
41.4867,259.618,-0.754724
41.4883,259.634,-0.754781
41.49,259.651,-0.754844
41.4917,259.667,-0.754899
41.4933,259.684,-0.754965
41.495,259.701,-0.755033
41.4967,259.717,-0.755095
41.4983,259.734,-0.755159
41.5,259.751,-0.755225
41.5017,259.767,-0.755293
41.5033,259.784,-0.755355
41.505,259.8,-0.755419
41.5067,259.817,-0.755478
41.5083,259.834,-0.755543
41.51,259.851,-0.755602
41.5117,259.867,-0.755667
41.5133,259.883,-0.755735
41.515,259.9,-0.755798
41.5167,259.917,-0.755861
41.5183,259.933,-0.755923
41.52,259.95,-0.755982
41.5217,259.967,-0.756033
41.5233,259.983,-0.756076
41.525,260,-0.756113
41.5267,260.016,-0.756151
41.5283,260.033,-0.756183
41.53,260.049,-0.756212
41.5317,260.066,-0.756246
41.5333,260.083,-0.756288
41.535,260.099,-0.756333
41.5367,260.116,-0.75638
41.5383,260.133,-0.756427
41.54,260.149,-0.756471
41.5417,260.166,-0.756521
41.5433,260.183,-0.756571
41.545,260.199,-0.756629
41.5467,260.215,-0.756686
41.5483,260.232,-0.756753
41.55,260.248,-0.756824
41.5517,260.265,-0.756903
41.5533,260.282,-0.756983
41.555,260.298,-0.757051
41.5567,260.315,-0.757115
41.5583,260.331,-0.757169
41.56,260.348,-0.757216
41.5617,260.365,-0.757261
41.5633,260.381,-0.757307
41.565,260.398,-0.757353
41.5667,260.415,-0.757395
41.5683,260.432,-0.75744
41.57,260.448,-0.757493
41.5717,260.465,-0.757547
41.5733,260.482,-0.757607
41.575,260.498,-0.757672
41.5767,260.515,-0.757738
41.5783,260.531,-0.757805
41.58,260.548,-0.757865
41.5817,260.564,-0.757919
41.5833,260.581,-0.757976
41.585,260.597,-0.758027
41.5867,260.614,-0.758071
41.5883,260.631,-0.758118
41.59,260.647,-0.758165
41.5917,260.664,-0.758211
41.5933,260.681,-0.75825
41.595,260.697,-0.758286
41.5967,260.714,-0.758318
41.5983,260.731,-0.758356
41.6,260.747,-0.758394
41.6017,260.764,-0.758432
41.6033,260.78,-0.758468
41.605,260.797,-0.758516
41.6067,260.813,-0.758567
41.6083,260.83,-0.758622
41.61,260.847,-0.758682
41.6117,260.863,-0.758747
41.6133,260.88,-0.758818
41.615,260.897,-0.758885
41.6167,260.913,-0.75896
41.6183,260.93,-0.759081
41.62,260.947,-0.759189
41.6217,260.963,-0.759259
41.6233,260.98,-0.759318
41.625,260.997,-0.759379
41.6267,261.013,-0.759431
41.6283,261.03,-0.759479
41.63,261.047,-0.759511
41.6317,261.063,-0.75953
41.6333,261.08,-0.75955
41.635,261.096,-0.759566
41.6367,261.113,-0.759582
41.6383,261.129,-0.759602
41.64,261.146,-0.759633
41.6417,261.163,-0.759674
41.6433,261.179,-0.759714
41.645,261.196,-0.75975
41.6467,261.213,-0.759795
41.6483,261.229,-0.759837
41.65,261.246,-0.759887
41.6517,261.262,-0.75993
41.6533,261.279,-0.759977
41.655,261.296,-0.760026
41.6567,261.312,-0.760076
41.6583,261.329,-0.760134
41.66,261.346,-0.76019
41.6617,261.362,-0.760237
41.6633,261.379,-0.760282
41.665,261.396,-0.760327
41.6667,261.413,-0.760365
41.6683,261.429,-0.760404
41.67,261.446,-0.76044
41.6717,261.462,-0.760485
41.6733,261.479,-0.760529
41.675,261.495,-0.760575
41.6767,261.512,-0.760624
41.6783,261.529,-0.760673
41.68,261.545,-0.760727
41.6817,261.562,-0.76079
41.6833,261.578,-0.760855
41.685,261.595,-0.760921
41.6867,261.612,-0.760984
41.6883,261.628,-0.761041
41.69,261.645,-0.761095
41.6917,261.662,-0.761139
41.6933,261.678,-0.761172
41.695,261.695,-0.761204
41.6967,261.711,-0.761236
41.6983,261.728,-0.761269
41.7,261.745,-0.761305
41.7017,261.762,-0.761344
41.7033,261.778,-0.761389
41.705,261.795,-0.761441
41.7067,261.811,-0.76149
41.7083,261.828,-0.761533
41.71,261.845,-0.761574
41.7117,261.861,-0.761611
41.7133,261.878,-0.761646
41.715,261.894,-0.761688
41.7167,261.911,-0.761731
41.7183,261.928,-0.761767
41.72,261.944,-0.761807
41.7217,261.961,-0.761851
41.7233,261.977,-0.761899
41.725,261.994,-0.761947
41.7267,262.011,-0.761996
41.7283,262.027,-0.762041
41.73,262.044,-0.762081
41.7317,262.061,-0.762119
41.7333,262.077,-0.762157
41.735,262.094,-0.762194
41.7367,262.111,-0.762229
41.7383,262.127,-0.762262
41.74,262.144,-0.762296
41.7417,262.16,-0.762325
41.7433,262.177,-0.762359
41.745,262.194,-0.762394
41.7467,262.211,-0.762431
41.7483,262.228,-0.762468
41.75,262.244,-0.762504
41.7517,262.26,-0.762549
41.7533,262.277,-0.762593
41.755,262.293,-0.762642
41.7567,262.31,-0.762691
41.7583,262.327,-0.762738
41.76,262.344,-0.762788
41.7617,262.36,-0.762839
41.7633,262.377,-0.762887
41.765,262.394,-0.762932
41.7667,262.41,-0.762976
41.7683,262.427,-0.763018
41.77,262.443,-0.763061
41.7717,262.46,-0.763101
41.7733,262.476,-0.763131
41.775,262.493,-0.763162
41.7767,262.51,-0.763188
41.7783,262.527,-0.763221
41.78,262.543,-0.763251
41.7817,262.56,-0.76327
41.7833,262.576,-0.763284
41.785,262.593,-0.7633
41.7867,262.609,-0.763322
41.7883,262.626,-0.763339
41.79,262.643,-0.763355
41.7917,262.66,-0.763371
41.7933,262.676,-0.7634
41.795,262.693,-0.763432
41.7967,262.71,-0.763471
41.7983,262.727,-0.763513
41.8,262.743,-0.763567
41.8017,262.76,-0.763627
41.8033,262.776,-0.7637
41.805,262.793,-0.763765
41.8067,262.81,-0.763827
41.8083,262.826,-0.763887
41.81,262.843,-0.763945
41.8117,262.859,-0.763999
41.8133,262.876,-0.764043
41.815,262.893,-0.764074
41.8167,262.909,-0.764096
41.8183,262.926,-0.76412
41.82,262.943,-0.764144
41.8217,262.959,-0.764169
41.8233,262.976,-0.764196
41.825,262.992,-0.764223
41.8267,263.009,-0.764246
41.8283,263.026,-0.764274
41.83,263.043,-0.764307
41.8317,263.059,-0.764344
41.8333,263.076,-0.764383
41.835,263.092,-0.764411
41.8367,263.109,-0.764441
41.8383,263.126,-0.764469
41.84,263.142,-0.764507
41.8417,263.159,-0.764558
41.8433,263.176,-0.764609
41.845,263.192,-0.764655
41.8467,263.209,-0.764694
41.8483,263.226,-0.764735
41.85,263.243,-0.764765
41.8517,263.259,-0.764784
41.8533,263.275,-0.764801
41.855,263.292,-0.764811
41.8567,263.309,-0.764821
41.8583,263.325,-0.76484
41.86,263.342,-0.764861
41.8617,263.359,-0.764887
41.8633,263.375,-0.764917
41.865,263.392,-0.764949
41.8667,263.408,-0.764992
41.8683,263.425,-0.765038
41.87,263.441,-0.765076
41.8717,263.458,-0.765109
41.8733,263.474,-0.76514
41.875,263.491,-0.765172
41.8767,263.508,-0.765204
41.8783,263.524,-0.765233
41.88,263.541,-0.765264
41.8817,263.558,-0.7653
41.8833,263.574,-0.765333
41.885,263.591,-0.765372
41.8867,263.608,-0.765419
41.8883,263.625,-0.765462
41.89,263.641,-0.765504
41.8917,263.658,-0.765535
41.8933,263.675,-0.76556
41.895,263.691,-0.765585
41.8967,263.708,-0.765611
41.8983,263.724,-0.765628
41.9,263.741,-0.76565
41.9017,263.757,-0.76567
41.9033,263.774,-0.76569
41.905,263.791,-0.765719
41.9067,263.807,-0.765753
41.9083,263.824,-0.765798
41.91,263.841,-0.765843
41.9117,263.857,-0.765889
41.9133,263.874,-0.765935
41.915,263.891,-0.765984
41.9167,263.907,-0.766027
41.9183,263.924,-0.766058
41.92,263.94,-0.766082
41.9217,263.957,-0.7661
41.9233,263.974,-0.766113
41.925,263.991,-0.766124
41.9267,264.007,-0.766137
41.9283,264.024,-0.766146
41.93,264.04,-0.766144
41.9317,264.056,-0.766145
41.9333,264.073,-0.76615
41.935,264.089,-0.766162
41.9367,264.106,-0.766165
41.9383,264.122,-0.766169
41.94,264.138,-0.766174
41.9417,264.155,-0.766184
41.9433,264.172,-0.766194
41.945,264.189,-0.766199
41.9467,264.206,-0.76621
41.9483,264.222,-0.766215
41.95,264.239,-0.766223
41.9517,264.256,-0.766243
41.9533,264.272,-0.766271
41.955,264.289,-0.766289
41.9567,264.305,-0.766312
41.9583,264.322,-0.766347
41.96,264.339,-0.766389
41.9617,264.355,-0.766436
41.9633,264.372,-0.766479
41.965,264.389,-0.766529
41.9667,264.406,-0.766579
41.9683,264.422,-0.766624
41.97,264.439,-0.766667
41.9717,264.455,-0.7667
41.9733,264.472,-0.766736
41.975,264.488,-0.766775
41.9767,264.505,-0.766811
41.9783,264.522,-0.76685
41.98,264.538,-0.766883
41.9817,264.555,-0.766913
41.9833,264.572,-0.766946
41.985,264.588,-0.766975
41.9867,264.605,-0.767003
41.9883,264.622,-0.767023
41.99,264.639,-0.767035
41.9917,264.655,-0.767046
41.9933,264.672,-0.767052
41.995,264.688,-0.767065
41.9967,264.704,-0.767077
41.9983,264.721,-0.767084
42,264.738,-0.767092
42.0017,264.754,-0.767111
42.0033,264.771,-0.767133
42.005,264.788,-0.767155
42.0067,264.805,-0.767179
42.0083,264.821,-0.767207
42.01,264.838,-0.767241
42.0117,264.854,-0.767271
42.0133,264.871,-0.767298
42.015,264.888,-0.76732
42.0167,264.905,-0.767339
42.0183,264.921,-0.767355
42.02,264.938,-0.767373
42.0217,264.954,-0.767396
42.0233,264.971,-0.767419
42.025,264.988,-0.767447
42.0267,265.004,-0.767484
42.0283,265.021,-0.767527
42.03,265.038,-0.767579
42.0317,265.054,-0.767621
42.0333,265.071,-0.767656
42.035,265.087,-0.767692
42.0367,265.104,-0.767725
42.0383,265.121,-0.767746
42.04,265.138,-0.76776
42.0417,265.154,-0.767774
42.0433,265.171,-0.767784
42.045,265.188,-0.76779
42.0467,265.204,-0.767795
42.0483,265.221,-0.767808
42.05,265.237,-0.76783
42.0517,265.254,-0.767864
42.0533,265.271,-0.767904
42.055,265.288,-0.767948
42.0567,265.304,-0.767992
42.0583,265.321,-0.768034
42.06,265.338,-0.768075
42.0617,265.354,-0.768116
42.0633,265.371,-0.768148
42.065,265.388,-0.768168
42.0667,265.404,-0.768176
42.0683,265.42,-0.768185
42.07,265.437,-0.768205
42.0717,265.454,-0.76823
42.0733,265.47,-0.768265
42.075,265.487,-0.768314
42.0767,265.504,-0.76836
42.0783,265.521,-0.768402
42.08,265.537,-0.768448
42.0817,265.554,-0.768495
42.0833,265.57,-0.768538
42.085,265.587,-0.76857
42.0867,265.604,-0.76859
42.0883,265.62,-0.768609
42.09,265.637,-0.768628
42.0917,265.653,-0.768651
42.0933,265.67,-0.768676
42.095,265.687,-0.7687
42.0967,265.703,-0.768713
42.0983,265.72,-0.768724
42.1,265.737,-0.768742
42.1017,265.753,-0.768763
42.1033,265.77,-0.768789
42.105,265.787,-0.768814
42.1067,265.803,-0.768826
42.1083,265.82,-0.768832
42.11,265.836,-0.768842
42.1117,265.853,-0.768851
42.1133,265.87,-0.768863
42.115,265.887,-0.768871
42.1167,265.903,-0.768877
42.1183,265.92,-0.768892
42.12,265.936,-0.768913
42.1217,265.953,-0.768947
42.1233,265.969,-0.768995
42.125,265.986,-0.769074
42.1267,266.003,-0.769166
42.1283,266.02,-0.769262
42.13,266.037,-0.769314
42.1317,266.053,-0.769365
42.1333,266.07,-0.769399
42.135,266.086,-0.769425
42.1367,266.103,-0.769438
42.1383,266.12,-0.769436
42.14,266.136,-0.769428
42.1417,266.153,-0.769423
42.1433,266.169,-0.76943
42.145,266.186,-0.769434
42.1467,266.203,-0.769443
42.1483,266.22,-0.769448
42.15,266.236,-0.769461
42.1517,266.253,-0.769484
42.1533,266.269,-0.769512
42.155,266.286,-0.769539
42.1567,266.303,-0.769561
42.1583,266.319,-0.769586
42.16,266.336,-0.769614
42.1617,266.353,-0.769649
42.1633,266.369,-0.769682
42.165,266.385,-0.769711
42.1667,266.403,-0.769742
42.1683,266.419,-0.769769
42.17,266.436,-0.769804
42.1717,266.452,-0.769834
42.1733,266.469,-0.769861
42.175,266.486,-0.769891
42.1767,266.502,-0.769927
42.1783,266.519,-0.769968
42.18,266.536,-0.770011
42.1817,266.552,-0.77006
42.1833,266.569,-0.770114
42.185,266.586,-0.770162
42.1867,266.602,-0.770194
42.1883,266.619,-0.770219
42.19,266.636,-0.770237
42.1917,266.653,-0.770245
42.1933,266.669,-0.770247
42.195,266.686,-0.770252
42.1967,266.702,-0.770259
42.1983,266.719,-0.770271
42.2,266.735,-0.770288
42.2017,266.752,-0.770309
42.2033,266.769,-0.770335
42.205,266.786,-0.770364
42.2067,266.802,-0.770388
42.2083,266.819,-0.77041
42.21,266.836,-0.770433
42.2117,266.852,-0.770449
42.2133,266.869,-0.77046
42.215,266.885,-0.770471
42.2167,266.902,-0.770489
42.2183,266.919,-0.770511
42.22,266.935,-0.770533
42.2217,266.952,-0.770558
42.2233,266.968,-0.77059
42.225,266.985,-0.770617
42.2267,267.002,-0.770644
42.2283,267.019,-0.770677
42.23,267.035,-0.770712
42.2317,267.052,-0.770742
42.2333,267.068,-0.770761
42.235,267.085,-0.770777
42.2367,267.102,-0.770794
42.2383,267.118,-0.770799
42.24,267.135,-0.770803
42.2417,267.152,-0.770815
42.2433,267.168,-0.77082
42.245,267.185,-0.770835
42.2467,267.201,-0.770864
42.2483,267.218,-0.770899
42.25,267.235,-0.770944
42.2517,267.251,-0.770986
42.2533,267.268,-0.771023
42.255,267.285,-0.771059
42.2567,267.301,-0.771081
42.2583,267.318,-0.771096
42.26,267.335,-0.7711
42.2617,267.352,-0.771099
42.2633,267.368,-0.771094
42.265,267.385,-0.77109
42.2667,267.401,-0.771091
42.2683,267.418,-0.771098
42.27,267.435,-0.771117
42.2717,267.451,-0.771146
42.2733,267.468,-0.771183
42.275,267.484,-0.771226
42.2767,267.501,-0.771268
42.2783,267.518,-0.7713
42.28,267.534,-0.771318
42.2817,267.551,-0.771323
42.2833,267.568,-0.771322
42.285,267.584,-0.771329
42.2867,267.601,-0.77134
42.2883,267.618,-0.771353
42.29,267.635,-0.771374
42.2917,267.651,-0.7714
42.2933,267.668,-0.771438
42.295,267.684,-0.771476
42.2967,267.701,-0.771518
42.2983,267.718,-0.77155
42.3,267.735,-0.77157
42.3017,267.751,-0.771595
42.3033,267.768,-0.77162
42.305,267.784,-0.771641
42.3067,267.8,-0.771667
42.3083,267.817,-0.771693
42.31,267.834,-0.771717
42.3117,267.851,-0.771739
42.3133,267.867,-0.771772
42.315,267.884,-0.771801
42.3167,267.901,-0.771828
42.3183,267.917,-0.771848
42.32,267.934,-0.771866
42.3217,267.951,-0.771878
42.3233,267.968,-0.77189
42.325,267.984,-0.771902
42.3267,268.001,-0.771914
42.3283,268.017,-0.771924
42.33,268.034,-0.771935
42.3317,268.05,-0.771959
42.3333,268.067,-0.771982
42.335,268.084,-0.772013
42.3367,268.101,-0.77204
42.3383,268.117,-0.77206
42.34,268.134,-0.772082
42.3417,268.151,-0.772109
42.3433,268.167,-0.772136
42.345,268.184,-0.772156
42.3467,268.2,-0.772178
42.3483,268.217,-0.772208
42.35,268.234,-0.772232
42.3517,268.25,-0.772256
42.3533,268.267,-0.772286
42.355,268.284,-0.772317
42.3567,268.301,-0.77234
42.3583,268.317,-0.772354
42.36,268.334,-0.772364
42.3617,268.35,-0.772364
42.3633,268.367,-0.772362
42.365,268.383,-0.772353
42.3667,268.401,-0.772331
42.3683,268.417,-0.772315
42.37,268.434,-0.772306
42.3717,268.45,-0.772311
42.3733,268.467,-0.772321
42.375,268.484,-0.772333
42.3767,268.5,-0.772358
42.3783,268.517,-0.772383
42.38,268.534,-0.772413
42.3817,268.55,-0.772441
42.3833,268.566,-0.772464
42.385,268.583,-0.77249
42.3867,268.599,-0.772507
42.3883,268.616,-0.77253
42.39,268.633,-0.77255
42.3917,268.65,-0.772576
42.3933,268.666,-0.772602
42.395,268.683,-0.772629
42.3967,268.7,-0.772656
42.3983,268.716,-0.772685
42.4,268.733,-0.772717
42.4017,268.75,-0.772752
42.4033,268.766,-0.772791
42.405,268.783,-0.772839
42.4067,268.8,-0.77289
42.4083,268.816,-0.772944
42.41,268.833,-0.773001
42.4117,268.85,-0.773055
42.4133,268.867,-0.773096
42.415,268.883,-0.773126
42.4167,268.9,-0.773142
42.4183,268.916,-0.773139
42.42,268.933,-0.7731
42.4217,268.95,-0.773027
42.4233,268.966,-0.77298
42.425,268.983,-0.772934
42.4267,269,-0.772915
42.4283,269.016,-0.772906
42.43,269.033,-0.772904
42.4317,269.05,-0.772915
42.4333,269.067,-0.772937
42.435,269.083,-0.772966
42.4367,269.099,-0.773006
42.4383,269.116,-0.773047
42.44,269.133,-0.773089
42.4417,269.149,-0.773133
42.4433,269.166,-0.77318
42.445,269.183,-0.773233
42.4467,269.199,-0.773278
42.4483,269.216,-0.773316
42.45,269.233,-0.773337
42.4517,269.25,-0.773357
42.4533,269.266,-0.77338
42.455,269.283,-0.773395
42.4567,269.3,-0.773406
42.4583,269.317,-0.773416
42.46,269.334,-0.773425
42.4617,269.35,-0.773436
42.4633,269.367,-0.773454
42.465,269.383,-0.773469
42.4667,269.4,-0.773493
42.4683,269.417,-0.773511
42.47,269.434,-0.773522
42.4717,269.45,-0.773545
42.4733,269.467,-0.773567
42.475,269.484,-0.773595
42.4767,269.5,-0.77363
42.4783,269.517,-0.773668
42.48,269.533,-0.773713
42.4817,269.55,-0.77376
42.4833,269.566,-0.773808
42.485,269.583,-0.773851
42.4867,269.599,-0.773881
42.4883,269.616,-0.773905
42.49,269.633,-0.773926
42.4917,269.65,-0.773943
42.4933,269.666,-0.773949
42.495,269.683,-0.773956
42.4967,269.699,-0.773971
42.4983,269.716,-0.773984
42.5,269.732,-0.774004
42.5017,269.749,-0.774031
42.5033,269.766,-0.774051
42.505,269.783,-0.774068
42.5067,269.799,-0.774081
42.5083,269.816,-0.774102
42.51,269.833,-0.774131
42.5117,269.849,-0.774159
42.5133,269.866,-0.774182
42.515,269.883,-0.774204
42.5167,269.9,-0.774231
42.5183,269.916,-0.774262
42.52,269.933,-0.77429
42.5217,269.949,-0.774308
42.5233,269.966,-0.774325
42.525,269.983,-0.774345
42.5267,269.999,-0.774361
42.5283,270.016,-0.774381
42.53,270.032,-0.774397
42.5317,270.049,-0.774418
42.5333,270.065,-0.774439
42.535,270.082,-0.774463
42.5367,270.099,-0.774495
42.5383,270.115,-0.774525
42.54,270.132,-0.774549
42.5417,270.149,-0.774576
42.5433,270.165,-0.77461
42.545,270.182,-0.774642
42.5467,270.199,-0.774666
42.5483,270.216,-0.774683
42.55,270.232,-0.774689
42.5517,270.249,-0.774686
42.5533,270.266,-0.774683
42.555,270.283,-0.774685
42.5567,270.299,-0.774687
42.5583,270.316,-0.774688
42.56,270.332,-0.774687
42.5617,270.349,-0.774695
42.5633,270.366,-0.774713
42.565,270.382,-0.774739
42.5667,270.399,-0.774772
42.5683,270.415,-0.774805
42.57,270.432,-0.774845
42.5717,270.448,-0.774881
42.5733,270.465,-0.774911
42.575,270.482,-0.774937
42.5767,270.499,-0.77496
42.5783,270.515,-0.774978
42.58,270.532,-0.774986
42.5817,270.548,-0.774993
42.5833,270.565,-0.775002
42.585,270.581,-0.775006
42.5867,270.599,-0.77502
42.5883,270.615,-0.775031
42.59,270.631,-0.775035
42.5917,270.648,-0.775039
42.5933,270.665,-0.775041
42.595,270.681,-0.775045
42.5967,270.698,-0.775051
42.5983,270.714,-0.775062
42.6,270.732,-0.775079
42.6017,270.748,-0.775108
42.6033,270.765,-0.775135
42.605,270.781,-0.775165
42.6067,270.798,-0.775201
42.6083,270.815,-0.775243
42.61,270.831,-0.775282
42.6117,270.848,-0.775311
42.6133,270.864,-0.775339
42.615,270.881,-0.775366
42.6167,270.898,-0.775381
42.6183,270.914,-0.775398
42.62,270.931,-0.775419
42.6217,270.948,-0.775433
42.6233,270.965,-0.77545
42.625,270.981,-0.775469
42.6267,270.998,-0.775485
42.6283,271.014,-0.775506
42.63,271.031,-0.775518
42.6317,271.048,-0.775531
42.6333,271.065,-0.775544
42.635,271.082,-0.775565
42.6367,271.098,-0.775592
42.6383,271.115,-0.775626
42.64,271.131,-0.77566
42.6417,271.148,-0.775696
42.6433,271.164,-0.775733
42.645,271.181,-0.775767
42.6467,271.197,-0.775795
42.6483,271.214,-0.775824
42.65,271.231,-0.775846
42.6517,271.248,-0.775867
42.6533,271.264,-0.775891
42.655,271.281,-0.775909
42.6567,271.298,-0.775935
42.6583,271.314,-0.77596
42.66,271.331,-0.775991
42.6617,271.348,-0.776019
42.6633,271.365,-0.776044
42.665,271.381,-0.776067
42.6667,271.398,-0.776086
42.6683,271.414,-0.776104
42.67,271.431,-0.776125
42.6717,271.448,-0.776146
42.6733,271.464,-0.776166
42.675,271.481,-0.776188
42.6767,271.498,-0.776218
42.6783,271.515,-0.776252
42.68,271.531,-0.776289
42.6817,271.547,-0.776336
42.6833,271.564,-0.776379
42.685,271.581,-0.776426
42.6867,271.598,-0.776468
42.6883,271.614,-0.7765
42.69,271.631,-0.776531
42.6917,271.647,-0.776559
42.6933,271.664,-0.776588
42.695,271.681,-0.776612
42.6967,271.697,-0.776634
42.6983,271.714,-0.776651
42.7,271.73,-0.776668
42.7017,271.747,-0.776689
42.7033,271.764,-0.776714
42.705,271.78,-0.776738
42.7067,271.797,-0.776755
42.7083,271.814,-0.776767
42.71,271.83,-0.776782
42.7117,271.847,-0.776802
42.7133,271.864,-0.776827
42.715,271.881,-0.776853
42.7167,271.897,-0.776874
42.7183,271.914,-0.776897
42.72,271.931,-0.776925
42.7217,271.947,-0.776949
42.7233,271.964,-0.776965
42.725,271.98,-0.776973
42.7267,271.997,-0.776984
42.7283,272.013,-0.776997
42.73,272.03,-0.777012
42.7317,272.047,-0.777039
42.7333,272.063,-0.777066
42.735,272.08,-0.777085
42.7367,272.097,-0.777104
42.7383,272.113,-0.777118
42.74,272.13,-0.777124
42.7417,272.147,-0.777128
42.7433,272.164,-0.777134
42.745,272.18,-0.777136
42.7467,272.197,-0.777125
42.7483,272.214,-0.777122
42.75,272.23,-0.777121
42.7517,272.247,-0.777124
42.7533,272.263,-0.777136
42.755,272.28,-0.777153
42.7567,272.297,-0.777174
42.7583,272.313,-0.777204
42.76,272.33,-0.777232
42.7617,272.347,-0.777255
42.7633,272.363,-0.777276
42.765,272.38,-0.7773
42.7667,272.397,-0.777315
42.7683,272.413,-0.777327
42.77,272.43,-0.777335
42.7717,272.446,-0.777335
42.7733,272.463,-0.77734
42.775,272.48,-0.777351
42.7767,272.496,-0.777367
42.7783,272.513,-0.777389
42.78,272.53,-0.777403
42.7817,272.546,-0.777412
42.7833,272.563,-0.777423
42.785,272.58,-0.777438
42.7867,272.596,-0.777458
42.7883,272.613,-0.777472
42.79,272.63,-0.777477
42.7917,272.646,-0.777482
42.7933,272.663,-0.777496
42.795,272.68,-0.777516
42.7967,272.696,-0.777538
42.7983,272.713,-0.777557
42.8,272.729,-0.77758
42.8017,272.747,-0.777608
42.8033,272.763,-0.777644
42.805,272.78,-0.777689
42.8067,272.796,-0.777733
42.8083,272.813,-0.777774
42.81,272.829,-0.777809
42.8117,272.846,-0.777844
42.8133,272.862,-0.777873
42.815,272.879,-0.777895
42.8167,272.896,-0.777912
42.8183,272.913,-0.777921
42.82,272.929,-0.777936
42.8217,272.946,-0.777947
42.8233,272.963,-0.777954
42.825,272.979,-0.777958
42.8267,272.996,-0.777968
42.8283,273.012,-0.777984
42.83,273.029,-0.777999
42.8317,273.046,-0.778025
42.8333,273.062,-0.778061
42.835,273.079,-0.778106
42.8367,273.096,-0.778151
42.8383,273.112,-0.778203
42.84,273.129,-0.778248
42.8417,273.146,-0.778289
42.8433,273.162,-0.778327
42.845,273.179,-0.778354
42.8467,273.196,-0.778374
42.8483,273.213,-0.778384
42.85,273.229,-0.778388
42.8517,273.245,-0.77839
42.8533,273.262,-0.778393
42.855,273.278,-0.778403
42.8567,273.295,-0.778413
42.8583,273.312,-0.778427
42.86,273.329,-0.778447
42.8617,273.345,-0.778476
42.8633,273.362,-0.778508
42.865,273.379,-0.778541
42.8667,273.395,-0.778569
42.8683,273.412,-0.778597
42.87,273.429,-0.778628
42.8717,273.446,-0.778659
42.8733,273.462,-0.778691
42.875,273.479,-0.778714
42.8767,273.496,-0.778736
42.8783,273.512,-0.778758
42.88,273.529,-0.778787
42.8817,273.545,-0.778815
42.8833,273.562,-0.778845
42.885,273.578,-0.778869
42.8867,273.595,-0.778892
42.8883,273.612,-0.778905
42.89,273.628,-0.778912
42.8917,273.645,-0.77892
42.8933,273.661,-0.778936
42.895,273.678,-0.778945
42.8967,273.695,-0.778953
42.8983,273.712,-0.778958
42.9,273.728,-0.778967
42.9017,273.745,-0.778979
42.9033,273.762,-0.778993
42.905,273.779,-0.779011
42.9067,273.795,-0.77903
42.9083,273.812,-0.779045
42.91,273.829,-0.779058
42.9117,273.845,-0.779067
42.9133,273.862,-0.779069
42.915,273.878,-0.779068
42.9167,273.895,-0.779071
42.9183,273.912,-0.779075
42.92,273.928,-0.779095
42.9217,273.945,-0.779125
42.9233,273.962,-0.779166
42.925,273.978,-0.779211
42.9267,273.995,-0.77931
42.9283,274.012,-0.779464
42.93,274.028,-0.779653
42.9317,274.045,-0.779782
42.9333,274.061,-0.779849
42.935,274.078,-0.779897
42.9367,274.095,-0.779937
42.9383,274.111,-0.77997
42.94,274.128,-0.779986
42.9417,274.145,-0.779996
42.9433,274.161,-0.779998
42.945,274.178,-0.779996
42.9467,274.195,-0.779992
42.9483,274.212,-0.779993
42.95,274.229,-0.779994
42.9517,274.245,-0.779999
42.9533,274.261,-0.780017
42.955,274.278,-0.780038
42.9567,274.295,-0.780065
42.9583,274.311,-0.780095
42.96,274.328,-0.78012
42.9617,274.344,-0.780148
42.9633,274.361,-0.780174
42.965,274.378,-0.780196
42.9667,274.394,-0.780211
42.9683,274.41,-0.780222
42.97,274.427,-0.780235
42.9717,274.444,-0.780253
42.9733,274.461,-0.780275
42.975,274.477,-0.780298
42.9767,274.494,-0.780322
42.9783,274.51,-0.780344
42.98,274.527,-0.780372
42.9817,274.544,-0.780412
42.9833,274.561,-0.780447
42.985,274.578,-0.780481
42.9867,274.594,-0.78051
42.9883,274.611,-0.780537
42.99,274.627,-0.78057
42.9917,274.644,-0.780607
42.9933,274.661,-0.780646
42.995,274.677,-0.780685
42.9967,274.694,-0.780733
42.9983,274.711,-0.780775
43,274.728,-0.780816
43.0017,274.744,-0.780856
43.0033,274.76,-0.780885
43.005,274.777,-0.780902
43.0067,274.794,-0.780906
43.0083,274.811,-0.780909
43.01,274.827,-0.780909
43.0117,274.844,-0.780917
43.0133,274.86,-0.780932
43.015,274.877,-0.780948
43.0167,274.894,-0.780967
43.0183,274.911,-0.780997
43.02,274.928,-0.781021
43.0217,274.944,-0.78105
43.0233,274.96,-0.781078
43.025,274.977,-0.7811
43.0267,274.994,-0.781114
43.0283,275.01,-0.78113
43.03,275.027,-0.781146
43.0317,275.044,-0.781156
43.0333,275.061,-0.781165
43.035,275.077,-0.781177
43.0367,275.094,-0.781196
43.0383,275.111,-0.781214
43.04,275.127,-0.781236
43.0417,275.144,-0.781256
43.0433,275.16,-0.781274
43.045,275.177,-0.781295
43.0467,275.194,-0.781322
43.0483,275.21,-0.781345
43.05,275.227,-0.781367
43.0517,275.243,-0.781392
43.0533,275.26,-0.781415
43.055,275.277,-0.781446
43.0567,275.293,-0.781475
43.0583,275.31,-0.781505
43.06,275.326,-0.781535
43.0617,275.343,-0.781569
43.0633,275.36,-0.781601
43.065,275.377,-0.781636
43.0667,275.393,-0.781676
43.0683,275.41,-0.781704
43.07,275.427,-0.781726
43.0717,275.443,-0.781755
43.0733,275.46,-0.781781
43.075,275.477,-0.781804
43.0767,275.493,-0.781825
43.0783,275.51,-0.781844
43.08,275.527,-0.781861
43.0817,275.543,-0.781874
43.0833,275.56,-0.781887
43.085,275.576,-0.781898
43.0867,275.593,-0.781912
43.0883,275.61,-0.781922
43.09,275.627,-0.781934
43.0917,275.643,-0.781943
43.0933,275.66,-0.781959
43.095,275.677,-0.781979
43.0967,275.694,-0.782009
43.0983,275.71,-0.782044
43.1,275.727,-0.782074
43.1017,275.743,-0.782104
43.1033,275.76,-0.782137
43.105,275.777,-0.782178
43.1067,275.794,-0.782209
43.1083,275.81,-0.782244
43.11,275.827,-0.782283
43.1117,275.844,-0.782317
43.1133,275.86,-0.782349
43.115,275.877,-0.782379
43.1167,275.893,-0.782403
43.1183,275.91,-0.782421
43.12,275.927,-0.782439
43.1217,275.943,-0.782461
43.1233,275.959,-0.782476
43.125,275.976,-0.782497
43.1267,275.994,-0.782519
43.1283,276.01,-0.782547
43.13,276.027,-0.782576
43.1317,276.043,-0.782613
43.1333,276.06,-0.782645
43.135,276.077,-0.782674
43.1367,276.094,-0.782706
43.1383,276.11,-0.782737
43.14,276.127,-0.782766
43.1417,276.143,-0.782793
43.1433,276.16,-0.78282
43.145,276.177,-0.782856
43.1467,276.193,-0.782894
43.1483,276.21,-0.782926
43.15,276.227,-0.782961
43.1517,276.243,-0.782997
43.1533,276.26,-0.783027
43.155,276.276,-0.783067
43.1567,276.293,-0.783099
43.1583,276.31,-0.783129
43.16,276.326,-0.783154
43.1617,276.344,-0.783184
43.1633,276.36,-0.783216
43.165,276.377,-0.783241
43.1667,276.393,-0.783252
43.1683,276.41,-0.783267
43.17,276.427,-0.783281
43.1717,276.443,-0.783293
43.1733,276.46,-0.783305
43.175,276.476,-0.783318
43.1767,276.493,-0.783331
43.1783,276.51,-0.783349
43.18,276.526,-0.783368
43.1817,276.543,-0.783388
43.1833,276.56,-0.783415
43.185,276.576,-0.783444
43.1867,276.593,-0.783475
43.1883,276.61,-0.783503
43.19,276.626,-0.783523
43.1917,276.643,-0.783544
43.1933,276.659,-0.783568
43.195,276.676,-0.783591
43.1967,276.693,-0.783611
43.1983,276.71,-0.783631
43.2,276.726,-0.783656
43.2017,276.743,-0.783681
43.2033,276.76,-0.783707
43.205,276.776,-0.783739
43.2067,276.793,-0.783768
43.2083,276.809,-0.783794
43.21,276.826,-0.783826
43.2117,276.843,-0.783856
43.2133,276.859,-0.783885
43.215,276.876,-0.783906
43.2167,276.892,-0.783923
43.2183,276.909,-0.783938
43.22,276.925,-0.783951
43.2217,276.942,-0.783958
43.2233,276.959,-0.783962
43.225,276.976,-0.783963
43.2267,276.992,-0.783965
43.2283,277.009,-0.783977
43.23,277.026,-0.783994
43.2317,277.042,-0.784018
43.2333,277.059,-0.784052
43.235,277.076,-0.784093
43.2367,277.092,-0.784136
43.2383,277.109,-0.784175
43.24,277.125,-0.784222
43.2417,277.142,-0.784269
43.2433,277.159,-0.784316
43.245,277.175,-0.784361
43.2467,277.192,-0.784397
43.2483,277.209,-0.784429
43.25,277.225,-0.784452
43.2517,277.242,-0.784474
43.2533,277.259,-0.784506
43.255,277.276,-0.784532
43.2567,277.292,-0.784559
43.2583,277.309,-0.784584
43.26,277.325,-0.784612
43.2617,277.342,-0.784637
43.2633,277.359,-0.784665
43.265,277.375,-0.784688
43.2667,277.392,-0.784705
43.2683,277.409,-0.784719
43.27,277.426,-0.784728
43.2717,277.442,-0.784733
43.2733,277.459,-0.784742
43.275,277.476,-0.784751
43.2767,277.492,-0.784768
43.2783,277.509,-0.784782
43.28,277.525,-0.78481
43.2817,277.542,-0.784838
43.2833,277.559,-0.784869
43.285,277.576,-0.784905
43.2867,277.592,-0.784948
43.2883,277.609,-0.784989
43.29,277.626,-0.785028
43.2917,277.642,-0.785064
43.2933,277.659,-0.785094
43.295,277.676,-0.785119
43.2967,277.692,-0.785138
43.2983,277.709,-0.785157
43.3,277.726,-0.785175
43.3017,277.742,-0.78519
43.3033,277.759,-0.785209
43.305,277.776,-0.785225
43.3067,277.793,-0.785239
43.3083,277.809,-0.785263
43.31,277.826,-0.785277
43.3117,277.842,-0.785296
43.3133,277.859,-0.785314
43.315,277.875,-0.785327
43.3167,277.892,-0.785354
43.3183,277.909,-0.785391
43.32,277.926,-0.785426
43.3217,277.943,-0.785461
43.3233,277.959,-0.785495
43.325,277.976,-0.785528
43.3267,277.993,-0.78555
43.3283,278.009,-0.785565
43.33,278.026,-0.785582
43.3317,278.043,-0.785592
43.3333,278.059,-0.785604
43.335,278.076,-0.785628
43.3367,278.093,-0.785669
43.3383,278.109,-0.785717
43.34,278.126,-0.785762
43.3417,278.142,-0.785806
43.3433,278.159,-0.785846
43.345,278.176,-0.785887
43.3467,278.193,-0.785928
43.3483,278.209,-0.785967
43.35,278.226,-0.786004
43.3517,278.242,-0.78604
43.3533,278.259,-0.786072
43.355,278.276,-0.786099
43.3567,278.292,-0.786129
43.3583,278.309,-0.786157
43.36,278.326,-0.786191
43.3617,278.342,-0.786219
43.3633,278.359,-0.78625
43.365,278.376,-0.786286
43.3667,278.393,-0.786327
43.3683,278.409,-0.786372
43.37,278.426,-0.786413
43.3717,278.442,-0.786456
43.3733,278.459,-0.786498
43.375,278.476,-0.786529
43.3767,278.492,-0.78655
43.3783,278.509,-0.786564
43.38,278.526,-0.786575
43.3817,278.542,-0.78659
43.3833,278.559,-0.786608
43.385,278.575,-0.786638
43.3867,278.592,-0.786676
43.3883,278.608,-0.786724
43.39,278.625,-0.786779
43.3917,278.642,-0.786833
43.3933,278.658,-0.786876
43.395,278.675,-0.78691
43.3967,278.692,-0.786932
43.3983,278.708,-0.786948
43.4,278.725,-0.786965
43.4017,278.742,-0.786979
43.4033,278.759,-0.786994
43.405,278.776,-0.787009
43.4067,278.792,-0.78703
43.4083,278.809,-0.787058
43.41,278.825,-0.787084
43.4117,278.842,-0.787108
43.4133,278.859,-0.787138
43.415,278.875,-0.787171
43.4167,278.892,-0.787207
43.4183,278.909,-0.787238
43.42,278.925,-0.787265
43.4217,278.942,-0.787292
43.4233,278.959,-0.787318
43.425,278.975,-0.787341
43.4267,278.992,-0.787368
43.4283,279.009,-0.787389
43.43,279.025,-0.787403
43.4317,279.042,-0.787416
43.4333,279.059,-0.787429
43.435,279.075,-0.787439
43.4367,279.092,-0.78744
43.4383,279.109,-0.787435
43.44,279.125,-0.787435
43.4417,279.142,-0.78745
43.4433,279.159,-0.787463
43.445,279.175,-0.787481
43.4467,279.192,-0.787508
43.4483,279.209,-0.787539
43.45,279.225,-0.787579
43.4517,279.242,-0.787627
43.4533,279.258,-0.787678
43.455,279.275,-0.787723
43.4567,279.292,-0.787764
43.4583,279.309,-0.787795
43.46,279.325,-0.78782
43.4617,279.342,-0.78784
43.4633,279.358,-0.787862
43.465,279.375,-0.787887
43.4667,279.392,-0.787912
43.4683,279.409,-0.787932
43.47,279.425,-0.787947
43.4717,279.442,-0.787958
43.4733,279.458,-0.787974
43.475,279.475,-0.787997
43.4767,279.492,-0.78802
43.4783,279.509,-0.788043
43.48,279.525,-0.788074
43.4817,279.542,-0.788102
43.4833,279.558,-0.788129
43.485,279.575,-0.78816
43.4867,279.592,-0.78819
43.4883,279.608,-0.78821
43.49,279.625,-0.788234
43.4917,279.641,-0.788264
43.4933,279.658,-0.7883
43.495,279.675,-0.788333
43.4967,279.692,-0.788356
43.4983,279.708,-0.788382
43.5,279.725,-0.788408
43.5017,279.742,-0.78843
43.5033,279.758,-0.788447
43.505,279.775,-0.788457
43.5067,279.792,-0.788469
43.5083,279.808,-0.788477
43.51,279.825,-0.788485
43.5117,279.841,-0.788502
43.5133,279.858,-0.788528
43.515,279.875,-0.788555
43.5167,279.891,-0.7886
43.5183,279.908,-0.78864
43.52,279.925,-0.788683
43.5217,279.942,-0.788719
43.5233,279.959,-0.788754
43.525,279.975,-0.788781
43.5267,279.992,-0.788799
43.5283,280.008,-0.788813
43.53,280.025,-0.788818
43.5317,280.042,-0.788827
43.5333,280.058,-0.788839
43.535,280.075,-0.788855
43.5367,280.092,-0.788873
43.5383,280.108,-0.788901
43.54,280.125,-0.788928
43.5417,280.141,-0.788951
43.5433,280.158,-0.788977
43.545,280.175,-0.78901
43.5467,280.191,-0.78905
43.5483,280.208,-0.789089
43.55,280.225,-0.789127
43.5517,280.241,-0.789157
43.5533,280.258,-0.789194
43.555,280.275,-0.789226
43.5567,280.292,-0.789251
43.5583,280.309,-0.789279
43.56,280.325,-0.789301
43.5617,280.341,-0.789314
43.5633,280.358,-0.789322
43.565,280.375,-0.789326
43.5667,280.391,-0.789329
43.5683,280.408,-0.789336
43.57,280.424,-0.789344
43.5717,280.441,-0.789364
43.5733,280.458,-0.789382
43.575,280.474,-0.789396
43.5767,280.491,-0.789419
43.5783,280.508,-0.789451
43.58,280.524,-0.78949
43.5817,280.541,-0.789532
43.5833,280.558,-0.789586
43.585,280.575,-0.789667
43.5867,280.591,-0.789746
43.5883,280.608,-0.789827
43.59,280.625,-0.789885
43.5917,280.641,-0.78994
43.5933,280.658,-0.789991
43.595,280.675,-0.790032
43.5967,280.692,-0.790071
43.5983,280.708,-0.790108
43.6,280.725,-0.790142
43.6017,280.741,-0.790177
43.6033,280.758,-0.790214
43.605,280.774,-0.790257
43.6067,280.791,-0.790291
43.6083,280.808,-0.79032
43.61,280.824,-0.79035
43.6117,280.841,-0.790383
43.6133,280.858,-0.790421
43.615,280.874,-0.790456
43.6167,280.891,-0.790495
43.6183,280.908,-0.790523
43.62,280.924,-0.790554
43.6217,280.941,-0.790578
43.6233,280.958,-0.790603
43.625,280.975,-0.790629
43.6267,280.991,-0.790654
43.6283,281.008,-0.790676
43.63,281.024,-0.790702
43.6317,281.041,-0.790724
43.6333,281.058,-0.790743
43.635,281.075,-0.790755
43.6367,281.091,-0.790778
43.6383,281.108,-0.790803
43.64,281.124,-0.790823
43.6417,281.141,-0.790845
43.6433,281.158,-0.790859
43.645,281.174,-0.790879
43.6467,281.191,-0.790905
43.6483,281.208,-0.790931
43.65,281.224,-0.790962
43.6517,281.241,-0.790976
43.6533,281.257,-0.790989
43.655,281.274,-0.791015
43.6567,281.291,-0.791046
43.6583,281.308,-0.791076
43.66,281.324,-0.791109
43.6617,281.341,-0.791138
43.6633,281.358,-0.791163
43.665,281.374,-0.791191
43.6667,281.391,-0.791227
43.6683,281.407,-0.791274
43.67,281.424,-0.791315
43.6717,281.441,-0.791355
43.6733,281.457,-0.791399
43.675,281.474,-0.791445
43.6767,281.49,-0.791488
43.6783,281.507,-0.79153
43.68,281.524,-0.791561
43.6817,281.54,-0.791574
43.6833,281.557,-0.791576
43.685,281.573,-0.791575
43.6867,281.59,-0.791577
43.6883,281.607,-0.791578
43.69,281.624,-0.79158
43.6917,281.641,-0.79158
43.6933,281.657,-0.791586
43.695,281.674,-0.791597
43.6967,281.69,-0.791617
43.6983,281.707,-0.791642
43.7,281.724,-0.791668
43.7017,281.741,-0.791697
43.7033,281.757,-0.791726
43.705,281.773,-0.791768
43.7067,281.79,-0.791803
43.7083,281.807,-0.79184
43.71,281.823,-0.791878
43.7117,281.839,-0.791923
43.7133,281.857,-0.79197
43.715,281.873,-0.79201
43.7167,281.89,-0.792041
43.7183,281.907,-0.79207
43.72,281.923,-0.792091
43.7217,281.94,-0.792102
43.7233,281.957,-0.792108
43.725,281.974,-0.792107
43.7267,281.99,-0.79209
43.7283,282.007,-0.792073
43.73,282.024,-0.792059
43.7317,282.04,-0.792052
43.7333,282.057,-0.792057
43.735,282.073,-0.792073
43.7367,282.09,-0.792097
43.7383,282.107,-0.792131
43.74,282.124,-0.792176
43.7417,282.14,-0.792229
43.7433,282.157,-0.792285
43.745,282.174,-0.792332
43.7467,282.19,-0.792364
43.7483,282.207,-0.792387
43.75,282.223,-0.7924
43.7517,282.24,-0.792405
43.7533,282.257,-0.792408
43.755,282.273,-0.792409
43.7567,282.29,-0.79242
43.7583,282.307,-0.792428
43.76,282.323,-0.792453
43.7617,282.339,-0.792481
43.7633,282.357,-0.792518
43.765,282.373,-0.792552
43.7667,282.39,-0.792586
43.7683,282.407,-0.792609
43.77,282.423,-0.792628
43.7717,282.44,-0.792644
43.7733,282.456,-0.792653
43.775,282.473,-0.792657
43.7767,282.489,-0.792661
43.7783,282.506,-0.792672
43.78,282.523,-0.79269
43.7817,282.54,-0.792721
43.7833,282.557,-0.792758
43.785,282.573,-0.792794
43.7867,282.59,-0.792823
43.7883,282.606,-0.79286
43.79,282.623,-0.792897
43.7917,282.64,-0.792933
43.7933,282.656,-0.792969
43.795,282.673,-0.792997
43.7967,282.689,-0.793023
43.7983,282.706,-0.793046
43.8,282.723,-0.793071
43.8017,282.74,-0.793093
43.8033,282.756,-0.793116
43.805,282.773,-0.793144
43.8067,282.789,-0.79317
43.8083,282.806,-0.793195
43.81,282.823,-0.793226
43.8117,282.839,-0.793256
43.8133,282.856,-0.793288
43.815,282.873,-0.793324
43.8167,282.889,-0.793355
43.8183,282.906,-0.793387
43.82,282.922,-0.793419
43.8217,282.939,-0.793455
43.8233,282.956,-0.79349
43.825,282.973,-0.793529
43.8267,282.989,-0.793567
43.8283,283.006,-0.793603
43.83,283.022,-0.793633
43.8317,283.039,-0.793653
43.8333,283.056,-0.793671
43.835,283.072,-0.793689
43.8367,283.089,-0.793706
43.8383,283.106,-0.793713
43.84,283.122,-0.793718
43.8417,283.139,-0.793729
43.8433,283.156,-0.793747
43.845,283.172,-0.793766
43.8467,283.189,-0.793787
43.8483,283.206,-0.793816
43.85,283.222,-0.793845
43.8517,283.239,-0.793871
43.8533,283.256,-0.793901
43.855,283.272,-0.793928
43.8567,283.289,-0.793957
43.8583,283.306,-0.793978
43.86,283.322,-0.793999
43.8617,283.338,-0.794015
43.8633,283.355,-0.794031
43.865,283.372,-0.794047
43.8667,283.388,-0.79406
43.8683,283.405,-0.794083
43.87,283.422,-0.794104
43.8717,283.439,-0.79412
43.8733,283.455,-0.794147
43.875,283.472,-0.794187
43.8767,283.489,-0.794236
43.8783,283.505,-0.794283
43.88,283.522,-0.794328
43.8817,283.539,-0.794383
43.8833,283.555,-0.794432
43.885,283.572,-0.794485
43.8867,283.589,-0.794544
43.8883,283.605,-0.794597
43.89,283.622,-0.79464
43.8917,283.638,-0.794673
43.8933,283.655,-0.794711
43.895,283.672,-0.794748
43.8967,283.689,-0.794774
43.8983,283.705,-0.794792
43.9,283.721,-0.794805
43.9017,283.738,-0.794817
43.9033,283.755,-0.794833
43.905,283.771,-0.794861
43.9067,283.788,-0.794895
43.9083,283.805,-0.794924
43.91,283.822,-0.794961
43.9117,283.839,-0.795007
43.9133,283.855,-0.795056
43.915,283.872,-0.795105
43.9167,283.889,-0.795151
43.9183,283.905,-0.795192
43.92,283.922,-0.795228
43.9217,283.938,-0.795258
43.9233,283.955,-0.795286
43.925,283.971,-0.795314
43.9267,283.988,-0.795346
43.9283,284.005,-0.795371
43.93,284.021,-0.795396
43.9317,284.038,-0.795422
43.9333,284.055,-0.795456
43.935,284.071,-0.795496
43.9367,284.088,-0.795537
43.9383,284.105,-0.795581
43.94,284.122,-0.795615
43.9417,284.138,-0.795658
43.9433,284.155,-0.795708
43.945,284.172,-0.795757
43.9467,284.188,-0.795799
43.9483,284.205,-0.795838
43.95,284.221,-0.795871
43.9517,284.238,-0.795905
43.9533,284.255,-0.79593
43.955,284.271,-0.795953
43.9567,284.288,-0.795972
43.9583,284.305,-0.795967
43.96,284.322,-0.795966
43.9617,284.338,-0.795971
43.9633,284.355,-0.795983
43.965,284.372,-0.795998
43.9667,284.388,-0.796017
43.9683,284.405,-0.796043
43.97,284.421,-0.796076
43.9717,284.438,-0.796118
43.9733,284.455,-0.796165
43.975,284.471,-0.796215
43.9767,284.488,-0.796255
43.9783,284.505,-0.796288
43.98,284.521,-0.79632
43.9817,284.538,-0.796351
43.9833,284.555,-0.796369
43.985,284.571,-0.796389
43.9867,284.588,-0.79641
43.9883,284.604,-0.796442
43.99,284.621,-0.796474
43.9917,284.638,-0.796506
43.9933,284.655,-0.796528
43.995,284.671,-0.796554
43.9967,284.688,-0.796578
43.9983,284.704,-0.796602
44,284.721,-0.796628
44.0017,284.738,-0.796658
44.0033,284.754,-0.79669
44.005,284.771,-0.796718
44.0067,284.788,-0.796749
44.0083,284.804,-0.796783
44.01,284.821,-0.796824
44.0117,284.838,-0.796865
44.0133,284.855,-0.796901
44.015,284.871,-0.796934
44.0167,284.888,-0.796966
44.0183,284.904,-0.796991
44.02,284.921,-0.79701
44.0217,284.938,-0.797036
44.0233,284.954,-0.797051
44.025,284.971,-0.797068
44.0267,284.987,-0.797082
44.0283,285.004,-0.7971
44.03,285.021,-0.797123
44.0317,285.037,-0.797143
44.0333,285.054,-0.797167
44.035,285.071,-0.797193
44.0367,285.088,-0.79722
44.0383,285.104,-0.797255
44.04,285.121,-0.797299
44.0417,285.138,-0.797346
44.0433,285.154,-0.797394
44.045,285.171,-0.797441
44.0467,285.188,-0.79749
44.0483,285.204,-0.79753
44.05,285.221,-0.797565
44.0517,285.238,-0.797604
44.0533,285.255,-0.797647
44.055,285.271,-0.797687
44.0567,285.288,-0.797731
44.0583,285.304,-0.797778
44.06,285.321,-0.797826
44.0617,285.337,-0.797868
44.0633,285.354,-0.797912
44.065,285.371,-0.797969
44.0667,285.387,-0.798023
44.0683,285.404,-0.798072
44.07,285.421,-0.798117
44.0717,285.437,-0.798155
44.0733,285.454,-0.798187
44.075,285.47,-0.798203
44.0767,285.487,-0.798213
44.0783,285.504,-0.798216
44.08,285.52,-0.79822
44.0817,285.537,-0.798234
44.0833,285.554,-0.798262
44.085,285.57,-0.798299
44.0867,285.587,-0.798345
44.0883,285.604,-0.798398
44.09,285.62,-0.798491
44.0917,285.637,-0.798619
44.0933,285.654,-0.79874
44.095,285.671,-0.798825
44.0967,285.687,-0.798892
44.0983,285.704,-0.798949
44.1,285.721,-0.799
44.1017,285.737,-0.799059
44.1033,285.753,-0.799119
44.105,285.77,-0.799168
44.1067,285.787,-0.799212
44.1083,285.804,-0.799254
44.11,285.821,-0.799295
44.1117,285.837,-0.79932
44.1133,285.854,-0.799341
44.115,285.871,-0.799364
44.1167,285.887,-0.799388
44.1183,285.904,-0.799411
44.12,285.92,-0.799434
44.1217,285.937,-0.799454
44.1233,285.953,-0.799486
44.125,285.97,-0.799525
44.1267,285.987,-0.799568
44.1283,286.003,-0.799613
44.13,286.02,-0.799651
44.1317,286.037,-0.799686
44.1333,286.053,-0.79972
44.135,286.07,-0.799749
44.1367,286.087,-0.799776
44.1383,286.103,-0.799802
44.14,286.12,-0.799827
44.1417,286.136,-0.799854
44.1433,286.153,-0.799893
44.145,286.17,-0.799933
44.1467,286.186,-0.799976
44.1483,286.203,-0.800021
44.15,286.22,-0.800065
44.1517,286.237,-0.800108
44.1533,286.253,-0.800156
44.155,286.27,-0.800209
44.1567,286.287,-0.800274
44.1583,286.303,-0.800335
44.16,286.32,-0.800391
44.1617,286.337,-0.800445
44.1633,286.353,-0.800495
44.165,286.37,-0.800547
44.1667,286.386,-0.800595
44.1683,286.403,-0.800642
44.17,286.42,-0.800684
44.1717,286.437,-0.800723
44.1733,286.454,-0.80076
44.175,286.47,-0.800797
44.1767,286.487,-0.800841
44.1783,286.504,-0.800873
44.18,286.52,-0.800905
44.1817,286.537,-0.800937
44.1833,286.553,-0.800966
44.185,286.57,-0.800988
44.1867,286.587,-0.801005
44.1883,286.603,-0.801021
44.19,286.62,-0.801037
44.1917,286.637,-0.801059
44.1933,286.653,-0.80108
44.195,286.67,-0.801105
44.1967,286.687,-0.801132
44.1983,286.703,-0.801164
44.2,286.72,-0.801204
44.2017,286.736,-0.801247
44.2033,286.754,-0.801282
44.205,286.77,-0.801322
44.2067,286.787,-0.801369
44.2083,286.803,-0.801418
44.21,286.82,-0.801467
44.2117,286.836,-0.801508
44.2133,286.853,-0.80155
44.215,286.869,-0.801596
44.2167,286.886,-0.801649
44.2183,286.903,-0.801703
44.22,286.919,-0.801758
44.2217,286.936,-0.801808
44.2233,286.953,-0.801857
44.225,286.97,-0.801897
44.2267,286.986,-0.801938
44.2283,287.003,-0.801979
44.23,287.02,-0.802025
44.2317,287.036,-0.802068
44.2333,287.053,-0.802121
44.235,287.07,-0.802185
44.2367,287.086,-0.802252
44.2383,287.103,-0.802312
44.24,287.119,-0.80237
44.2417,287.136,-0.80243
44.2433,287.152,-0.802492
44.245,287.169,-0.802552
44.2467,287.186,-0.80261
44.2483,287.202,-0.802663
44.25,287.219,-0.802695
44.2517,287.236,-0.802727
44.2533,287.253,-0.802762
44.255,287.269,-0.802799
44.2567,287.286,-0.802832
44.2583,287.303,-0.80287
44.26,287.319,-0.802909
44.2617,287.336,-0.802955
44.2633,287.353,-0.803018
44.265,287.369,-0.803091
44.2667,287.386,-0.803175
44.2683,287.403,-0.803245
44.27,287.419,-0.803314
44.2717,287.436,-0.803386
44.2733,287.453,-0.803455
44.275,287.469,-0.803516
44.2767,287.486,-0.803563
44.2783,287.502,-0.80361
44.28,287.519,-0.803653
44.2817,287.536,-0.8037
44.2833,287.552,-0.803747
44.285,287.569,-0.803789
44.2867,287.586,-0.803835
44.2883,287.603,-0.803878
44.29,287.619,-0.803922
44.2917,287.636,-0.803966
44.2933,287.652,-0.804008
44.295,287.669,-0.804047
44.2967,287.686,-0.804094
44.2983,287.702,-0.804153
44.3,287.719,-0.804219
44.3017,287.735,-0.804289
44.3033,287.752,-0.804358
44.305,287.769,-0.804425
44.3067,287.786,-0.804493
44.3083,287.802,-0.804555
44.31,287.819,-0.80461
44.3117,287.836,-0.804669
44.3133,287.852,-0.80472
44.315,287.869,-0.804771
44.3167,287.886,-0.804831
44.3183,287.902,-0.804884
44.32,287.919,-0.80493
44.3217,287.936,-0.804971
44.3233,287.952,-0.805015
44.325,287.969,-0.805059
44.3267,287.986,-0.8051
44.3283,288.002,-0.805137
44.33,288.019,-0.805181
44.3317,288.036,-0.805223
44.3333,288.052,-0.805272
44.335,288.069,-0.805335
44.3367,288.085,-0.805401
44.3383,288.102,-0.80546
44.34,288.119,-0.805531
44.3417,288.135,-0.805605
44.3433,288.152,-0.805666
44.345,288.169,-0.805723
44.3467,288.186,-0.805778
44.3483,288.202,-0.805831
44.35,288.219,-0.805879
44.3517,288.236,-0.805919
44.3533,288.252,-0.805955
44.355,288.268,-0.805987
44.3567,288.285,-0.806023
44.3583,288.301,-0.806056
44.36,288.318,-0.806092
44.3617,288.335,-0.80614
44.3633,288.351,-0.80619
44.365,288.368,-0.806244
44.3667,288.385,-0.806298
44.3683,288.402,-0.806361
44.37,288.418,-0.806428
44.3717,288.435,-0.806499
44.3733,288.452,-0.806564
44.375,288.469,-0.806626
44.3767,288.485,-0.80668
44.3783,288.502,-0.806734
44.38,288.518,-0.80678
44.3817,288.535,-0.806821
44.3833,288.551,-0.806862
44.385,288.568,-0.806898
44.3867,288.585,-0.806935
44.3883,288.601,-0.806977
44.39,288.618,-0.807018
44.3917,288.635,-0.807063
44.3933,288.652,-0.80712
44.395,288.668,-0.80718
44.3967,288.685,-0.80724
44.3983,288.702,-0.807294
44.4,288.718,-0.807343
44.4017,288.735,-0.807389
44.4033,288.752,-0.807439
44.405,288.768,-0.807485
44.4067,288.785,-0.807531
44.4083,288.801,-0.807573
44.41,288.818,-0.807619
44.4117,288.835,-0.807671
44.4133,288.851,-0.807725
44.415,288.868,-0.80778
44.4167,288.885,-0.807831
44.4183,288.901,-0.807879
44.42,288.918,-0.807933
44.4217,288.935,-0.807985
44.4233,288.951,-0.808042
44.425,288.968,-0.808097
44.4267,288.984,-0.808156
44.4283,289.001,-0.80822
44.43,289.018,-0.80829
44.4317,289.034,-0.808361
44.4333,289.051,-0.808426
44.435,289.068,-0.808487
44.4367,289.084,-0.808541
44.4383,289.101,-0.808607
44.44,289.118,-0.808671
44.4417,289.134,-0.808731
44.4433,289.151,-0.808798
44.445,289.168,-0.808855
44.4467,289.184,-0.808907
44.4483,289.201,-0.808964
44.45,289.218,-0.809019
44.4517,289.235,-0.809078
44.4533,289.251,-0.80914
44.455,289.268,-0.809196
44.4567,289.284,-0.809254
44.4583,289.301,-0.809315
44.46,289.318,-0.80938
44.4617,289.334,-0.809451
44.4633,289.351,-0.809519
44.465,289.368,-0.809587
44.4667,289.384,-0.809651
44.4683,289.401,-0.809704
44.47,289.417,-0.809755
44.4717,289.434,-0.809809
44.4733,289.451,-0.809856
44.475,289.468,-0.80991
44.4767,289.484,-0.809964
44.4783,289.501,-0.810023
44.48,289.517,-0.810093
44.4817,289.534,-0.810157
44.4833,289.551,-0.810221
44.485,289.567,-0.810293
44.4867,289.584,-0.810361
44.4883,289.601,-0.810427
44.49,289.617,-0.810493
44.4917,289.634,-0.810548
44.4933,289.651,-0.81061
44.495,289.667,-0.810659
44.4967,289.684,-0.810706
44.4983,289.701,-0.810759
44.5,289.717,-0.810808
44.5017,289.734,-0.810858
44.5033,289.751,-0.810905
44.505,289.768,-0.810952
44.5067,289.784,-0.811002
44.5083,289.801,-0.811053
44.51,289.817,-0.811108
44.5117,289.834,-0.811164
44.5133,289.851,-0.811222
44.515,289.867,-0.811277
44.5167,289.884,-0.811338
44.5183,289.901,-0.8114
44.52,289.918,-0.811473
44.5217,289.934,-0.811541
44.5233,289.951,-0.811607
44.525,289.967,-0.811674
44.5267,289.984,-0.811736
44.5283,290.001,-0.811798
44.53,290.017,-0.811863
44.5317,290.034,-0.811927
44.5333,290.051,-0.811989
44.535,290.067,-0.812052
44.5367,290.084,-0.812115
44.5383,290.1,-0.812183
44.54,290.117,-0.81226
44.5417,290.134,-0.812336
44.5433,290.15,-0.812415
44.545,290.167,-0.812489
44.5467,290.184,-0.812561
44.5483,290.2,-0.812628
44.55,290.217,-0.812683
44.5517,290.234,-0.812743
44.5533,290.25,-0.812792
44.555,290.267,-0.812837
44.5567,290.284,-0.812876
44.5583,290.3,-0.812921
44.56,290.317,-0.812966
44.5617,290.333,-0.813014
44.5633,290.35,-0.813063
44.565,290.367,-0.813118
44.5667,290.384,-0.813169
44.5683,290.401,-0.813224
44.57,290.417,-0.813286
44.5717,290.434,-0.813351
44.5733,290.451,-0.813422
44.575,290.467,-0.813493
44.5767,290.484,-0.813559
44.5783,290.501,-0.813626
44.58,290.517,-0.813696
44.5817,290.534,-0.813756
44.5833,290.55,-0.813808
44.585,290.567,-0.813853
44.5867,290.584,-0.8139
44.5883,290.601,-0.813954
44.59,290.617,-0.814006
44.5917,290.634,-0.814053
44.5933,290.65,-0.814107
44.595,290.667,-0.814164
44.5967,290.684,-0.814233
44.5983,290.7,-0.814301
44.6,290.717,-0.814373
44.6017,290.734,-0.814447
44.6033,290.75,-0.814524
44.605,290.767,-0.814607
44.6067,290.783,-0.814688
44.6083,290.8,-0.814762
44.61,290.817,-0.814832
44.6117,290.833,-0.814901
44.6133,290.85,-0.814958
44.615,290.867,-0.815021
44.6167,290.883,-0.815075
44.6183,290.9,-0.815115
44.62,290.917,-0.815153
44.6217,290.933,-0.815205
44.6233,290.95,-0.815262
44.625,290.967,-0.815321
44.6267,290.984,-0.815379
44.6283,291,-0.815437
44.63,291.017,-0.815499
44.6317,291.034,-0.815553
44.6333,291.051,-0.815605
44.635,291.068,-0.815653
44.6367,291.084,-0.815692
44.6383,291.1,-0.815731
44.64,291.116,-0.815769
44.6417,291.133,-0.8158
44.6433,291.15,-0.815843
44.645,291.167,-0.815884
44.6467,291.183,-0.815926
44.6483,291.2,-0.815974
44.65,291.216,-0.816026
44.6517,291.233,-0.816081
44.6533,291.25,-0.816143
44.655,291.266,-0.816202
44.6567,291.283,-0.816258
44.6583,291.3,-0.816312
44.66,291.317,-0.816363
44.6617,291.333,-0.816425
44.6633,291.35,-0.816492
44.665,291.366,-0.81657
44.6667,291.383,-0.816647
44.6683,291.4,-0.81672
44.67,291.416,-0.816791
44.6717,291.433,-0.816859
44.6733,291.449,-0.816933
44.675,291.466,-0.817005
44.6767,291.483,-0.817071
44.6783,291.499,-0.817132
44.68,291.516,-0.817183
44.6817,291.533,-0.81724
44.6833,291.55,-0.817294
44.685,291.566,-0.817354
44.6867,291.583,-0.817411
44.6883,291.6,-0.817473
44.69,291.616,-0.817531
44.6917,291.633,-0.817596
44.6933,291.65,-0.817668
44.695,291.666,-0.817734
44.6967,291.683,-0.817793
44.6983,291.699,-0.81785
44.7,291.716,-0.817893
44.7017,291.732,-0.817927
44.7033,291.749,-0.81795
44.705,291.766,-0.817977
44.7067,291.783,-0.81801
44.7083,291.799,-0.818052
44.71,291.816,-0.818091
44.7117,291.833,-0.818127
44.7133,291.849,-0.818169
44.715,291.866,-0.818219
44.7167,291.883,-0.818274
44.7183,291.899,-0.818324
44.72,291.916,-0.818368
44.7217,291.932,-0.818408
44.7233,291.949,-0.81845
44.725,291.966,-0.818494
44.7267,291.982,-0.818553
44.7283,291.999,-0.818616
44.73,292.016,-0.818689
44.7317,292.033,-0.818762
44.7333,292.049,-0.818847
44.735,292.066,-0.818964
44.7367,292.082,-0.819045
44.7383,292.099,-0.819124
44.74,292.116,-0.819194
44.7417,292.133,-0.819249
44.7433,292.149,-0.819299
44.745,292.166,-0.819336
44.7467,292.182,-0.819364
44.7483,292.199,-0.819396
44.75,292.216,-0.819429
44.7517,292.232,-0.819473
44.7533,292.249,-0.819516
44.755,292.265,-0.819561
44.7567,292.282,-0.819626
44.7583,292.299,-0.819702
44.76,292.316,-0.819783
44.7617,292.332,-0.819926
44.7633,292.349,-0.820033
44.765,292.366,-0.820115
44.7667,292.382,-0.820187
44.7683,292.399,-0.820248
44.77,292.416,-0.820295
44.7717,292.432,-0.820334
44.7733,292.449,-0.820369
44.775,292.465,-0.82041
44.7767,292.482,-0.820442
44.7783,292.499,-0.820477
44.78,292.515,-0.820514
44.7817,292.532,-0.820562
44.7833,292.549,-0.82061
44.785,292.565,-0.820661
44.7867,292.582,-0.82072
44.7883,292.599,-0.82078
44.79,292.615,-0.82084
44.7917,292.632,-0.820906
44.7933,292.648,-0.820979
44.795,292.665,-0.821053
44.7967,292.682,-0.821133
44.7983,292.699,-0.821213
44.8,292.715,-0.821295
44.8017,292.732,-0.82137
44.8033,292.749,-0.821448
44.805,292.765,-0.821518
44.8067,292.782,-0.82158
44.8083,292.799,-0.821633
44.81,292.815,-0.821675
44.8117,292.832,-0.821716
44.8133,292.848,-0.821765
44.815,292.865,-0.821806
44.8167,292.882,-0.821847
44.8183,292.898,-0.821891
44.82,292.915,-0.82194
44.8217,292.932,-0.821986
44.8233,292.948,-0.822033
44.825,292.965,-0.822077
44.8267,292.981,-0.822125
44.8283,292.998,-0.822177
44.83,293.015,-0.822233
44.8317,293.032,-0.822283
44.8333,293.048,-0.822331
44.835,293.065,-0.822387
44.8367,293.081,-0.822451
44.8383,293.098,-0.822523
44.84,293.115,-0.822601
44.8417,293.131,-0.822721
44.8433,293.148,-0.82283
44.845,293.165,-0.822943
44.8467,293.182,-0.823067
44.8483,293.198,-0.823147
44.85,293.215,-0.823213
44.8517,293.232,-0.823265
44.8533,293.248,-0.823306
44.855,293.265,-0.823337
44.8567,293.282,-0.823363
44.8583,293.298,-0.823387
44.86,293.315,-0.823418
44.8617,293.332,-0.823452
44.8633,293.348,-0.823484
44.865,293.365,-0.823521
44.8667,293.381,-0.823566
44.8683,293.398,-0.823609
44.87,293.415,-0.823654
44.8717,293.431,-0.823704
44.8733,293.448,-0.823765
44.875,293.464,-0.823829
44.8767,293.481,-0.823896
44.8783,293.498,-0.823967
44.88,293.515,-0.824041
44.8817,293.531,-0.824111
44.8833,293.547,-0.824186
44.885,293.564,-0.824264
44.8867,293.581,-0.824341
44.8883,293.598,-0.824413
44.89,293.614,-0.824483
44.8917,293.631,-0.824556
44.8933,293.648,-0.824612
44.895,293.664,-0.824667
44.8967,293.681,-0.824719
44.8983,293.697,-0.824776
44.9,293.714,-0.824832
44.9017,293.731,-0.824898
44.9033,293.748,-0.824965
44.905,293.764,-0.825031
44.9067,293.781,-0.825097
44.9083,293.797,-0.825163
44.91,293.814,-0.825218
44.9117,293.831,-0.825269
44.9133,293.847,-0.825322
44.915,293.864,-0.825358
44.9167,293.881,-0.825382
44.9183,293.897,-0.8254
44.92,293.914,-0.825416
44.9217,293.93,-0.825435
44.9233,293.947,-0.825455
44.925,293.964,-0.825481
44.9267,293.98,-0.825518
44.9283,293.997,-0.825565
44.93,294.013,-0.825617
44.9317,294.03,-0.825687
44.9333,294.047,-0.825758
44.935,294.064,-0.825832
44.9367,294.081,-0.825908
44.9383,294.097,-0.825985
44.94,294.114,-0.826057
44.9417,294.13,-0.826129
44.9433,294.147,-0.826191
44.945,294.164,-0.826251
44.9467,294.181,-0.826311
44.9483,294.198,-0.826367
44.95,294.214,-0.826423
44.9517,294.23,-0.826473
44.9533,294.247,-0.82652
44.955,294.264,-0.826569
44.9567,294.281,-0.826615
44.9583,294.297,-0.826664
44.96,294.314,-0.826703
44.9617,294.33,-0.826733
44.9633,294.347,-0.826756
44.965,294.364,-0.826786
44.9667,294.38,-0.826818
44.9683,294.397,-0.826854
44.97,294.414,-0.826905
44.9717,294.43,-0.826961
44.9733,294.447,-0.827018
44.975,294.464,-0.827076
44.9767,294.48,-0.827134
44.9783,294.497,-0.827195
44.98,294.514,-0.827254
44.9817,294.53,-0.827314
44.9833,294.547,-0.82737
44.985,294.563,-0.827425
44.9867,294.58,-0.827477
44.9883,294.597,-0.827531
44.99,294.613,-0.827591
44.9917,294.63,-0.827654
44.9933,294.647,-0.827721
44.995,294.664,-0.827791
44.9967,294.68,-0.827871
44.9983,294.697,-0.827941
45,294.713,-0.828013
45.0017,294.73,-0.828075
45.0033,294.747,-0.828133
45.005,294.764,-0.828192
45.0067,294.78,-0.828249
45.0083,294.797,-0.828304
45.01,294.813,-0.828352
45.0117,294.83,-0.828391
45.0133,294.847,-0.82843
45.015,294.863,-0.828471
45.0167,294.88,-0.8285
45.0183,294.897,-0.828528
45.02,294.914,-0.828547
45.0217,294.93,-0.828565
45.0233,294.947,-0.828587
45.025,294.963,-0.828613
45.0267,294.98,-0.828647
45.0283,294.996,-0.828684
45.03,295.013,-0.828742
45.0317,295.03,-0.828808
45.0333,295.047,-0.828882
45.035,295.064,-0.828965
45.0367,295.08,-0.829041
45.0383,295.097,-0.829114
45.04,295.114,-0.829185
45.0417,295.13,-0.829247
45.0433,295.147,-0.829312
45.045,295.164,-0.829371
45.0467,295.18,-0.829424
45.0483,295.197,-0.829473
45.05,295.214,-0.829522
45.0517,295.23,-0.829575
45.0533,295.247,-0.829618
45.055,295.264,-0.829645
45.0567,295.28,-0.829668
45.0583,295.297,-0.829695
45.06,295.313,-0.829724
45.0617,295.33,-0.829754
45.0633,295.346,-0.829788
45.065,295.363,-0.829826
45.0667,295.379,-0.829875
45.0683,295.396,-0.829932
45.07,295.413,-0.829991
45.0717,295.43,-0.830054
45.0733,295.446,-0.830117
45.075,295.463,-0.830178
45.0767,295.48,-0.830242
45.0783,295.497,-0.830311
45.08,295.513,-0.830381
45.0817,295.53,-0.830448
45.0833,295.546,-0.830503
45.085,295.563,-0.830558
45.0867,295.579,-0.830613
45.0883,295.596,-0.830669
45.09,295.613,-0.830723
45.0917,295.629,-0.830779
45.0933,295.646,-0.830836
45.095,295.663,-0.830887
45.0967,295.679,-0.830941
45.0983,295.697,-0.830998
45.1,295.713,-0.831054
45.1017,295.729,-0.831102
45.1033,295.746,-0.831152
45.105,295.763,-0.831205
45.1067,295.779,-0.831266
45.1083,295.795,-0.831324
45.11,295.812,-0.831384
45.1117,295.829,-0.83144
45.1133,295.846,-0.831499
45.115,295.862,-0.831556
45.1167,295.879,-0.831602
45.1183,295.896,-0.831646
45.12,295.912,-0.831685
45.1217,295.929,-0.831714
45.1233,295.946,-0.831739
45.125,295.962,-0.831763
45.1267,295.979,-0.831782
45.1283,295.996,-0.831811
45.13,296.012,-0.831837
45.1317,296.029,-0.831872
45.1333,296.046,-0.831912
45.135,296.062,-0.831964
45.1367,296.079,-0.832025
45.1383,296.095,-0.832089
45.14,296.112,-0.832152
45.1417,296.129,-0.832205
45.1433,296.146,-0.832264
45.145,296.162,-0.832317
45.1467,296.179,-0.832372
45.1483,296.196,-0.832425
45.15,296.212,-0.832474
45.1517,296.229,-0.83252
45.1533,296.245,-0.832564
45.155,296.262,-0.832606
45.1567,296.278,-0.832658
45.1583,296.295,-0.832714
45.16,296.312,-0.832762
45.1617,296.328,-0.832806
45.1633,296.345,-0.832849
45.165,296.362,-0.832889
45.1667,296.379,-0.832925
45.1683,296.395,-0.832958
45.17,296.412,-0.832988
45.1717,296.429,-0.833008
45.1733,296.445,-0.833035
45.175,296.462,-0.833074
45.1767,296.479,-0.833126
45.1783,296.495,-0.833175
45.18,296.512,-0.833231
45.1817,296.529,-0.833291
45.1833,296.546,-0.833363
45.185,296.562,-0.833465
45.1867,296.579,-0.83356
45.1883,296.595,-0.833667
45.19,296.612,-0.833799
45.1917,296.628,-0.833904
45.1933,296.645,-0.833995
45.195,296.661,-0.834073
45.1967,296.678,-0.834141
45.1983,296.695,-0.834204
45.2,296.712,-0.834257
45.2017,296.728,-0.8343
45.2033,296.745,-0.834334
45.205,296.762,-0.834363
45.2067,296.779,-0.834389
45.2083,296.795,-0.834424
45.21,296.812,-0.834468
45.2117,296.828,-0.834513
45.2133,296.845,-0.83457
45.215,296.861,-0.834637
45.2167,296.879,-0.834702
45.2183,296.895,-0.834761
45.22,296.912,-0.834811
45.2217,296.928,-0.834845
45.2233,296.945,-0.834874
45.225,296.962,-0.834896
45.2267,296.978,-0.83491
45.2283,296.995,-0.834934
45.23,297.011,-0.834972
45.2317,297.028,-0.835021
45.2333,297.045,-0.835075
45.235,297.061,-0.835135
45.2367,297.078,-0.835205
45.2383,297.095,-0.835269
45.24,297.112,-0.835329
45.2417,297.128,-0.835384
45.2433,297.145,-0.835437
45.245,297.161,-0.835489
45.2467,297.178,-0.835545
45.2483,297.195,-0.835599
45.25,297.212,-0.835658
45.2517,297.228,-0.835715
45.2533,297.245,-0.835768
45.255,297.261,-0.835821
45.2567,297.278,-0.835868
45.2583,297.295,-0.835916
45.26,297.311,-0.835964
45.2617,297.328,-0.836009
45.2633,297.345,-0.836054
45.265,297.361,-0.8361
45.2667,297.378,-0.83615
45.2683,297.395,-0.8362
45.27,297.411,-0.836259
45.2717,297.428,-0.836317
45.2733,297.445,-0.836382
45.275,297.462,-0.836448
45.2767,297.478,-0.836512
45.2783,297.494,-0.836575
45.28,297.511,-0.836622
45.2817,297.528,-0.836661
45.2833,297.544,-0.836695
45.285,297.561,-0.836727
45.2867,297.578,-0.836756
45.2883,297.594,-0.836778
45.29,297.611,-0.836802
45.2917,297.628,-0.836827
45.2933,297.645,-0.836862
45.295,297.661,-0.836898
45.2967,297.678,-0.836945
45.2983,297.694,-0.836999
45.3,297.711,-0.837063
45.3017,297.727,-0.837131
45.3033,297.744,-0.837196
45.305,297.761,-0.837267
45.3067,297.778,-0.837335
45.3083,297.794,-0.837396
45.31,297.811,-0.837449
45.3117,297.828,-0.837502
45.3133,297.844,-0.837552
45.315,297.861,-0.837604
45.3167,297.878,-0.83765
45.3183,297.895,-0.83769
45.32,297.911,-0.837719
45.3217,297.928,-0.837746
45.3233,297.944,-0.837785
45.325,297.961,-0.83782
45.3267,297.977,-0.837854
45.3283,297.994,-0.837888
45.33,298.011,-0.837932
45.3317,298.027,-0.837989
45.3333,298.044,-0.838051
45.335,298.061,-0.83811
45.3367,298.077,-0.838158
45.3383,298.094,-0.838203
45.34,298.111,-0.838249
45.3417,298.128,-0.838293
45.3433,298.144,-0.838339
45.345,298.161,-0.838371
45.3467,298.177,-0.838404
45.3483,298.194,-0.838436
45.35,298.211,-0.838474
45.3517,298.227,-0.83852
45.3533,298.244,-0.838576
45.355,298.26,-0.838626
45.3567,298.277,-0.838675
45.3583,298.293,-0.838737
45.36,298.31,-0.8388
45.3617,298.327,-0.838874
45.3633,298.344,-0.838969
45.365,298.36,-0.839047
45.3667,298.377,-0.839139
45.3683,298.394,-0.839218
45.37,298.41,-0.839286
45.3717,298.427,-0.839349
45.3733,298.444,-0.839415
45.375,298.46,-0.839464
45.3767,298.477,-0.839506
45.3783,298.494,-0.839532
45.38,298.51,-0.839561
45.3817,298.527,-0.839598
45.3833,298.544,-0.839638
45.385,298.561,-0.839682
45.3867,298.577,-0.839726
45.3883,298.594,-0.839764
45.39,298.611,-0.839804
45.3917,298.627,-0.839857
45.3933,298.644,-0.839915
45.395,298.66,-0.839972
45.3967,298.677,-0.840023
45.3983,298.694,-0.840074
45.4,298.71,-0.84012
45.4017,298.727,-0.840161
45.4033,298.744,-0.840191
45.405,298.76,-0.840209
45.4067,298.777,-0.840226
45.4083,298.793,-0.840246
45.41,298.81,-0.840268
45.4117,298.827,-0.840289
45.4133,298.843,-0.840313
45.415,298.86,-0.840347
45.4167,298.877,-0.840391
45.4183,298.894,-0.840427
45.42,298.91,-0.840474
45.4217,298.927,-0.840531
45.4233,298.943,-0.840589
45.425,298.96,-0.840649
45.4267,298.977,-0.840707
45.4283,298.994,-0.84077
45.43,299.01,-0.840828
45.4317,299.027,-0.840874
45.4333,299.044,-0.840918
45.435,299.061,-0.840957
45.4367,299.077,-0.840995
45.4383,299.093,-0.841036
45.44,299.11,-0.841076
45.4417,299.127,-0.841124
45.4433,299.143,-0.841182
45.445,299.16,-0.841244
45.4467,299.177,-0.841315
45.4483,299.193,-0.841417
45.45,299.21,-0.841508
45.4517,299.227,-0.841583
45.4533,299.244,-0.84166
45.455,299.26,-0.841732
45.4567,299.277,-0.841794
45.4583,299.294,-0.841843
45.46,299.31,-0.841886
45.4617,299.327,-0.841922
45.4633,299.343,-0.841952
45.465,299.36,-0.841976
45.4667,299.377,-0.841998
45.4683,299.393,-0.842024
45.47,299.41,-0.842057
45.4717,299.427,-0.84209
45.4733,299.443,-0.842124
45.475,299.46,-0.842154
45.4767,299.477,-0.842183
45.4783,299.493,-0.842216
45.48,299.51,-0.842249
45.4817,299.526,-0.842278
45.4833,299.543,-0.842316
45.485,299.56,-0.842358
45.4867,299.576,-0.842398
45.4883,299.593,-0.842439
45.49,299.61,-0.842485
45.4917,299.626,-0.842528
45.4933,299.643,-0.842572
45.495,299.66,-0.842617
45.4967,299.677,-0.842674
45.4983,299.693,-0.842729
45.5,299.709,-0.842775
45.5017,299.726,-0.842822
45.5033,299.743,-0.84288
45.505,299.76,-0.842933
45.5067,299.776,-0.84298
45.5083,299.793,-0.843036
45.51,299.81,-0.843079
45.5117,299.826,-0.843114
45.5133,299.843,-0.843141
45.515,299.86,-0.843173
45.5167,299.876,-0.843216
45.5183,299.893,-0.84325
45.52,299.91,-0.843287
45.5217,299.926,-0.843327
45.5233,299.943,-0.843375
45.525,299.959,-0.843424
45.5267,299.976,-0.843467
45.5283,299.993,-0.843516
45.53,300.01,-0.843573
45.5317,300.027,-0.843624
45.5333,300.043,-0.843674
45.535,300.06,-0.843723
45.5367,300.077,-0.843768
45.5383,300.094,-0.84381
45.54,300.11,-0.843859
45.5417,300.126,-0.843908
45.5433,300.143,-0.843963
45.545,300.16,-0.844008
45.5467,300.176,-0.844058
45.5483,300.193,-0.844115
45.55,300.209,-0.844172
45.5517,300.226,-0.844237
45.5533,300.243,-0.844296
45.555,300.26,-0.844351
45.5567,300.276,-0.844397
45.5583,300.293,-0.844443
45.56,300.31,-0.844487
45.5617,300.326,-0.84453
45.5633,300.343,-0.844569
45.565,300.359,-0.844603
45.5667,300.376,-0.844644
45.5683,300.393,-0.844689
45.57,300.41,-0.84474
45.5717,300.426,-0.844798
45.5733,300.443,-0.844854
45.575,300.46,-0.844914
45.5767,300.476,-0.844974
45.5783,300.493,-0.845037
45.58,300.509,-0.845093
45.5817,300.526,-0.845142
45.5833,300.543,-0.845185
45.585,300.559,-0.845227
45.5867,300.576,-0.845253
45.5883,300.592,-0.845272
45.59,300.609,-0.845295
45.5917,300.625,-0.845327
45.5933,300.642,-0.845366
45.595,300.659,-0.845407
45.5967,300.676,-0.84546
45.5983,300.692,-0.845511
45.6,300.709,-0.84556
45.6017,300.726,-0.845611
45.6033,300.742,-0.845659
45.605,300.759,-0.845697
45.6067,300.775,-0.84573
45.6083,300.792,-0.845763
45.61,300.809,-0.845799
45.6117,300.825,-0.845837
45.6133,300.842,-0.845876
45.615,300.858,-0.84592
45.6167,300.875,-0.845961
45.6183,300.892,-0.846007
45.62,300.909,-0.846055
45.6217,300.925,-0.846105
45.6233,300.942,-0.846148
45.625,300.959,-0.846192
45.6267,300.975,-0.84623
45.6283,300.992,-0.846257
45.63,301.009,-0.846285
45.6317,301.025,-0.846303
45.6333,301.042,-0.846325
45.635,301.059,-0.846347
45.6367,301.075,-0.846376
45.6383,301.091,-0.846406
45.64,301.108,-0.846443
45.6417,301.125,-0.846482
45.6433,301.142,-0.84652
45.645,301.159,-0.846564
45.6467,301.175,-0.846611
45.6483,301.192,-0.846658
45.65,301.208,-0.846705
45.6517,301.225,-0.846753
45.6533,301.242,-0.846804
45.655,301.259,-0.846854
45.6567,301.275,-0.846908
45.6583,301.292,-0.846961
45.66,301.308,-0.847007
45.6617,301.325,-0.847048
45.6633,301.342,-0.847091
45.665,301.359,-0.847135
45.6667,301.375,-0.847179
45.6683,301.392,-0.847217
45.67,301.408,-0.847256
45.6717,301.425,-0.847294
45.6733,301.442,-0.847332
45.675,301.458,-0.847377
45.6767,301.475,-0.847419
45.6783,301.492,-0.84747
45.68,301.508,-0.847513
45.6817,301.525,-0.847562
45.6833,301.541,-0.847616
45.685,301.558,-0.847661
45.6867,301.575,-0.847713
45.6883,301.592,-0.847764
45.69,301.608,-0.847809
45.6917,301.625,-0.847853
45.6933,301.642,-0.847894
45.695,301.658,-0.847937
45.6967,301.675,-0.847992
45.6983,301.691,-0.848049
45.7,301.708,-0.848105
45.7017,301.725,-0.848165
45.7033,301.741,-0.848227
45.705,301.758,-0.848288
45.7067,301.775,-0.848343
45.7083,301.791,-0.848395
45.71,301.808,-0.848446
45.7117,301.825,-0.848491
45.7133,301.841,-0.848532
45.715,301.858,-0.848577
45.7167,301.874,-0.848617
45.7183,301.891,-0.848656
45.72,301.908,-0.848692
45.7217,301.924,-0.84873
45.7233,301.941,-0.848766
45.725,301.958,-0.848804
45.7267,301.974,-0.84884
45.7283,301.991,-0.848879
45.73,302.008,-0.848921
45.7317,302.024,-0.848969
45.7333,302.041,-0.849017
45.735,302.058,-0.849062
45.7367,302.074,-0.849103
45.7383,302.091,-0.849151
45.74,302.108,-0.8492
45.7417,302.124,-0.849257
45.7433,302.141,-0.84932
45.745,302.158,-0.849376
45.7467,302.174,-0.849436
45.7483,302.191,-0.849493
45.75,302.208,-0.849547
45.7517,302.224,-0.849596
45.7533,302.241,-0.849642
45.755,302.257,-0.849684
45.7567,302.274,-0.84972
45.7583,302.291,-0.849749
45.76,302.307,-0.84978
45.7617,302.324,-0.849809
45.7633,302.341,-0.849836
45.765,302.357,-0.849868
45.7667,302.374,-0.849904
45.7683,302.391,-0.849931
45.77,302.408,-0.849952
45.7717,302.424,-0.84997
45.7733,302.441,-0.849988
45.775,302.457,-0.850011
45.7767,302.474,-0.850041
45.7783,302.491,-0.850082
45.78,302.508,-0.850134
45.7817,302.524,-0.85019
45.7833,302.541,-0.850251
45.785,302.558,-0.850324
45.7867,302.574,-0.850388
45.7883,302.591,-0.850455
45.79,302.607,-0.850519
45.7917,302.624,-0.850579
45.7933,302.64,-0.850643
45.795,302.658,-0.850705
45.7967,302.674,-0.850767
45.7983,302.691,-0.850836
45.8,302.708,-0.850902
45.8017,302.724,-0.850961
45.8033,302.74,-0.851014
45.805,302.757,-0.851055
45.8067,302.774,-0.851094
45.8083,302.79,-0.851133
45.81,302.807,-0.851165
45.8117,302.823,-0.851204
45.8133,302.84,-0.851248
45.815,302.857,-0.851289
45.8167,302.874,-0.851328
45.8183,302.89,-0.851367
45.82,302.907,-0.851403
45.8217,302.923,-0.851447
45.8233,302.94,-0.851492
45.825,302.957,-0.851542
45.8267,302.974,-0.851595
45.8283,302.99,-0.851651
45.83,303.007,-0.851704
45.8317,303.024,-0.851755
45.8333,303.04,-0.851799
45.835,303.057,-0.851827
45.8367,303.074,-0.851854
45.8383,303.09,-0.851872
45.84,303.107,-0.851886
45.8417,303.123,-0.851894
45.8433,303.14,-0.85191
45.845,303.157,-0.85192
45.8467,303.173,-0.851938
45.8483,303.19,-0.851966
45.85,303.207,-0.851985
45.8517,303.224,-0.852011
45.8533,303.24,-0.852033
45.855,303.257,-0.85206
45.8567,303.274,-0.852098
45.8583,303.291,-0.852146
45.86,303.307,-0.852205
45.8617,303.324,-0.852271
45.8633,303.34,-0.852343
45.865,303.357,-0.852441
45.8667,303.374,-0.852538
45.8683,303.39,-0.852607
45.87,303.407,-0.852675
45.8717,303.424,-0.852738
45.8733,303.44,-0.852799
45.875,303.457,-0.85286
45.8767,303.473,-0.852937
45.8783,303.49,-0.853011
45.88,303.507,-0.853084
45.8817,303.524,-0.853153
45.8833,303.54,-0.85322
45.885,303.557,-0.853278
45.8867,303.574,-0.853326
45.8883,303.59,-0.853358
45.89,303.607,-0.853383
45.8917,303.623,-0.853405
45.8933,303.64,-0.853424
45.895,303.657,-0.853445
45.8967,303.673,-0.853464
45.8983,303.69,-0.853495
45.9,303.707,-0.853535
45.9017,303.723,-0.853593
45.9033,303.74,-0.853657
45.905,303.757,-0.853723
45.9067,303.774,-0.853794
45.9083,303.791,-0.853865
45.91,303.807,-0.853931
45.9117,303.824,-0.853991
45.9133,303.841,-0.854047
45.915,303.857,-0.854096
45.9167,303.874,-0.854141
45.9183,303.891,-0.854186
45.92,303.907,-0.854234
45.9217,303.924,-0.854281
45.9233,303.94,-0.854334
45.925,303.957,-0.854391
45.9267,303.974,-0.854439
45.9283,303.99,-0.854484
45.93,304.007,-0.85452
45.9317,304.024,-0.854552
45.9333,304.041,-0.854575
45.935,304.057,-0.854594
45.9367,304.074,-0.85461
45.9383,304.09,-0.85463
45.94,304.107,-0.854659
45.9417,304.123,-0.854701
45.9433,304.14,-0.854745
45.945,304.157,-0.854806
45.9467,304.173,-0.854876
45.9483,304.19,-0.854943
45.95,304.207,-0.855005
45.9517,304.223,-0.855064
45.9533,304.24,-0.855133
45.955,304.257,-0.855201
45.9567,304.273,-0.855264
45.9583,304.289,-0.855324
45.96,304.307,-0.855377
45.9617,304.323,-0.855419
45.9633,304.34,-0.855464
45.965,304.357,-0.855509
45.9667,304.373,-0.855552
45.9683,304.39,-0.8556
45.97,304.407,-0.855642
45.9717,304.424,-0.855694
45.9733,304.44,-0.855749
45.975,304.457,-0.855806
45.9767,304.473,-0.855861
45.9783,304.49,-0.855906
45.98,304.506,-0.855954
45.9817,304.522,-0.855999
45.9833,304.539,-0.856037
45.985,304.556,-0.856069
45.9867,304.572,-0.856093
45.9883,304.589,-0.856117
45.99,304.606,-0.856134
45.9917,304.623,-0.856148
45.9933,304.639,-0.856164
45.995,304.656,-0.856182
45.9967,304.673,-0.856206
45.9983,304.689,-0.856242
46,304.706,-0.856287
46.0017,304.723,-0.856334
46.0033,304.739,-0.856388
46.005,304.756,-0.856445
46.0067,304.773,-0.856494
46.0083,304.79,-0.856539
46.01,304.806,-0.856589
46.0117,304.823,-0.856637
46.0133,304.84,-0.856685
46.015,304.856,-0.856728
46.0167,304.873,-0.856773
46.0183,304.89,-0.856814
46.02,304.906,-0.856856
46.0217,304.923,-0.856892
46.0233,304.94,-0.856933
46.025,304.956,-0.856977
46.0267,304.972,-0.857022
46.0283,304.989,-0.857072
46.03,305.005,-0.857136
46.0317,305.022,-0.857209
46.0333,305.039,-0.85734
46.035,305.056,-0.857459
46.0367,305.072,-0.857582
46.0383,305.089,-0.857658
46.04,305.106,-0.857725
46.0417,305.122,-0.857777
46.0433,305.139,-0.857819
46.045,305.155,-0.857844
46.0467,305.172,-0.857855
46.0483,305.189,-0.857864
46.05,305.205,-0.857881
46.0517,305.222,-0.857904
46.0533,305.239,-0.857936
46.055,305.255,-0.857972
46.0567,305.272,-0.858015
46.0583,305.289,-0.858072
46.06,305.305,-0.858135
46.0617,305.322,-0.858197
46.0633,305.339,-0.858261
46.065,305.355,-0.858314
46.0667,305.372,-0.858362
46.0683,305.389,-0.858406
46.07,305.405,-0.85845
46.0717,305.422,-0.858484
46.0733,305.439,-0.858518
46.075,305.456,-0.858551
46.0767,305.472,-0.858582
46.0783,305.489,-0.858612
46.08,305.506,-0.858649
46.0817,305.522,-0.858697
46.0833,305.539,-0.858753
46.085,305.555,-0.858799
46.0867,305.572,-0.858852
46.0883,305.589,-0.858911
46.09,305.605,-0.85897
46.0917,305.622,-0.859027
46.0933,305.638,-0.859082
46.095,305.655,-0.859131
46.0967,305.672,-0.859182
46.0983,305.688,-0.859227
46.1,305.704,-0.859267
46.1017,305.721,-0.859313
46.1033,305.738,-0.859358
46.105,305.755,-0.859401
46.1067,305.771,-0.859449
46.1083,305.788,-0.859504
46.11,305.805,-0.859554
46.1117,305.822,-0.859602
46.1133,305.839,-0.85966
46.115,305.856,-0.859721
46.1167,305.872,-0.859779
46.1183,305.889,-0.859829
46.12,305.905,-0.859877
46.1217,305.922,-0.859913
46.1233,305.939,-0.85995
46.125,305.955,-0.85999
46.1267,305.971,-0.860021
46.1283,305.988,-0.860052
46.13,306.005,-0.860093
46.1317,306.022,-0.860139
46.1333,306.038,-0.860187
46.135,306.055,-0.86024
46.1367,306.072,-0.860293
46.1383,306.088,-0.86034
46.14,306.105,-0.860395
46.1417,306.121,-0.860452
46.1433,306.138,-0.860518
46.145,306.155,-0.860588
46.1467,306.171,-0.860644
46.1483,306.188,-0.860702
46.15,306.205,-0.860765
46.1517,306.221,-0.860828
46.1533,306.238,-0.860892
46.155,306.255,-0.86095
46.1567,306.271,-0.860998
46.1583,306.288,-0.861047
46.16,306.305,-0.861093
46.1617,306.322,-0.861134
46.1633,306.338,-0.861177
46.165,306.354,-0.861203
46.1667,306.371,-0.861227
46.1683,306.388,-0.861248
46.17,306.405,-0.861267
46.1717,306.421,-0.861291
46.1733,306.438,-0.861315
46.175,306.455,-0.861335
46.1767,306.471,-0.861361
46.1783,306.488,-0.861384
46.18,306.504,-0.861415
46.1817,306.521,-0.86145
46.1833,306.538,-0.861483
46.185,306.554,-0.861512
46.1867,306.571,-0.86154
46.1883,306.588,-0.861574
46.19,306.605,-0.861604
46.1917,306.621,-0.861631
46.1933,306.638,-0.861662
46.195,306.655,-0.861696
46.1967,306.672,-0.861728
46.1983,306.688,-0.861761
46.2,306.705,-0.861804
46.2017,306.722,-0.861851
46.2033,306.738,-0.861908
46.205,306.755,-0.861961
46.2067,306.772,-0.862019
46.2083,306.788,-0.862082
46.21,306.805,-0.862156
46.2117,306.821,-0.862241
46.2133,306.838,-0.862375
46.215,306.855,-0.862517
46.2167,306.871,-0.862658
46.2183,306.888,-0.862776
46.22,306.905,-0.862846
46.2217,306.921,-0.862912
46.2233,306.938,-0.86296
46.225,306.954,-0.863005
46.2267,306.971,-0.863048
46.2283,306.988,-0.863094
46.23,307.004,-0.863132
46.2317,307.021,-0.863171
46.2333,307.038,-0.863207
46.235,307.054,-0.863242
46.2367,307.071,-0.863285
46.2383,307.088,-0.863327
46.24,307.104,-0.863367
46.2417,307.121,-0.863411
46.2433,307.138,-0.863454
46.245,307.155,-0.863493
46.2467,307.171,-0.863537
46.2483,307.188,-0.863588
46.25,307.204,-0.863645
46.2517,307.221,-0.863703
46.2533,307.238,-0.86376
46.255,307.254,-0.863822
46.2567,307.271,-0.863878
46.2583,307.288,-0.863919
46.26,307.305,-0.863947
46.2617,307.321,-0.863962
46.2633,307.338,-0.863971
46.265,307.355,-0.863977
46.2667,307.371,-0.863982
46.2683,307.388,-0.863992
46.27,307.404,-0.864008
46.2717,307.421,-0.86403
46.2733,307.438,-0.864068
46.275,307.454,-0.864125
46.2767,307.471,-0.864186
46.2783,307.488,-0.864251
46.28,307.504,-0.864334
46.2817,307.521,-0.8644
46.2833,307.537,-0.864456
46.285,307.553,-0.864509
46.2867,307.57,-0.864561
46.2883,307.587,-0.86461
46.29,307.604,-0.864657
46.2917,307.621,-0.864708
46.2933,307.637,-0.864768
46.295,307.654,-0.864843
46.2967,307.671,-0.864917
46.2983,307.687,-0.864987
46.3,307.704,-0.865048
46.3017,307.721,-0.865105
46.3033,307.737,-0.865165
46.305,307.754,-0.865214
46.3067,307.77,-0.865258
46.3083,307.787,-0.865289
46.31,307.803,-0.865315
46.3117,307.821,-0.865346
46.3133,307.837,-0.865377
46.315,307.854,-0.865411
46.3167,307.871,-0.865446
46.3183,307.888,-0.865473
46.32,307.904,-0.865502
46.3217,307.921,-0.865543
46.3233,307.938,-0.865591
46.325,307.954,-0.865648
46.3267,307.971,-0.865709
46.3283,307.988,-0.865765
46.33,308.004,-0.865817
46.3317,308.021,-0.865879
46.3333,308.037,-0.865935
46.335,308.053,-0.865987
46.3367,308.07,-0.866038
46.3383,308.087,-0.866083
46.34,308.103,-0.866119
46.3417,308.12,-0.866161
46.3433,308.137,-0.866197
46.345,308.154,-0.866232
46.3467,308.17,-0.866264
46.3483,308.187,-0.866294
46.35,308.203,-0.86633
46.3517,308.22,-0.866369
46.3533,308.237,-0.866405
46.355,308.254,-0.866444
46.3567,308.27,-0.866479
46.3583,308.287,-0.86653
46.36,308.304,-0.866594
46.3617,308.32,-0.866663
46.3633,308.337,-0.866733
46.365,308.353,-0.866806
46.3667,308.37,-0.866878
46.3683,308.387,-0.866948
46.37,308.403,-0.867012
46.3717,308.42,-0.86707
46.3733,308.437,-0.867125
46.375,308.453,-0.867171
46.3767,308.47,-0.86721
46.3783,308.487,-0.867254
46.38,308.503,-0.867293
46.3817,308.52,-0.867335
46.3833,308.537,-0.867377
46.385,308.554,-0.867422
46.3867,308.57,-0.867468
46.3883,308.587,-0.867515
46.39,308.603,-0.86757
46.3917,308.619,-0.867628
46.3933,308.636,-0.867682
46.395,308.653,-0.86774
46.3967,308.67,-0.867801
46.3983,308.687,-0.867862
46.4,308.703,-0.867915
46.4017,308.72,-0.867965
46.4033,308.736,-0.868011
46.405,308.753,-0.868056
46.4067,308.77,-0.868092
46.4083,308.787,-0.868119
46.41,308.803,-0.868149
46.4117,308.82,-0.868186
46.4133,308.836,-0.868225
46.415,308.853,-0.868266
46.4167,308.87,-0.868313
46.4183,308.886,-0.868372
46.42,308.903,-0.868432
46.4217,308.92,-0.868495
46.4233,308.936,-0.868556
46.425,308.953,-0.868609
46.4267,308.97,-0.868654
46.4283,308.987,-0.868702
46.43,309.003,-0.868747
46.4317,309.02,-0.868793
46.4333,309.036,-0.868833
46.435,309.053,-0.868874
46.4367,309.069,-0.868919
46.4383,309.086,-0.868963
46.44,309.103,-0.869012
46.4417,309.119,-0.869057
46.4433,309.136,-0.8691
46.445,309.153,-0.869131
46.4467,309.169,-0.869169
46.4483,309.186,-0.869215
46.45,309.203,-0.869267
46.4517,309.219,-0.86932
46.4533,309.236,-0.869374
46.455,309.252,-0.869426
46.4567,309.269,-0.86949
46.4583,309.286,-0.869547
46.46,309.303,-0.869597
46.4617,309.319,-0.869651
46.4633,309.336,-0.869697
46.465,309.352,-0.869742
46.4667,309.369,-0.869791
46.4683,309.385,-0.869847
46.47,309.402,-0.869904
46.4717,309.419,-0.869966
46.4733,309.436,-0.870034
46.475,309.453,-0.870107
46.4767,309.469,-0.87018
46.4783,309.486,-0.870243
46.48,309.502,-0.870297
46.4817,309.519,-0.870348
46.4833,309.536,-0.870397
46.485,309.552,-0.870442
46.4867,309.569,-0.87048
46.4883,309.586,-0.870516
46.49,309.602,-0.87055
46.4917,309.619,-0.870581
46.4933,309.635,-0.870611
46.495,309.652,-0.870647
46.4967,309.668,-0.870684
46.4983,309.686,-0.870724
46.5,309.702,-0.870776
46.5017,309.719,-0.870838
46.5033,309.736,-0.870902
46.505,309.752,-0.87097
46.5067,309.769,-0.871036
46.5083,309.785,-0.871099
46.51,309.802,-0.871155
46.5117,309.819,-0.871202
46.5133,309.835,-0.87125
46.515,309.852,-0.871302
46.5167,309.869,-0.871351
46.5183,309.885,-0.871395
46.52,309.902,-0.87144
46.5217,309.919,-0.871488
46.5233,309.935,-0.871538
46.525,309.952,-0.871587
46.5267,309.969,-0.871642
46.5283,309.985,-0.871695
46.53,310.002,-0.871759
46.5317,310.018,-0.871826
46.5333,310.035,-0.871893
46.535,310.052,-0.871955
46.5367,310.068,-0.872011
46.5383,310.085,-0.872065
46.54,310.102,-0.872117
46.5417,310.118,-0.872158
46.5433,310.135,-0.872191
46.545,310.152,-0.872222
46.5467,310.168,-0.87225
46.5483,310.185,-0.872277
46.55,310.202,-0.872309
46.5517,310.218,-0.872351
46.5533,310.235,-0.872395
46.555,310.251,-0.872443
46.5567,310.268,-0.872491
46.5583,310.285,-0.872534
46.56,310.301,-0.872578
46.5617,310.318,-0.872625
46.5633,310.335,-0.872666
46.565,310.351,-0.872699
46.5667,310.368,-0.872742
46.5683,310.385,-0.872795
46.57,310.402,-0.872853
46.5717,310.418,-0.872916
46.5733,310.434,-0.872979
46.575,310.45,-0.873059
46.5767,310.467,-0.873136
46.5783,310.484,-0.873212
46.58,310.499,-0.873281
46.5817,310.516,-0.873347
46.5833,310.533,-0.873404
46.585,310.549,-0.873454
46.5867,310.566,-0.873499
46.5883,310.583,-0.87354
46.59,310.6,-0.87358
46.5917,310.617,-0.873627
46.5933,310.634,-0.873676
46.595,310.65,-0.873737
46.5967,310.667,-0.873798
46.5983,310.684,-0.873856
46.6,310.7,-0.873917
46.6017,310.717,-0.873977
46.6033,310.733,-0.874035
46.605,310.75,-0.874086
46.6067,310.767,-0.874135
46.6083,310.783,-0.874183
46.61,310.8,-0.874232
46.6117,310.817,-0.874279
46.6133,310.833,-0.874328
46.615,310.85,-0.874382
46.6167,310.866,-0.874432
46.6183,310.883,-0.874478
46.62,310.9,-0.874526
46.6217,310.917,-0.874577
46.6233,310.933,-0.874624
46.625,310.95,-0.874664
46.6267,310.967,-0.874712
46.6283,310.983,-0.874758
46.63,311,-0.874802
46.6317,311.017,-0.87485
46.6333,311.034,-0.874899
46.635,311.05,-0.874956
46.6367,311.067,-0.875011
46.6383,311.083,-0.875084
46.64,311.1,-0.875152
46.6417,311.117,-0.875221
46.6433,311.133,-0.875291
46.645,311.15,-0.875365
46.6467,311.167,-0.875438
46.6483,311.183,-0.875505
46.65,311.2,-0.875568
46.6517,311.216,-0.875629
46.6533,311.233,-0.875689
46.655,311.25,-0.875744
46.6567,311.266,-0.875793
46.6583,311.283,-0.875843
46.66,311.3,-0.875897
46.6617,311.316,-0.875951
46.6633,311.333,-0.876006
46.665,311.35,-0.876068
46.6667,311.367,-0.876134
46.6683,311.383,-0.876198
46.67,311.4,-0.876271
46.6717,311.416,-0.876346
46.6733,311.433,-0.876413
46.675,311.449,-0.876475
46.6767,311.466,-0.876542
46.6783,311.483,-0.876617
46.68,311.5,-0.876693
46.6817,311.516,-0.876772
46.6833,311.533,-0.876852
46.685,311.549,-0.876936
46.6867,311.566,-0.877024
46.6883,311.583,-0.877113
46.69,311.599,-0.877195
46.6917,311.616,-0.877269
46.6933,311.633,-0.877337
46.695,311.65,-0.87741
46.6967,311.667,-0.87748
46.6983,311.683,-0.877542
46.7,311.7,-0.877594
46.7017,311.716,-0.877647
46.7033,311.733,-0.877703
46.705,311.75,-0.877765
46.7067,311.766,-0.877835
46.7083,311.783,-0.877899
46.71,311.799,-0.877954
46.7117,311.816,-0.878007
46.7133,311.833,-0.878064
46.715,311.85,-0.878122
46.7167,311.866,-0.878183
46.7183,311.883,-0.878239
46.72,311.9,-0.878285
46.7217,311.917,-0.878335
46.7233,311.933,-0.87839
46.725,311.95,-0.878448
46.7267,311.967,-0.878509
46.7283,311.983,-0.878572
46.73,312,-0.878637
46.7317,312.017,-0.878704
46.7333,312.033,-0.878774
46.735,312.05,-0.878849
46.7367,312.067,-0.878933
46.7383,312.083,-0.879016
46.74,312.1,-0.879098
46.7417,312.116,-0.879179
46.7433,312.133,-0.879257
46.745,312.15,-0.879332
46.7467,312.167,-0.879403
46.7483,312.183,-0.879457
46.75,312.2,-0.879503
46.7517,312.216,-0.879543
46.7533,312.233,-0.87958
46.755,312.249,-0.879624
46.7567,312.266,-0.879668
46.7583,312.283,-0.879714
46.76,312.299,-0.879765
46.7617,312.316,-0.879825
46.7633,312.333,-0.879884
46.765,312.35,-0.879947
46.7667,312.366,-0.879999
46.7683,312.383,-0.880049
46.77,312.4,-0.880109
46.7717,312.416,-0.880166
46.7733,312.433,-0.88023
46.775,312.45,-0.880299
46.7767,312.466,-0.880369
46.7783,312.483,-0.88043
46.78,312.5,-0.880497
46.7817,312.517,-0.880561
46.7833,312.533,-0.880624
46.785,312.549,-0.88068
46.7867,312.566,-0.880732
46.7883,312.583,-0.880781
46.79,312.6,-0.880818
46.7917,312.617,-0.880858
46.7933,312.633,-0.880903
46.795,312.65,-0.880953
46.7967,312.666,-0.881003
46.7983,312.682,-0.881053
46.8,312.699,-0.881112
46.8017,312.716,-0.881182
46.8033,312.732,-0.881259
46.805,312.749,-0.881336
46.8067,312.766,-0.881402
46.8083,312.783,-0.881465
46.81,312.799,-0.881534
46.8117,312.816,-0.881604
46.8133,312.833,-0.881673
46.815,312.849,-0.881736
46.8167,312.866,-0.881809
46.8183,312.883,-0.881884
46.82,312.899,-0.881954
46.8217,312.916,-0.882021
46.8233,312.933,-0.882081
46.825,312.949,-0.882142
46.8267,312.966,-0.882191
46.8283,312.982,-0.882237
46.83,312.999,-0.882283
46.8317,313.016,-0.882326
46.8333,313.033,-0.88237
46.835,313.049,-0.882413
46.8367,313.066,-0.882462
46.8383,313.083,-0.882513
46.84,313.099,-0.882565
46.8417,313.116,-0.88262
46.8433,313.133,-0.882678
46.845,313.149,-0.882738
46.8467,313.165,-0.882797
46.8483,313.182,-0.882851
46.85,313.199,-0.882901
46.8517,313.216,-0.882947
46.8533,313.232,-0.882989
46.855,313.249,-0.88303
46.8567,313.266,-0.883062
46.8583,313.282,-0.883089
46.86,313.299,-0.883122
46.8617,313.315,-0.883176
46.8633,313.332,-0.883241
46.865,313.349,-0.88331
46.8667,313.365,-0.883385
46.8683,313.382,-0.883476
46.87,313.399,-0.883606
46.8717,313.415,-0.883708
46.8733,313.432,-0.883776
46.875,313.449,-0.88384
46.8767,313.465,-0.883895
46.8783,313.482,-0.883952
46.88,313.499,-0.884013
46.8817,313.515,-0.88407
46.8833,313.532,-0.884117
46.885,313.549,-0.884151
46.8867,313.565,-0.88419
46.8883,313.582,-0.884225
46.89,313.599,-0.884263
46.8917,313.615,-0.884298
46.8933,313.632,-0.884341
46.895,313.649,-0.884397
46.8967,313.665,-0.884455
46.8983,313.682,-0.884527
46.9,313.698,-0.884601
46.9017,313.715,-0.884679
46.9033,313.732,-0.884771
46.905,313.749,-0.884866
46.9067,313.765,-0.884946
46.9083,313.782,-0.885008
46.91,313.798,-0.885054
46.9117,313.815,-0.885094
46.9133,313.831,-0.885134
46.915,313.848,-0.885159
46.9167,313.865,-0.885179
46.9183,313.881,-0.885207
46.92,313.898,-0.885242
46.9217,313.915,-0.88528
46.9233,313.931,-0.885333
46.925,313.948,-0.885392
46.9267,313.965,-0.885453
46.9283,313.981,-0.885523
46.93,313.998,-0.885599
46.9317,314.015,-0.885676
46.9333,314.031,-0.885755
46.935,314.048,-0.88582
46.9367,314.065,-0.885884
46.9383,314.082,-0.885947
46.94,314.098,-0.886013
46.9417,314.115,-0.886082
46.9433,314.131,-0.886161
46.945,314.148,-0.886239
46.9467,314.164,-0.886312
46.9483,314.181,-0.886389
46.95,314.198,-0.886467
46.9517,314.214,-0.886543
46.9533,314.231,-0.886605
46.955,314.248,-0.886659
46.9567,314.264,-0.886705
46.9583,314.281,-0.886753
46.96,314.297,-0.8868
46.9617,314.314,-0.88685
46.9633,314.331,-0.886901
46.965,314.348,-0.886955
46.9667,314.364,-0.887021
46.9683,314.381,-0.887096
46.97,314.398,-0.887175
46.9717,314.414,-0.887251
46.9733,314.431,-0.887313
46.975,314.447,-0.88738
46.9767,314.464,-0.88744
46.9783,314.481,-0.887492
46.98,314.497,-0.887538
46.9817,314.514,-0.88758
46.9833,314.531,-0.887623
46.985,314.548,-0.887667
46.9867,314.564,-0.887713
46.9883,314.581,-0.88776
46.99,314.598,-0.887808
46.9917,314.615,-0.887855
46.9933,314.631,-0.887907
46.995,314.647,-0.887968
46.9967,314.664,-0.888039
46.9983,314.681,-0.888114
47,314.697,-0.888192
47.0017,314.714,-0.888265
47.0033,314.73,-0.888342
47.005,314.747,-0.888425
47.0067,314.764,-0.888509
47.0083,314.78,-0.888595
47.01,314.797,-0.888672
47.0117,314.814,-0.888747
47.0133,314.83,-0.888819
47.015,314.847,-0.888883
47.0167,314.864,-0.888938
47.0183,314.881,-0.888985
47.02,314.897,-0.889028
47.0217,314.913,-0.88907
47.0233,314.93,-0.889114
47.025,314.947,-0.889165
47.0267,314.963,-0.889228
47.0283,314.98,-0.8893
47.03,314.997,-0.88938
47.0317,315.014,-0.889464
47.0333,315.03,-0.889542
47.035,315.047,-0.889621
47.0367,315.064,-0.889703
47.0383,315.081,-0.889786
47.04,315.097,-0.889862
47.0417,315.114,-0.889939
47.0433,315.13,-0.890009
47.045,315.147,-0.89008
47.0467,315.163,-0.890151
47.0483,315.18,-0.890213
47.05,315.197,-0.890273
47.0517,315.213,-0.890328
47.0533,315.23,-0.890383
47.055,315.247,-0.890435
47.0567,315.263,-0.89049
47.0583,315.28,-0.890546
47.06,315.296,-0.890604
47.0617,315.313,-0.890671
47.0633,315.33,-0.890736
47.065,315.346,-0.890799
47.0667,315.363,-0.89086
47.0683,315.379,-0.890925
47.07,315.396,-0.891003
47.0717,315.413,-0.891084
47.0733,315.43,-0.891164
47.075,315.446,-0.891244
47.0767,315.463,-0.891317
47.0783,315.48,-0.891384
47.08,315.496,-0.891452
47.0817,315.513,-0.891517
47.0833,315.53,-0.891579
47.085,315.547,-0.891642
47.0867,315.563,-0.891702
47.0883,315.58,-0.891768
47.09,315.597,-0.891838
47.0917,315.613,-0.891909
47.0933,315.63,-0.891976
47.095,315.646,-0.89205
47.0967,315.663,-0.892123
47.0983,315.68,-0.892187
47.1,315.696,-0.892243
47.1017,315.713,-0.892299
47.1033,315.729,-0.892358
47.105,315.746,-0.892417
47.1067,315.762,-0.892474
47.1083,315.779,-0.892532
47.11,315.796,-0.892593
47.1117,315.812,-0.89265
47.1133,315.829,-0.892721
47.115,315.846,-0.892792
47.1167,315.863,-0.892865
47.1183,315.879,-0.89295
47.12,315.896,-0.893038
47.1217,315.912,-0.893126
47.1233,315.929,-0.893221
47.125,315.945,-0.893312
47.1267,315.962,-0.893406
47.1283,315.979,-0.893496
47.13,315.996,-0.893592
47.1317,316.012,-0.893685
47.1333,316.029,-0.893777
47.135,316.046,-0.893874
47.1367,316.063,-0.893966
47.1383,316.08,-0.894059
47.14,316.096,-0.894145
47.1417,316.112,-0.894214
47.1433,316.129,-0.894284
47.145,316.146,-0.894346
47.1467,316.162,-0.894397
47.1483,316.179,-0.894452
47.15,316.195,-0.894507
47.1517,316.212,-0.894558
47.1533,316.229,-0.894612
47.155,316.245,-0.89467
47.1567,316.262,-0.894728
47.1583,316.279,-0.894795
47.16,316.296,-0.894871
47.1617,316.312,-0.894951
47.1633,316.329,-0.895036
47.165,316.346,-0.895132
47.1667,316.363,-0.895223
47.1683,316.379,-0.895311
47.17,316.395,-0.895401
47.1717,316.412,-0.895488
47.1733,316.429,-0.895568
47.175,316.445,-0.895645
47.1767,316.462,-0.89572
47.1783,316.478,-0.895795
47.18,316.495,-0.895872
47.1817,316.512,-0.895939
47.1833,316.528,-0.896005
47.185,316.545,-0.896065
47.1867,316.562,-0.896132
47.1883,316.579,-0.896204
47.19,316.595,-0.896272
47.1917,316.612,-0.896338
47.1933,316.628,-0.896404
47.195,316.645,-0.896472
47.1967,316.662,-0.896545
47.1983,316.678,-0.896611
47.2,316.695,-0.896667
47.2017,316.712,-0.896719
47.2033,316.728,-0.896771
47.205,316.745,-0.896823
47.2067,316.762,-0.896882
47.2083,316.779,-0.89694
47.21,316.795,-0.896998
47.2117,316.812,-0.897053
47.2133,316.828,-0.897119
47.215,316.845,-0.897196
47.2167,316.862,-0.897282
47.2183,316.878,-0.897369
47.22,316.895,-0.89746
47.2217,316.911,-0.897605
47.2233,316.928,-0.897755
47.225,316.944,-0.89791
47.2267,316.961,-0.898013
47.2283,316.978,-0.898103
47.23,316.995,-0.898184
47.2317,317.012,-0.89825
47.2333,317.028,-0.898319
47.235,317.044,-0.898381
47.2367,317.061,-0.898442
47.2383,317.078,-0.898501
47.24,317.094,-0.898569
47.2417,317.111,-0.898649
47.2433,317.128,-0.898732
47.245,317.144,-0.898825
47.2467,317.161,-0.898941
47.2483,317.178,-0.899052
47.25,317.194,-0.899151
47.2517,317.211,-0.899238
47.2533,317.228,-0.899323
47.255,317.244,-0.899416
47.2567,317.261,-0.899499
47.2583,317.277,-0.899578
47.26,317.294,-0.899652
47.2617,317.311,-0.899725
47.2633,317.328,-0.899793
47.265,317.344,-0.899859
47.2667,317.361,-0.89993
47.2683,317.377,-0.899994
47.27,317.394,-0.900055
47.2717,317.411,-0.900116
47.2733,317.427,-0.90019
47.275,317.444,-0.900267
47.2767,317.46,-0.90035
47.2783,317.477,-0.900442
47.28,317.493,-0.900524
47.2817,317.51,-0.900609
47.2833,317.527,-0.900694
47.285,317.544,-0.900774
47.2867,317.56,-0.900859
47.2883,317.577,-0.900942
47.29,317.594,-0.901025
47.2917,317.61,-0.9011
47.2933,317.627,-0.901181
47.295,317.644,-0.901276
47.2967,317.66,-0.901366
47.2983,317.677,-0.901451
47.3,317.693,-0.90154
47.3017,317.71,-0.901626
47.3033,317.727,-0.901717
47.305,317.744,-0.901807
47.3067,317.76,-0.9019
47.3083,317.777,-0.902
47.31,317.794,-0.902097
47.3117,317.81,-0.90219
47.3133,317.827,-0.902291
47.315,317.844,-0.902385
47.3167,317.86,-0.902484
47.3183,317.877,-0.902578
47.32,317.894,-0.902669
47.3217,317.91,-0.902765
47.3233,317.927,-0.902865
47.325,317.943,-0.902962
47.3267,317.96,-0.90307
47.3283,317.976,-0.903173
47.33,317.993,-0.903274
47.3317,318.01,-0.903371
47.3333,318.026,-0.90347
47.335,318.043,-0.90356
47.3367,318.059,-0.903643
47.3383,318.076,-0.903728
47.34,318.093,-0.903812
47.3417,318.109,-0.903897
47.3433,318.126,-0.903975
47.345,318.143,-0.904055
47.3467,318.16,-0.904126
47.3483,318.176,-0.904198
47.35,318.193,-0.904283
47.3517,318.21,-0.904374
47.3533,318.226,-0.904459
47.355,318.243,-0.904542
47.3567,318.26,-0.904625
47.3583,318.276,-0.904713
47.36,318.293,-0.90481
47.3617,318.309,-0.904915
47.3633,318.326,-0.90509
47.365,318.342,-0.90527
47.3667,318.359,-0.905379
47.3683,318.376,-0.905486
47.37,318.393,-0.905599
47.3717,318.409,-0.905708
47.3733,318.426,-0.905812
47.375,318.442,-0.905914
47.3767,318.459,-0.90602
47.3783,318.475,-0.906129
47.38,318.492,-0.906243
47.3817,318.509,-0.906359
47.3833,318.525,-0.906469
47.385,318.542,-0.906573
47.3867,318.559,-0.906676
47.3883,318.576,-0.906786
47.39,318.592,-0.906884
47.3917,318.609,-0.906983
47.3933,318.625,-0.907081
47.395,318.642,-0.907179
47.3967,318.659,-0.907276
47.3983,318.676,-0.907375
47.4,318.693,-0.907484
47.4017,318.709,-0.907594
47.4033,318.726,-0.907691
47.405,318.742,-0.907784
47.4067,318.759,-0.907886
47.4083,318.776,-0.907986
47.41,318.793,-0.908089
47.4117,318.809,-0.908181
47.4133,318.826,-0.908269
47.415,318.842,-0.90835
47.4167,318.859,-0.908438
47.4183,318.876,-0.908525
47.42,318.892,-0.908613
47.4217,318.909,-0.908701
47.4233,318.925,-0.908797
47.425,318.942,-0.908904
47.4267,318.959,-0.909018
47.4283,318.976,-0.909129
47.43,318.992,-0.909237
47.4317,319.009,-0.909343
47.4333,319.025,-0.909443
47.435,319.042,-0.909541
47.4367,319.059,-0.909633
47.4383,319.075,-0.90973
47.44,319.092,-0.909829
47.4417,319.109,-0.909928
47.4433,319.126,-0.910018
47.445,319.142,-0.910113
47.4467,319.159,-0.910218
47.4483,319.175,-0.910334
47.45,319.192,-0.910462
47.4517,319.208,-0.910806
47.4533,319.225,-0.91118
47.455,319.242,-0.911528
47.4567,319.258,-0.911812
47.4583,319.275,-0.91209
47.46,319.292,-0.91243
47.4617,319.308,-0.912678
47.4633,319.325,-0.91288
47.465,319.341,-0.912995
47.4667,319.357,-0.913097
47.4683,319.375,-0.913191
47.47,319.392,-0.913287
47.4717,319.408,-0.913378
47.4733,319.425,-0.913465
47.475,319.442,-0.913558
47.4767,319.458,-0.913641
47.4783,319.474,-0.913727
47.48,319.491,-0.913826
47.4817,319.508,-0.91392
47.4833,319.525,-0.914017
47.485,319.541,-0.91412
47.4867,319.558,-0.914229
47.4883,319.574,-0.91434
47.49,319.591,-0.914444
47.4917,319.608,-0.91455
47.4933,319.624,-0.914657
47.495,319.641,-0.914761
47.4967,319.658,-0.914858
47.4983,319.674,-0.914954
47.5,319.691,-0.915046
47.5017,319.708,-0.915137
47.5033,319.725,-0.915227
47.505,319.741,-0.915314
47.5067,319.757,-0.915402
47.5083,319.774,-0.915493
47.51,319.791,-0.915593
47.5117,319.807,-0.915695
47.5133,319.824,-0.915807
47.515,319.841,-0.91592
47.5167,319.857,-0.916031
47.5183,319.874,-0.916145
47.52,319.891,-0.916267
47.5217,319.907,-0.916426
47.5233,319.924,-0.916631
47.525,319.941,-0.916807
47.5267,319.957,-0.917148
47.5283,319.974,-0.917365
47.53,319.991,-0.917562
47.5317,320.007,-0.917687
47.5333,320.024,-0.917805
47.535,320.041,-0.917916
47.5367,320.057,-0.918014
47.5383,320.074,-0.918117
47.54,320.091,-0.918215
47.5417,320.107,-0.918317
47.5433,320.124,-0.918429
47.545,320.141,-0.918548
47.5467,320.157,-0.918671
47.5483,320.174,-0.918893
47.55,320.19,-0.919138
47.5517,320.207,-0.919326
47.5533,320.224,-0.919454
47.555,320.24,-0.919581
47.5567,320.257,-0.91971
47.5583,320.274,-0.919827
47.56,320.29,-0.919939
47.5617,320.307,-0.920047
47.5633,320.324,-0.920157
47.565,320.34,-0.920268
47.5667,320.357,-0.92038
47.5683,320.373,-0.92049
47.57,320.39,-0.920607
47.5717,320.406,-0.920723
47.5733,320.423,-0.920838
47.575,320.44,-0.920954
47.5767,320.456,-0.921067
47.5783,320.473,-0.92118
47.58,320.49,-0.921306
47.5817,320.507,-0.921468
47.5833,320.523,-0.921672
47.585,320.54,-0.921882
47.5867,320.556,-0.922012
47.5883,320.573,-0.92214
47.59,320.589,-0.922268
47.5917,320.606,-0.922401
47.5933,320.623,-0.922535
47.595,320.64,-0.922664
47.5967,320.656,-0.922795
47.5983,320.673,-0.922916
47.6,320.691,-0.92304
47.6017,320.707,-0.923171
47.6033,320.724,-0.923307
47.605,320.741,-0.92344
47.6067,320.757,-0.923572
47.6083,320.774,-0.9237
47.61,320.79,-0.923827
47.6117,320.807,-0.923953
47.6133,320.823,-0.924087
47.615,320.84,-0.924225
47.6167,320.857,-0.924363
47.6183,320.873,-0.924517
47.62,320.89,-0.924653
47.6217,320.907,-0.924878
47.6233,320.923,-0.925066
47.625,320.94,-0.925224
47.6267,320.957,-0.925381
47.6283,320.973,-0.925588
47.63,320.99,-0.925729
47.6317,321.007,-0.925869
47.6333,321.023,-0.926009
47.635,321.04,-0.926173
47.6367,321.056,-0.926313
47.6383,321.073,-0.926448
47.64,321.089,-0.926587
47.6417,321.106,-0.926752
47.6433,321.122,-0.926896
47.645,321.139,-0.927043
47.6467,321.155,-0.92723
47.6483,321.172,-0.927469
47.65,321.189,-0.927705
47.6517,321.205,-0.927855
47.6533,321.222,-0.928003
47.655,321.239,-0.928151
47.6567,321.256,-0.928295
47.6583,321.272,-0.928436
47.66,321.289,-0.92858
47.6617,321.305,-0.928719
47.6633,321.322,-0.928864
47.665,321.339,-0.929009
47.6667,321.355,-0.929155
47.6683,321.372,-0.929299
47.67,321.389,-0.929446
47.6717,321.405,-0.929628
47.6733,321.422,-0.929938
47.675,321.438,-0.930202
47.6767,321.455,-0.930608
47.6783,321.471,-0.930905
47.68,321.488,-0.931235
47.6817,321.505,-0.93156
47.6833,321.521,-0.931784
47.685,321.538,-0.932029
47.6867,321.555,-0.932204
47.6883,321.571,-0.932355
47.69,321.588,-0.932502
47.6917,321.605,-0.932654
47.6933,321.621,-0.932801
47.695,321.638,-0.932953
47.6967,321.655,-0.933097
47.6983,321.671,-0.933237
47.7,321.688,-0.933409
47.7017,321.705,-0.933537
47.7033,321.721,-0.933657
47.705,321.738,-0.933776
47.7067,321.754,-0.9339
47.7083,321.771,-0.934028
47.71,321.787,-0.934177
47.7117,321.804,-0.934401
47.7133,321.821,-0.934887
47.715,321.838,-0.935734
47.7167,321.854,-0.936664
47.7183,321.871,-0.937938
47.72,321.887,-0.939401
47.7217,321.904,-0.940605
47.7233,321.921,-0.941595
47.725,321.937,-0.942542
47.7267,321.954,-0.943139
47.7283,321.971,-0.943519
47.73,321.987,-0.94375
47.7317,322.004,-0.94389
47.7333,322.02,-0.944013
47.735,322.037,-0.944276
47.7367,322.054,-0.944443
47.7383,322.07,-0.944558
47.74,322.086,-0.944653
47.7417,322.103,-0.944751
47.7433,322.12,-0.944861
47.745,322.136,-0.944972
47.7467,322.153,-0.945212
47.7483,322.169,-0.945563
47.75,322.186,-0.946083
47.7517,322.203,-0.946619
47.7533,322.219,-0.947269
47.755,322.236,-0.947989
47.7567,322.253,-0.948736
47.7583,322.269,-0.949137
47.76,322.286,-0.949568
47.7617,322.303,-0.949832
47.7633,322.32,-0.950034
47.765,322.336,-0.95025
47.7667,322.353,-0.950452
47.7683,322.37,-0.950644
47.77,322.386,-0.950789
47.7717,322.403,-0.950913
47.7733,322.419,-0.951163
47.775,322.436,-0.951642
47.7767,322.453,-0.95211
47.7783,322.469,-0.952665
47.78,322.486,-0.953356
47.7817,322.503,-0.954016
47.7833,322.519,-0.954813
47.785,322.536,-0.955505
47.7867,322.552,-0.956133
47.7883,322.569,-0.956699
47.79,322.585,-0.957248
47.7917,322.602,-0.957757
47.7933,322.619,-0.958297
47.795,322.635,-0.958806
47.7967,322.652,-0.959156
47.7983,322.669,-0.959505
47.8,322.685,-0.959709
47.8017,322.702,-0.95987
47.8033,322.718,-0.960056
47.805,322.735,-0.960269
47.8067,322.751,-0.960514
47.8083,322.768,-0.960798
47.81,322.784,-0.961103
47.8117,322.801,-0.961415
47.8133,322.818,-0.961762
47.815,322.835,-0.962051
47.8167,322.851,-0.962317
47.8183,322.868,-0.962584
47.82,322.884,-0.962777
47.8217,322.901,-0.962938
47.8233,322.918,-0.963162
47.825,322.934,-0.963498
47.8267,322.951,-0.964088
47.8283,322.967,-0.96491
47.83,322.984,-0.96587
47.8317,323.001,-0.96696
47.8333,323.018,-0.968015
47.835,323.034,-0.969331
47.8367,323.051,-0.970576
47.8383,323.067,-0.971966
47.84,323.084,-0.973192
47.8417,323.101,-0.973921
47.8433,323.118,-0.974587
47.845,323.134,-0.975109
47.8467,323.151,-0.975457
47.8483,323.167,-0.975729
47.85,323.184,-0.975938
47.8517,323.201,-0.97608
47.8533,323.217,-0.976223
47.855,323.234,-0.976421
47.8567,323.251,-0.976661
47.8583,323.267,-0.976966
47.86,323.284,-0.977401
47.8617,323.3,-0.977963
47.8633,323.317,-0.978609
47.865,323.333,-0.979221
47.8667,323.35,-0.979595
47.8683,323.367,-0.980107
47.87,323.383,-0.98057
47.8717,323.4,-0.981116
47.8733,323.417,-0.981554
47.875,323.433,-0.982076
47.8767,323.45,-0.982806
47.8783,323.467,-0.983619
47.88,323.483,-0.984558
47.8817,323.5,-0.985746
47.8833,323.516,-0.986944
47.885,323.533,-0.987931
47.8867,323.549,-0.988927
47.8883,323.566,-0.989864
47.89,323.582,-0.990608
47.8917,323.599,-0.991204
47.8933,323.616,-0.991685
47.895,323.632,-0.992157
47.8967,323.649,-0.99273
47.8983,323.666,-0.99317
47.9,323.683,-0.993707
47.9017,323.699,-0.994399
47.9033,323.716,-0.995271
47.905,323.732,-0.996299
47.9067,323.749,-0.997234
47.9083,323.766,-0.998149
47.91,323.782,-0.998878
47.9117,323.799,-0.999748
47.9133,323.815,-1.00048
47.915,323.832,-1.00148
47.9167,323.849,-1.00242
47.9183,323.865,-1.00321
47.92,323.882,-1.004
47.9217,323.899,-1.00497
47.9233,323.915,-1.00585
47.925,323.932,-1.00658
47.9267,323.949,-1.00712
47.9283,323.965,-1.00755
47.93,323.982,-1.00799
47.9317,323.999,-1.00842
47.9333,324.015,-1.00887
47.935,324.031,-1.00936
47.9367,324.048,-1.00985
47.9383,324.064,-1.01036
47.94,324.081,-1.01129
47.9417,324.098,-1.01262
47.9433,324.115,-1.0144
47.945,324.131,-1.01619
47.9467,324.148,-1.01795
47.9483,324.165,-1.01999
47.95,324.181,-1.02146
47.9517,324.198,-1.02297
47.9533,324.214,-1.02434
47.955,324.231,-1.02529
47.9567,324.248,-1.02613
47.9583,324.264,-1.02691
47.96,324.281,-1.02777
47.9617,324.297,-1.02874
47.9633,324.314,-1.02972
47.965,324.33,-1.03065
47.9667,324.347,-1.03142
47.9683,324.364,-1.03217
47.97,324.38,-1.03304
47.9717,324.397,-1.03398
47.9733,324.413,-1.03487
47.975,324.43,-1.03561
47.9767,324.447,-1.03634
47.9783,324.463,-1.0371
47.98,324.48,-1.03786
47.9817,324.497,-1.03852
47.9833,324.513,-1.03922
47.985,324.53,-1.03993
47.9867,324.546,-1.04069
47.9883,324.563,-1.04149
47.99,324.58,-1.04245
47.9917,324.596,-1.04363
47.9933,324.613,-1.04465
47.995,324.629,-1.04552
47.9967,324.646,-1.04643
47.9983,324.663,-1.04747
48,324.68,-1.04842
48.0017,324.696,-1.04947
48.0033,324.713,-1.0505
48.005,324.729,-1.05151
48.0067,324.745,-1.05241
48.0083,324.762,-1.05345
48.01,324.779,-1.05465
48.0117,324.795,-1.05591
48.0133,324.812,-1.05768
48.015,324.828,-1.05958
48.0167,324.845,-1.06139
48.0183,324.861,-1.06329
48.02,324.878,-1.06513
48.0217,324.895,-1.06681
48.0233,324.911,-1.06847
48.025,324.928,-1.06973
48.0267,324.945,-1.07068
48.0283,324.961,-1.07166
48.03,324.978,-1.07304
48.0317,324.995,-1.07455
48.0333,325.011,-1.07618
48.035,325.028,-1.07803
48.0367,325.044,-1.07958
48.0383,325.061,-1.08083
48.04,325.077,-1.08194
48.0417,325.093,-1.08321
48.0433,325.11,-1.08395
48.045,325.126,-1.0847
48.0467,325.143,-1.08559
48.0483,325.159,-1.08639
48.05,325.176,-1.08746
48.0517,325.193,-1.0887
48.0533,325.209,-1.09054
48.055,325.226,-1.09266
48.0567,325.243,-1.09471
48.0583,325.259,-1.09739
48.06,325.276,-1.09983
48.0617,325.292,-1.10239
48.0633,325.309,-1.10438
48.065,325.326,-1.10639
48.0667,325.342,-1.10811
48.0683,325.359,-1.10931
48.07,325.375,-1.11042
48.0717,325.391,-1.11126
48.0733,325.408,-1.11199
48.075,325.424,-1.11305
48.0767,325.441,-1.11414
48.0783,325.458,-1.11538
48.08,325.475,-1.11635
48.0817,325.491,-1.11727
48.0833,325.508,-1.11864
48.085,325.524,-1.12025
48.0867,325.541,-1.12214
48.0883,325.557,-1.12447
48.09,325.574,-1.12777
48.0917,325.59,-1.13116
48.0933,325.607,-1.13426
48.095,325.624,-1.13693
48.0967,325.64,-1.13935
48.0983,325.657,-1.14149
48.1,325.673,-1.14339
48.1017,325.689,-1.14486
48.1033,325.706,-1.1456
48.105,325.722,-1.14572
48.1067,325.738,-1.14598
48.1083,325.755,-1.1467
48.11,325.771,-1.14775
48.1117,325.787,-1.14894
48.1133,325.804,-1.15014
48.115,325.821,-1.15213
48.1167,325.837,-1.15438
48.1183,325.854,-1.15722
48.12,325.871,-1.16058
48.1217,325.887,-1.16348
48.1233,325.904,-1.166
48.125,325.92,-1.16868
48.1267,325.937,-1.17058
48.1283,325.954,-1.17302
48.13,325.97,-1.17589
48.1317,325.987,-1.17818
48.1333,326.003,-1.18059
48.135,326.02,-1.18266
48.1367,326.037,-1.18526
48.1383,326.053,-1.18777
48.14,326.069,-1.19032
48.1417,326.086,-1.19243
48.1433,326.102,-1.195
48.145,326.119,-1.1967
48.1467,326.136,-1.19876
48.1483,326.152,-1.20113
48.15,326.169,-1.20307
48.1517,326.185,-1.20487
48.1533,326.202,-1.20574
48.155,326.218,-1.20762
48.1567,326.235,-1.20992
48.1583,326.251,-1.21197
48.16,326.267,-1.21377
48.1617,326.284,-1.21621
48.1633,326.301,-1.21866
48.165,326.318,-1.22109
48.1667,326.334,-1.22382
48.1683,326.351,-1.22728
48.17,326.367,-1.22944
48.1717,326.384,-1.23259
48.1733,326.4,-1.23573
48.175,326.417,-1.23958
48.1767,326.433,-1.24335
48.1783,326.45,-1.24694
48.18,326.466,-1.24941
48.1817,326.483,-1.25234
48.1833,326.5,-1.25489
48.185,326.516,-1.25672
48.1867,326.533,-1.26028
48.1883,326.549,-1.26334
48.19,326.566,-1.266
48.1917,326.582,-1.26779
48.1933,326.599,-1.26989
48.195,326.615,-1.27253
48.1967,326.632,-1.27492
48.1983,326.648,-1.27841
48.2,326.664,-1.28141
48.2017,326.681,-1.28488
48.2033,326.697,-1.28774
48.205,326.714,-1.28993
48.2067,326.73,-1.29387
48.2083,326.747,-1.29698
48.21,326.763,-1.30061
48.2117,326.78,-1.30318
48.2133,326.796,-1.3057
48.215,326.812,-1.30896
48.2167,326.829,-1.31083
48.2183,326.846,-1.31231
48.22,326.862,-1.31444
48.2217,326.878,-1.31655
48.2233,326.895,-1.3193
48.225,326.912,-1.32256
48.2267,326.928,-1.32476
48.2283,326.944,-1.32834
48.23,326.961,-1.33128
48.2317,326.977,-1.33433
48.2333,326.994,-1.33739
48.235,327.01,-1.34126
48.2367,327.026,-1.34333
48.2383,327.043,-1.34595
48.24,327.059,-1.3483
48.2417,327.076,-1.35008
48.2433,327.092,-1.35332
48.245,327.109,-1.35649
48.2467,327.125,-1.35963
48.2483,327.141,-1.36236
48.25,327.158,-1.36568
48.2517,327.174,-1.36885
48.2533,327.191,-1.37256
48.255,327.208,-1.37662
48.2567,327.224,-1.37928
48.2583,327.24,-1.38249
48.26,327.257,-1.38503
48.2617,327.273,-1.38905
48.2633,327.289,-1.39376
48.265,327.306,-1.39644
48.2667,327.322,-1.40014
48.2683,327.339,-1.40106
48.27,327.355,-1.40391
48.2717,327.372,-1.40441
48.2733,327.388,-1.40677
48.275,327.405,-1.40865
48.2767,327.421,-1.41109
48.2783,327.438,-1.41283
48.28,327.454,-1.41508
48.2817,327.471,-1.41816
48.2833,327.487,-1.42087
48.285,327.504,-1.42402
48.2867,327.52,-1.42601
48.2883,327.536,-1.42834
48.29,327.553,-1.43012
48.2917,327.569,-1.43339
48.2933,327.586,-1.4348
48.295,327.603,-1.43697
48.2967,327.619,-1.43985
48.2983,327.635,-1.44252
48.3,327.652,-1.44488
48.3017,327.668,-1.44554
48.3033,327.684,-1.44581
48.305,327.701,-1.44657
48.3067,327.717,-1.44776
48.3083,327.734,-1.4494
48.31,327.75,-1.45059
48.3117,327.767,-1.45184
48.3133,327.783,-1.45411
48.315,327.8,-1.45663
48.3167,327.816,-1.45825
48.3183,327.833,-1.46073
48.32,327.849,-1.4628
48.3217,327.866,-1.46384
48.3233,327.882,-1.46482
48.325,327.899,-1.46549
48.3267,327.915,-1.46599
48.3283,327.932,-1.46658
48.33,327.948,-1.46658
48.3317,327.965,-1.46663
48.3333,327.981,-1.46656
48.335,327.998,-1.46683
48.3367,328.014,-1.467
48.3383,328.031,-1.46665
48.34,328.047,-1.46632
48.3417,328.064,-1.46589
48.3433,328.081,-1.46553
48.345,328.097,-1.46529
48.3467,328.114,-1.4651
48.3483,328.13,-1.46496
48.35,328.146,-1.46475
48.3517,328.163,-1.46261
48.3533,328.18,-1.46083
48.355,328.196,-1.45957
48.3567,328.213,-1.45841
48.3583,328.229,-1.45734
48.36,328.246,-1.45649
48.3617,328.263,-1.45577
48.3633,328.279,-1.45501
48.365,328.296,-1.45398
48.3667,328.313,-1.45265
48.3683,328.329,-1.45129
48.37,328.346,-1.44977
48.3717,328.362,-1.44795
48.3733,328.379,-1.44587
48.375,328.396,-1.44383
48.3767,328.412,-1.44192
48.3783,328.429,-1.44027
48.38,328.446,-1.43869
48.3817,328.462,-1.43664
48.3833,328.479,-1.43421
48.385,328.496,-1.4309
48.3867,328.512,-1.42697
48.3883,328.529,-1.42182
48.39,328.546,-1.41563
48.3917,328.563,-1.40896
48.3933,328.579,-1.40288
48.395,328.596,-1.39745
48.3967,328.613,-1.39178
48.3983,328.63,-1.38703
48.4,328.646,-1.38288
48.4017,328.663,-1.3776
48.4033,328.679,-1.37366
48.405,328.696,-1.36916
48.4067,328.713,-1.36417
48.4083,328.73,-1.36033
48.41,328.747,-1.35703
48.4117,328.763,-1.35292
48.4133,328.78,-1.3479
48.415,328.797,-1.34277
48.4167,328.814,-1.33829
48.4183,328.831,-1.33365
48.42,328.847,-1.32893
48.4217,328.864,-1.32285
48.4233,328.881,-1.31724
48.425,328.898,-1.31151
48.4267,328.915,-1.30469
48.4283,328.932,-1.29984
48.43,328.949,-1.29376
48.4317,328.965,-1.28738
48.4333,328.982,-1.27994
48.435,328.999,-1.27366
48.4367,329.016,-1.26964
48.4383,329.033,-1.26314
48.44,329.05,-1.25887
48.4417,329.067,-1.25278
48.4433,329.084,-1.24779
48.445,329.101,-1.2436
48.4467,329.118,-1.23873
48.4483,329.134,-1.23333
48.45,329.152,-1.22728
48.4517,329.169,-1.22101
48.4533,329.185,-1.21607
48.455,329.202,-1.208
48.4567,329.219,-1.2018
48.4583,329.236,-1.19639
48.46,329.253,-1.18989
48.4617,329.27,-1.18441
48.4633,329.287,-1.17761
48.465,329.304,-1.17231
48.4667,329.321,-1.16693
48.4683,329.338,-1.16081
48.47,329.355,-1.15433
48.4717,329.372,-1.14919
48.4733,329.389,-1.14548
48.475,329.406,-1.1391
48.4767,329.422,-1.13346
48.4783,329.439,-1.12766
48.48,329.456,-1.1221
48.4817,329.473,-1.11662
48.4833,329.49,-1.11056
48.485,329.507,-1.10595
48.4867,329.524,-1.10018
48.4883,329.542,-1.09334
48.49,329.558,-1.08783
48.4917,329.576,-1.08175
48.4933,329.592,-1.07629
48.495,329.61,-1.07147
48.4967,329.627,-1.06721
48.4983,329.644,-1.06299
48.5,329.661,-1.05883
48.5017,329.678,-1.05308
48.5033,329.695,-1.04891
48.505,329.711,-1.045
48.5067,329.728,-1.04045
48.5083,329.746,-1.03644
48.51,329.762,-1.03255
48.5117,329.779,-1.02882
48.5133,329.797,-1.02431
48.515,329.814,-1.02068
48.5167,329.831,-1.01775
48.5183,329.848,-1.0137
48.52,329.865,-1.00909
48.5217,329.882,-1.0043
48.5233,329.899,-1.00046
48.525,329.916,-0.996637
48.5267,329.933,-0.993033
48.5283,329.95,-0.98866
48.53,329.967,-0.983445
48.5317,329.984,-0.980058
48.5333,330.001,-0.976048
48.535,330.018,-0.971254
48.5367,330.035,-0.967537
48.5383,330.052,-0.963617
48.54,330.069,-0.959932
48.5417,330.086,-0.956271
48.5433,330.102,-0.953543
48.545,330.12,-0.950344
48.5467,330.137,-0.94801
48.5483,330.154,-0.945524
48.55,330.171,-0.942005
48.5517,330.188,-0.938968
48.5533,330.205,-0.935883
48.555,330.222,-0.932366
48.5567,330.239,-0.930606
48.5583,330.256,-0.927081
48.56,330.272,-0.923876
48.5617,330.29,-0.920577
48.5633,330.306,-0.918168
48.565,330.324,-0.916345
48.5667,330.341,-0.914843
48.5683,330.358,-0.913102
48.57,330.375,-0.910658
48.5717,330.391,-0.908639
48.5733,330.408,-0.904998
48.575,330.425,-0.902619
48.5767,330.442,-0.899451
48.5783,330.459,-0.896671
48.58,330.476,-0.893994
48.5817,330.493,-0.892739
48.5833,330.51,-0.891775
48.585,330.527,-0.889588
48.5867,330.544,-0.886352
48.5883,330.56,-0.886379
48.59,330.577,-0.885373
48.5917,330.594,-0.883369
48.5933,330.611,-0.882376
48.595,330.628,-0.881113
48.5967,330.645,-0.880787
48.5983,330.661,-0.87925
48.6,330.678,-0.878322
48.6017,330.695,-0.876951
48.6033,330.712,-0.876123
48.605,330.729,-0.874475
48.6067,330.746,-0.87317
48.6083,330.763,-0.871803
48.61,330.78,-0.869483
48.6117,330.797,-0.867289
48.6133,330.814,-0.864967
48.615,330.831,-0.863027
48.6167,330.848,-0.861206
48.6183,330.864,-0.859561
48.62,330.881,-0.858343
48.6217,330.898,-0.857458
48.6233,330.915,-0.856436
48.625,330.932,-0.855765
48.6267,330.949,-0.854958
48.6283,330.965,-0.853617
48.63,330.982,-0.852463
48.6317,330.999,-0.85203
48.6333,331.016,-0.851959
48.635,331.033,-0.85141
48.6367,331.049,-0.850113
48.6383,331.066,-0.849495
48.64,331.083,-0.848256
48.6417,331.1,-0.847741
48.6433,331.117,-0.847429
48.645,331.133,-0.84698
48.6467,331.15,-0.846639
48.6483,331.167,-0.846245
48.65,331.184,-0.846122
48.6517,331.201,-0.845647
48.6533,331.217,-0.845018
48.655,331.234,-0.844393
48.6567,331.251,-0.843679
48.6583,331.267,-0.842698
48.66,331.284,-0.84195
48.6617,331.301,-0.841428
48.6633,331.317,-0.840707
48.665,331.334,-0.840102
48.6667,331.351,-0.839516
48.6683,331.368,-0.839336
48.67,331.385,-0.839078
48.6717,331.402,-0.838788
48.6733,331.419,-0.838536
48.675,331.435,-0.838259
48.6767,331.452,-0.838027
48.6783,331.469,-0.8378
48.68,331.486,-0.837562
48.6817,331.502,-0.837095
48.6833,331.519,-0.836712
48.685,331.536,-0.836297
48.6867,331.553,-0.835931
48.6883,331.569,-0.835506
48.69,331.586,-0.835184
48.6917,331.603,-0.835046
48.6933,331.619,-0.834927
48.695,331.636,-0.835001
48.6967,331.653,-0.834973
48.6983,331.67,-0.834952
48.7,331.686,-0.834895
48.7017,331.703,-0.83485
48.7033,331.72,-0.834763
48.705,331.736,-0.83463
48.7067,331.753,-0.834442
48.7083,331.77,-0.834272
48.71,331.787,-0.834145
48.7117,331.804,-0.833923
48.7133,331.82,-0.83372
48.715,331.837,-0.83349
48.7167,331.854,-0.833274
48.7183,331.87,-0.83307
48.72,331.887,-0.832915
48.7217,331.904,-0.832816
48.7233,331.921,-0.832741
48.725,331.937,-0.832679
48.7267,331.954,-0.832636
48.7283,331.971,-0.832613
48.73,331.987,-0.832575
48.7317,332.004,-0.832551
48.7333,332.021,-0.832251
48.735,332.037,-0.832227
48.7367,332.054,-0.832195
48.7383,332.071,-0.83214
48.74,332.088,-0.832062
48.7417,332.104,-0.832003
48.7433,332.121,-0.831922
48.745,332.138,-0.831829
48.7467,332.154,-0.831698
48.7483,332.171,-0.831574
48.75,332.187,-0.831384
48.7517,332.204,-0.831172
48.7533,332.221,-0.830924
48.755,332.238,-0.830814
48.7567,332.254,-0.830741
48.7583,332.271,-0.830654
48.76,332.287,-0.830607
48.7617,332.304,-0.830566
48.7633,332.321,-0.830326
48.765,332.338,-0.830162
48.7667,332.354,-0.830012
48.7683,332.371,-0.829974
48.77,332.388,-0.829925
48.7717,332.405,-0.829867
48.7733,332.421,-0.829807
48.775,332.438,-0.829744
48.7767,332.454,-0.829673
48.7783,332.471,-0.82962
48.78,332.488,-0.829568
48.7817,332.505,-0.829517
48.7833,332.521,-0.82947
48.785,332.538,-0.829335
48.7867,332.555,-0.82921
48.7883,332.571,-0.829118
48.79,332.588,-0.829055
48.7917,332.605,-0.829013
48.7933,332.621,-0.828974
48.795,332.638,-0.828937
48.7967,332.655,-0.828907
48.7983,332.672,-0.828877
48.8,332.688,-0.828844
48.8017,332.705,-0.828811
48.8033,332.722,-0.828771
48.805,332.738,-0.828725
48.8067,332.755,-0.828655
48.8083,332.772,-0.828587
48.81,332.788,-0.828508
48.8117,332.805,-0.828449
48.8133,332.822,-0.828395
48.815,332.838,-0.828345
48.8167,332.855,-0.828301
48.8183,332.872,-0.828233
48.82,332.888,-0.828191
48.8217,332.905,-0.828148
48.8233,332.922,-0.828105
48.825,332.939,-0.828065
48.8267,332.955,-0.828015
48.8283,332.972,-0.827972
48.83,332.989,-0.827929
48.8317,333.005,-0.827882
48.8333,333.022,-0.827844
48.835,333.039,-0.827811
48.8367,333.055,-0.827779
48.8383,333.072,-0.827756
48.84,333.089,-0.827731
48.8417,333.105,-0.827706
48.8433,333.122,-0.827694
48.845,333.139,-0.827684
48.8467,333.155,-0.827668
48.8483,333.172,-0.827655
48.85,333.189,-0.827635
48.8517,333.205,-0.827603
48.8533,333.222,-0.827566
48.855,333.239,-0.827526
48.8567,333.255,-0.827487
48.8583,333.272,-0.827452
48.86,333.288,-0.827426
48.8617,333.305,-0.827407
48.8633,333.322,-0.827387
48.865,333.339,-0.827362
48.8667,333.355,-0.827333
48.8683,333.372,-0.827304
48.87,333.389,-0.827279
48.8717,333.405,-0.827257
48.8733,333.422,-0.827235
48.875,333.439,-0.827201
48.8767,333.455,-0.827164
48.8783,333.472,-0.827136
48.88,333.489,-0.827106
48.8817,333.505,-0.827067
48.8833,333.522,-0.827019
48.885,333.539,-0.826972
48.8867,333.555,-0.826938
48.8883,333.572,-0.826915
48.89,333.589,-0.826894
48.8917,333.605,-0.826871
48.8933,333.622,-0.82685
48.895,333.639,-0.826825
48.8967,333.655,-0.826798
48.8983,333.672,-0.826768
48.9,333.688,-0.826737
48.9017,333.705,-0.826704
48.9033,333.722,-0.826667
48.905,333.738,-0.826634
48.9067,333.755,-0.826594
48.9083,333.771,-0.826555
48.91,333.788,-0.826509
48.9117,333.805,-0.826469
48.9133,333.821,-0.826437
48.915,333.838,-0.826409
48.9167,333.855,-0.826376
48.9183,333.871,-0.826356
48.92,333.888,-0.826338
48.9217,333.905,-0.826318
48.9233,333.922,-0.826296
48.925,333.938,-0.826273
48.9267,333.955,-0.826239
48.9283,333.971,-0.826206
48.93,333.988,-0.82618
48.9317,334.005,-0.826156
48.9333,334.022,-0.826133
48.935,334.039,-0.826099
48.9367,334.055,-0.826061
48.9383,334.072,-0.826027
48.94,334.088,-0.825982
48.9417,334.105,-0.825937
48.9433,334.122,-0.825891
48.945,334.138,-0.825844
48.9467,334.155,-0.82581
48.9483,334.172,-0.825782
48.95,334.188,-0.82576
48.9517,334.205,-0.825746
48.9533,334.221,-0.82573
48.955,334.238,-0.825707
48.9567,334.255,-0.825682
48.9583,334.272,-0.825661
48.96,334.289,-0.825644
48.9617,334.305,-0.825625
48.9633,334.322,-0.825604
48.965,334.338,-0.825589
48.9667,334.355,-0.825574
48.9683,334.372,-0.825567
48.97,334.388,-0.825566
48.9717,334.405,-0.825565
48.9733,334.422,-0.825555
48.975,334.438,-0.825532
48.9767,334.455,-0.825497
48.9783,334.472,-0.825462
48.98,334.488,-0.825426
48.9817,334.505,-0.82539
48.9833,334.521,-0.825358
48.985,334.538,-0.82533
48.9867,334.555,-0.825302
48.9883,334.572,-0.825262
48.99,334.588,-0.82523
48.9917,334.605,-0.8252
48.9933,334.622,-0.825168
48.995,334.638,-0.82514
48.9967,334.655,-0.825123
48.9983,334.671,-0.825108
49,334.688,-0.825094
49.0017,334.705,-0.82509
49.0033,334.721,-0.825092
49.005,334.738,-0.825094
49.0067,334.755,-0.825086
49.0083,334.771,-0.82508
49.01,334.788,-0.825067
49.0117,334.805,-0.825051
49.0133,334.822,-0.82503
49.015,334.838,-0.825009
49.0167,334.855,-0.824993
49.0183,334.872,-0.82497
49.02,334.888,-0.824952
49.0217,334.905,-0.824933
49.0233,334.922,-0.824917
49.025,334.938,-0.824896
49.0267,334.955,-0.824873
49.0283,334.972,-0.824857
49.03,334.988,-0.824836
49.0317,335.005,-0.824812
49.0333,335.022,-0.824784
49.035,335.038,-0.824764
49.0367,335.055,-0.824741
49.0383,335.071,-0.824724
49.04,335.088,-0.824715
49.0417,335.104,-0.824711
49.0433,335.121,-0.824708
49.045,335.138,-0.824705
49.0467,335.154,-0.824703
49.0483,335.171,-0.824706
49.05,335.188,-0.824708
49.0517,335.204,-0.82471
49.0533,335.221,-0.8247
49.055,335.238,-0.824684
49.0567,335.255,-0.824659
49.0583,335.271,-0.82464
49.06,335.288,-0.824624
49.0617,335.305,-0.824607
49.0633,335.321,-0.824585
49.065,335.338,-0.824562
49.0667,335.355,-0.82454
49.0683,335.371,-0.824518
49.07,335.388,-0.8245
49.0717,335.404,-0.824476
49.0733,335.421,-0.824461
49.075,335.437,-0.824448
49.0767,335.454,-0.824441
49.0783,335.471,-0.824436
49.08,335.487,-0.824422
49.0817,335.504,-0.824409
49.0833,335.521,-0.824392
49.085,335.537,-0.824375
49.0867,335.554,-0.824357
49.0883,335.571,-0.824337
49.09,335.587,-0.82432
49.0917,335.604,-0.824312
49.0933,335.621,-0.824313
49.095,335.638,-0.824314
49.0967,335.654,-0.824314
49.0983,335.671,-0.824313
49.1,335.687,-0.82431
49.1017,335.704,-0.824309
49.1033,335.721,-0.8243
49.105,335.737,-0.824282
49.1067,335.754,-0.824254
49.1083,335.771,-0.824222
49.11,335.787,-0.824192
49.1117,335.804,-0.824157
49.1133,335.821,-0.824124
49.115,335.837,-0.824087
49.1167,335.854,-0.824061
49.1183,335.87,-0.824035
49.12,335.887,-0.824018
49.1217,335.904,-0.824
49.1233,335.92,-0.823993
49.125,335.937,-0.823994
49.1267,335.954,-0.823993
49.1283,335.971,-0.823991
49.13,335.987,-0.823987
49.1317,336.004,-0.823988
49.1333,336.021,-0.823984
49.135,336.037,-0.823979
49.1367,336.054,-0.823974
49.1383,336.071,-0.823972
49.14,336.087,-0.823967
49.1417,336.104,-0.823955
49.1433,336.12,-0.823941
49.145,336.137,-0.823931
49.1467,336.154,-0.823926
49.1483,336.17,-0.82393
49.15,336.187,-0.823937
49.1517,336.203,-0.823947
49.1533,336.22,-0.823953
49.155,336.237,-0.82396
49.1567,336.253,-0.823974
49.1583,336.27,-0.823978
49.16,336.287,-0.823977
49.1617,336.303,-0.823974
49.1633,336.32,-0.823973
49.165,336.337,-0.823978
49.1667,336.353,-0.823983
49.1683,336.37,-0.823988
49.17,336.387,-0.82398
49.1717,336.403,-0.823964
49.1733,336.42,-0.823945
49.175,336.436,-0.823937
49.1767,336.453,-0.823928
49.1783,336.47,-0.823916
49.18,336.487,-0.823909
49.1817,336.503,-0.823906
49.1833,336.52,-0.823926
49.185,336.536,-0.823935
49.1867,336.553,-0.823945
49.1883,336.57,-0.823955
49.19,336.586,-0.823964
49.1917,336.603,-0.823967
49.1933,336.62,-0.82396
49.195,336.636,-0.823957
49.1967,336.653,-0.823959
49.1983,336.669,-0.823968
49.2,336.686,-0.823981
49.2017,336.703,-0.823993
49.2033,336.719,-0.824002
49.205,336.736,-0.824003
49.2067,336.752,-0.824004
49.2083,336.77,-0.824011
49.21,336.786,-0.824013
49.2117,336.803,-0.824004
49.2133,336.819,-0.823996
49.215,336.836,-0.823992
49.2167,336.853,-0.823985
49.2183,336.87,-0.823982
49.22,336.886,-0.823981
49.2217,336.903,-0.823979
49.2233,336.92,-0.823979
49.225,336.936,-0.823977
49.2267,336.953,-0.823977
49.2283,336.97,-0.823981
49.23,336.987,-0.82399
49.2317,337.003,-0.823995
49.2333,337.02,-0.824
49.235,337.037,-0.824015
49.2367,337.053,-0.824034
49.2383,337.07,-0.824043
49.24,337.086,-0.824058
49.2417,337.103,-0.824068
49.2433,337.12,-0.824074
49.245,337.136,-0.824076
49.2467,337.153,-0.824078
49.2483,337.169,-0.824074
49.25,337.186,-0.824065
49.2517,337.202,-0.824048
49.2533,337.219,-0.824047
49.255,337.236,-0.824053
49.2567,337.252,-0.824056
49.2583,337.269,-0.824067
49.26,337.286,-0.824083
49.2617,337.303,-0.824106
49.2633,337.319,-0.82413
49.265,337.336,-0.824163
49.2667,337.352,-0.8242
49.2683,337.369,-0.824236
49.27,337.386,-0.824262
49.2717,337.402,-0.824281
49.2733,337.419,-0.824296
49.275,337.436,-0.824298
49.2767,337.452,-0.824287
49.2783,337.469,-0.824275
49.28,337.485,-0.824255
49.2817,337.502,-0.824234
49.2833,337.519,-0.824211
49.285,337.535,-0.824198
49.2867,337.552,-0.824181
49.2883,337.569,-0.82417
49.29,337.586,-0.824166
49.2917,337.602,-0.82418
49.2933,337.619,-0.824204
49.295,337.635,-0.824223
49.2967,337.652,-0.824247
49.2983,337.669,-0.824278
49.3,337.685,-0.824311
49.3017,337.702,-0.824337
49.3033,337.719,-0.824356
49.305,337.735,-0.824368
49.3067,337.752,-0.824366
49.3083,337.768,-0.824354
49.31,337.785,-0.824344
49.3117,337.802,-0.824332
49.3133,337.818,-0.824315
49.315,337.835,-0.824299
49.3167,337.852,-0.824291
49.3183,337.869,-0.824286
49.32,337.885,-0.82429
49.3217,337.902,-0.824294
49.3233,337.919,-0.824297
49.325,337.935,-0.824299
49.3267,337.952,-0.824305
49.3283,337.969,-0.82431
49.33,337.986,-0.824315
49.3317,338.002,-0.824324
49.3333,338.019,-0.824333
49.335,338.036,-0.824351
49.3367,338.052,-0.824366
49.3383,338.069,-0.82439
49.34,338.085,-0.824425
49.3417,338.102,-0.824469
49.3433,338.119,-0.82451
49.345,338.135,-0.824537
49.3467,338.152,-0.824552
49.3483,338.169,-0.82457
49.35,338.185,-0.824583
49.3517,338.202,-0.824589
49.3533,338.218,-0.824597
49.355,338.235,-0.824604
49.3567,338.252,-0.824608
49.3583,338.268,-0.824613
49.36,338.285,-0.824617
49.3617,338.302,-0.824619
49.3633,338.318,-0.82462
49.365,338.335,-0.824614
49.3667,338.352,-0.824607
49.3683,338.369,-0.824609
49.37,338.385,-0.82461
49.3717,338.402,-0.82462
49.3733,338.418,-0.824638
49.375,338.435,-0.824653
49.3767,338.452,-0.824678
49.3783,338.468,-0.824706
49.38,338.485,-0.824738
49.3817,338.502,-0.824769
49.3833,338.518,-0.824801
49.385,338.535,-0.824837
49.3867,338.551,-0.824878
49.3883,338.568,-0.824918
49.39,338.585,-0.824962
49.3917,338.602,-0.825004
49.3933,338.618,-0.825035
49.395,338.635,-0.825057
49.3967,338.651,-0.82507
49.3983,338.668,-0.825075
49.4,338.685,-0.825074
49.4017,338.701,-0.82506
49.4033,338.718,-0.825041
49.405,338.735,-0.825027
49.4067,338.751,-0.82501
49.4083,338.768,-0.824999
49.41,338.785,-0.824992
49.4117,338.802,-0.824987
49.4133,338.818,-0.824979
49.415,338.834,-0.824973
49.4167,338.851,-0.82497
49.4183,338.868,-0.824961
49.42,338.884,-0.824964
49.4217,338.901,-0.824972
49.4233,338.918,-0.824989
49.425,338.934,-0.825009
49.4267,338.951,-0.825035
49.4283,338.968,-0.825066
49.43,338.985,-0.825091
49.4317,339.001,-0.825113
49.4333,339.018,-0.825132
49.435,339.035,-0.82515
49.4367,339.051,-0.825166
49.4383,339.068,-0.825176
49.44,339.084,-0.825184
49.4417,339.101,-0.82519
49.4433,339.118,-0.825193
49.445,339.135,-0.825197
49.4467,339.151,-0.825198
49.4483,339.167,-0.825207
49.45,339.184,-0.825225
49.4517,339.201,-0.825248
49.4533,339.217,-0.825267
49.455,339.234,-0.825288
49.4567,339.251,-0.825293
49.4583,339.267,-0.825301
49.46,339.284,-0.825303
49.4617,339.301,-0.825306
49.4633,339.317,-0.825319
49.465,339.334,-0.825332
49.4667,339.35,-0.825344
49.4683,339.367,-0.825349
49.47,339.384,-0.825357
49.4717,339.4,-0.825362
49.4733,339.417,-0.825367
49.475,339.433,-0.825368
49.4767,339.451,-0.825373
49.4783,339.467,-0.825382
49.48,339.484,-0.82539
49.4817,339.501,-0.825393
49.4833,339.517,-0.825392
49.485,339.533,-0.825394
49.4867,339.55,-0.825395
49.4883,339.567,-0.825407
49.49,339.583,-0.825419
49.4917,339.6,-0.82544
49.4933,339.617,-0.825456
49.495,339.634,-0.825479
49.4967,339.65,-0.825506
49.4983,339.667,-0.825537
49.5,339.684,-0.825553
49.5017,339.701,-0.825565
49.5033,339.717,-0.825577
49.505,339.733,-0.825583
49.5067,339.75,-0.82559
49.5083,339.766,-0.82559
49.51,339.783,-0.825584
49.5117,339.799,-0.825577
49.5133,339.816,-0.825587
49.515,339.833,-0.825601
49.5167,339.85,-0.825613
49.5183,339.866,-0.825622
49.52,339.883,-0.825633
49.5217,339.9,-0.82564
49.5233,339.917,-0.825647
49.525,339.933,-0.825655
49.5267,339.95,-0.825661
49.5283,339.966,-0.825663
49.53,339.983,-0.825666
49.5317,340,-0.825672
49.5333,340.016,-0.825684
49.535,340.033,-0.825697
49.5367,340.05,-0.825716
49.5383,340.066,-0.825741
49.54,340.083,-0.825768
49.5417,340.099,-0.825803
49.5433,340.116,-0.825836
49.545,340.133,-0.825866
49.5467,340.149,-0.825902
49.5483,340.166,-0.82593
49.55,340.183,-0.825959
49.5517,340.199,-0.825981
49.5533,340.216,-0.825999
49.555,340.233,-0.826016
49.5567,340.25,-0.826039
49.5583,340.266,-0.82606
49.56,340.283,-0.826077
49.5617,340.299,-0.826092
49.5633,340.316,-0.826104
49.565,340.333,-0.826129
49.5667,340.349,-0.826145
49.5683,340.366,-0.826164
49.57,340.383,-0.826187
49.5717,340.399,-0.826204
49.5733,340.416,-0.826222
49.575,340.433,-0.826242
49.5767,340.449,-0.826261
49.5783,340.466,-0.826283
49.58,340.482,-0.826313
49.5817,340.499,-0.826343
49.5833,340.516,-0.826377
49.585,340.533,-0.826417
49.5867,340.549,-0.826452
49.5883,340.566,-0.826499
49.59,340.582,-0.826536
49.5917,340.599,-0.826566
49.5933,340.616,-0.826587
49.595,340.632,-0.826599
49.5967,340.649,-0.826612
49.5983,340.665,-0.826619
49.6,340.682,-0.826618
49.6017,340.699,-0.826614
49.6033,340.715,-0.826618
49.605,340.732,-0.826619
49.6067,340.749,-0.826626
49.6083,340.766,-0.826643
49.61,340.782,-0.826671
49.6117,340.799,-0.826706
49.6133,340.815,-0.826755
49.615,340.832,-0.826814
49.6167,340.849,-0.826862
49.6183,340.865,-0.826907
49.62,340.882,-0.826942
49.6217,340.898,-0.826971
49.6233,340.915,-0.826989
49.625,340.932,-0.826996
49.6267,340.949,-0.826988
49.6283,340.966,-0.82698
49.63,340.982,-0.826982
49.6317,340.999,-0.82698
49.6333,341.016,-0.826979
49.635,341.032,-0.82698
49.6367,341.049,-0.826992
49.6383,341.066,-0.827006
49.64,341.082,-0.827019
49.6417,341.099,-0.827035
49.6433,341.115,-0.827055
49.645,341.132,-0.827069
49.6467,341.149,-0.827084
49.6483,341.165,-0.827103
49.65,341.182,-0.827115
49.6517,341.198,-0.827135
49.6533,341.215,-0.827159
49.655,341.232,-0.827186
49.6567,341.248,-0.827222
49.6583,341.265,-0.827262
49.66,341.282,-0.827302
49.6617,341.298,-0.827342
49.6633,341.315,-0.827376
49.665,341.331,-0.827411
49.6667,341.348,-0.827441
49.6683,341.365,-0.827463
49.67,341.382,-0.827482
49.6717,341.398,-0.827509
49.6733,341.415,-0.827538
49.675,341.431,-0.827564
49.6767,341.448,-0.827588
49.6783,341.465,-0.827612
49.68,341.482,-0.827641
49.6817,341.498,-0.827669
49.6833,341.515,-0.8277
49.685,341.532,-0.82773
49.6867,341.548,-0.82775
49.6883,341.565,-0.827767
49.69,341.581,-0.827787
49.6917,341.598,-0.827808
49.6933,341.615,-0.827825
49.695,341.631,-0.827843
49.6967,341.648,-0.827858
49.6983,341.664,-0.827874
49.7,341.681,-0.8279
49.7017,341.698,-0.827939
49.7033,341.714,-0.827976
49.705,341.731,-0.828012
49.7067,341.748,-0.828047
49.7083,341.764,-0.828082
49.71,341.781,-0.828121
49.7117,341.797,-0.828158
49.7133,341.814,-0.828191
49.715,341.831,-0.828213
49.7167,341.847,-0.828232
49.7183,341.864,-0.828242
49.72,341.881,-0.828254
49.7217,341.897,-0.828269
49.7233,341.914,-0.828292
49.725,341.931,-0.828316
49.7267,341.947,-0.82834
49.7283,341.964,-0.828366
49.73,341.981,-0.828376
49.7317,341.997,-0.828392
49.7333,342.014,-0.828402
49.735,342.031,-0.828406
49.7367,342.047,-0.828404
49.7383,342.064,-0.828388
49.74,342.08,-0.828383
49.7417,342.097,-0.828377
49.7433,342.114,-0.828381
49.745,342.13,-0.828401
49.7467,342.147,-0.828432
49.7483,342.164,-0.828475
49.75,342.18,-0.828542
49.7517,342.197,-0.828597
49.7533,342.214,-0.828645
49.755,342.23,-0.828687
49.7567,342.247,-0.828726
49.7583,342.264,-0.828757
49.76,342.28,-0.82878
49.7617,342.297,-0.828796
49.7633,342.314,-0.828807
49.765,342.33,-0.828811
49.7667,342.347,-0.828822
49.7683,342.363,-0.828825
49.77,342.381,-0.828834
49.7717,342.397,-0.82885
49.7733,342.414,-0.828868
49.775,342.43,-0.828886
49.7767,342.447,-0.828899
49.7783,342.464,-0.828917
49.78,342.48,-0.828944
49.7817,342.497,-0.828975
49.7833,342.513,-0.828996
49.785,342.53,-0.829027
49.7867,342.547,-0.82905
49.7883,342.564,-0.829072
49.79,342.58,-0.829087
49.7917,342.597,-0.829098
49.7933,342.613,-0.829112
49.795,342.63,-0.829118
49.7967,342.646,-0.829118
49.7983,342.663,-0.829124
49.8,342.68,-0.829138
49.8017,342.696,-0.829156
49.8033,342.713,-0.829181
49.805,342.73,-0.829214
49.8067,342.747,-0.829254
49.8083,342.763,-0.829284
49.81,342.78,-0.829312
49.8117,342.797,-0.829343
49.8133,342.813,-0.829379
49.815,342.83,-0.829416
49.8167,342.847,-0.829446
49.8183,342.863,-0.82948
49.82,342.88,-0.829516
49.8217,342.897,-0.829548
49.8233,342.913,-0.829582
49.825,342.93,-0.829617
49.8267,342.947,-0.829648
49.8283,342.963,-0.829683
49.83,342.98,-0.829719
49.8317,342.996,-0.829755
49.8333,343.013,-0.829798
49.835,343.03,-0.829834
49.8367,343.046,-0.829868
49.8383,343.062,-0.829901
49.84,343.079,-0.829924
49.8417,343.096,-0.829951
49.8433,343.113,-0.829976
49.845,343.129,-0.829999
49.8467,343.146,-0.830026
49.8483,343.163,-0.830049
49.85,343.179,-0.830075
49.8517,343.196,-0.830107
49.8533,343.213,-0.83014
49.855,343.229,-0.830169
49.8567,343.246,-0.830185
49.8583,343.263,-0.830197
49.86,343.279,-0.830208
49.8617,343.296,-0.830222
49.8633,343.313,-0.830234
49.865,343.329,-0.830247
49.8667,343.346,-0.830261
49.8683,343.363,-0.830284
49.87,343.379,-0.830306
49.8717,343.396,-0.83034
49.8733,343.412,-0.830385
49.875,343.429,-0.83043
49.8767,343.445,-0.830474
49.8783,343.462,-0.830511
49.88,343.479,-0.830553
49.8817,343.496,-0.830591
49.8833,343.512,-0.83062
49.885,343.529,-0.830649
49.8867,343.545,-0.830678
49.8883,343.562,-0.830711
49.89,343.578,-0.830741
49.8917,343.595,-0.830766
49.8933,343.612,-0.830781
49.895,343.629,-0.830794
49.8967,343.645,-0.830808
49.8983,343.662,-0.83082
49.9,343.678,-0.83083
49.9017,343.695,-0.830842
49.9033,343.712,-0.830855
49.905,343.728,-0.83086
49.9067,343.745,-0.830864
49.9083,343.762,-0.830868
49.91,343.779,-0.830887
49.9117,343.795,-0.830915
49.9133,343.812,-0.830946
49.915,343.828,-0.830971
49.9167,343.845,-0.830998
49.9183,343.862,-0.831028
49.92,343.878,-0.831059
49.9217,343.895,-0.831102
49.9233,343.912,-0.831135
49.925,343.929,-0.831159
49.9267,343.945,-0.831176
49.9283,343.962,-0.831195
49.93,343.979,-0.831222
49.9317,343.995,-0.831249
49.9333,344.012,-0.831276
49.935,344.028,-0.831302
49.9367,344.045,-0.831336
49.9383,344.061,-0.831376
49.94,344.078,-0.831421
49.9417,344.095,-0.831457
49.9433,344.112,-0.83149
49.945,344.128,-0.831523
49.9467,344.145,-0.831546
49.9483,344.162,-0.831573
49.95,344.178,-0.831599
49.9517,344.195,-0.831613
49.9533,344.212,-0.831622
49.955,344.228,-0.831633
49.9567,344.245,-0.831649
49.9583,344.261,-0.831667
49.96,344.278,-0.831686
49.9617,344.295,-0.831706
49.9633,344.311,-0.831732
49.965,344.328,-0.831758
49.9667,344.344,-0.831792
49.9683,344.361,-0.831826
49.97,344.378,-0.831853
49.9717,344.395,-0.831884
49.9733,344.411,-0.831904
49.975,344.428,-0.831922
49.9767,344.444,-0.831945
49.9783,344.461,-0.831972
49.98,344.478,-0.832001
49.9817,344.494,-0.832036
49.9833,344.511,-0.832081
49.985,344.528,-0.83213
49.9867,344.544,-0.832166
49.9883,344.561,-0.832202
49.99,344.577,-0.832236
49.9917,344.594,-0.832259
49.9933,344.611,-0.832278
49.995,344.628,-0.832299
49.9967,344.644,-0.832322
49.9983,344.661,-0.83235
50,344.678,-0.832381
50.0017,344.695,-0.832411
50.0033,344.711,-0.832445
50.005,344.728,-0.832483
50.0067,344.744,-0.832524
50.0083,344.761,-0.832578
50.01,344.777,-0.832638
50.0117,344.794,-0.832692
50.0133,344.811,-0.832735
50.015,344.827,-0.832784
50.0167,344.844,-0.832824
50.0183,344.861,-0.832852
50.02,344.877,-0.832874
50.0217,344.894,-0.832893
50.0233,344.911,-0.832906
50.025,344.927,-0.832907
50.0267,344.944,-0.832903
50.0283,344.961,-0.832892
50.03,344.977,-0.832885
50.0317,344.994,-0.83288
50.0333,345.01,-0.832871
50.035,345.027,-0.832865
50.0367,345.044,-0.832862
50.0383,345.06,-0.832867
50.04,345.077,-0.832885
50.0417,345.094,-0.832913
50.0433,345.11,-0.832939
50.045,345.127,-0.832965
50.0467,345.144,-0.833001
50.0483,345.16,-0.833047
50.05,345.177,-0.833093
50.0517,345.193,-0.833135
50.0533,345.21,-0.833177
50.055,345.227,-0.833224
50.0567,345.244,-0.833277
50.0583,345.26,-0.833332
50.06,345.276,-0.833383
50.0617,345.293,-0.833428
50.0633,345.31,-0.833467
50.065,345.327,-0.833494
50.0667,345.343,-0.833517
50.0683,345.36,-0.833533
50.07,345.377,-0.833557
50.0717,345.394,-0.833586
50.0733,345.41,-0.833617
50.075,345.427,-0.833649
50.0767,345.444,-0.833686
50.0783,345.46,-0.833719
50.08,345.476,-0.83376
50.0817,345.493,-0.83379
50.0833,345.51,-0.833818
50.085,345.526,-0.833853
50.0867,345.543,-0.833899
50.0883,345.56,-0.833935
50.09,345.577,-0.833979
50.0917,345.593,-0.834024
50.0933,345.61,-0.83407
50.095,345.627,-0.834114
50.0967,345.643,-0.834157
50.0983,345.66,-0.834193
50.1,345.677,-0.834219
50.1017,345.693,-0.834235
50.1033,345.71,-0.834251
50.105,345.726,-0.834271
50.1067,345.743,-0.834286
50.1083,345.76,-0.834295
50.11,345.776,-0.834313
50.1117,345.793,-0.834337
50.1133,345.809,-0.834363
50.115,345.826,-0.834397
50.1167,345.843,-0.834438
50.1183,345.86,-0.834476
50.12,345.876,-0.834513
50.1217,345.893,-0.834555
50.1233,345.91,-0.834601
50.125,345.926,-0.834642
50.1267,345.943,-0.83468
50.1283,345.96,-0.83471
50.13,345.976,-0.834739
50.1317,345.992,-0.834763
50.1333,346.009,-0.83479
50.135,346.026,-0.83482
50.1367,346.042,-0.834848
50.1383,346.059,-0.834873
50.14,346.076,-0.8349
50.1417,346.092,-0.834927
50.1433,346.109,-0.834954
50.145,346.126,-0.834981
50.1467,346.142,-0.835011
50.1483,346.159,-0.835041
50.15,346.176,-0.835073
50.1517,346.192,-0.835105
50.1533,346.209,-0.835132
50.155,346.226,-0.835161
50.1567,346.242,-0.835191
50.1583,346.258,-0.835226
50.16,346.275,-0.835267
50.1617,346.292,-0.835316
50.1633,346.309,-0.835371
50.165,346.326,-0.835431
50.1667,346.342,-0.835491
50.1683,346.359,-0.83555
50.17,346.376,-0.835595
50.1717,346.392,-0.835631
50.1733,346.409,-0.835661
50.175,346.426,-0.835677
50.1767,346.442,-0.835684
50.1783,346.459,-0.835694
50.18,346.476,-0.835699
50.1817,346.492,-0.835709
50.1833,346.509,-0.835724
50.185,346.525,-0.835745
50.1867,346.542,-0.835781
50.1883,346.559,-0.835813
50.19,346.576,-0.835838
50.1917,346.592,-0.835873
50.1933,346.609,-0.83591
50.195,346.626,-0.835948
50.1967,346.642,-0.83599
50.1983,346.659,-0.836035
50.2,346.675,-0.836087
50.2017,346.692,-0.836137
50.2033,346.709,-0.8362
50.205,346.725,-0.836267
50.2067,346.742,-0.836321
50.2083,346.759,-0.836351
50.21,346.775,-0.836383
50.2117,346.792,-0.836409
50.2133,346.809,-0.836424
50.215,346.825,-0.836432
50.2167,346.842,-0.836445
50.2183,346.859,-0.836461
50.22,346.875,-0.836477
50.2217,346.892,-0.83649
50.2233,346.909,-0.836503
50.225,346.925,-0.83652
50.2267,346.942,-0.836535
50.2283,346.959,-0.836552
50.23,346.975,-0.836576
50.2317,346.992,-0.836593
50.2333,347.009,-0.836621
50.235,347.026,-0.836654
50.2367,347.042,-0.836687
50.2383,347.059,-0.836722
50.24,347.075,-0.83676
50.2417,347.092,-0.83681
50.2433,347.109,-0.836859
50.245,347.125,-0.836914
50.2467,347.142,-0.837009
50.2483,347.158,-0.837091
50.25,347.175,-0.837151
50.2517,347.192,-0.8372
50.2533,347.209,-0.83724
50.255,347.225,-0.837274
50.2567,347.241,-0.837302
50.2583,347.258,-0.837319
50.26,347.275,-0.837335
50.2617,347.291,-0.837347
50.2633,347.308,-0.837364
50.265,347.325,-0.837386
50.2667,347.341,-0.837411
50.2683,347.358,-0.83744
50.27,347.375,-0.837467
50.2717,347.392,-0.837492
50.2733,347.408,-0.837515
50.275,347.425,-0.837547
50.2767,347.442,-0.837587
50.2783,347.459,-0.837614
50.28,347.475,-0.83764
50.2817,347.492,-0.837674
50.2833,347.508,-0.837705
50.285,347.525,-0.837731
50.2867,347.542,-0.837761
50.2883,347.559,-0.837791
50.29,347.575,-0.837817
50.2917,347.592,-0.837839
50.2933,347.609,-0.837862
50.295,347.625,-0.837885
50.2967,347.642,-0.837913
50.2983,347.658,-0.83794
50.3,347.675,-0.837953
50.3017,347.692,-0.837962
50.3033,347.709,-0.837975
50.305,347.725,-0.837989
50.3067,347.742,-0.837998
50.3083,347.758,-0.838012
50.31,347.775,-0.83803
50.3117,347.792,-0.838043
50.3133,347.808,-0.838053
50.315,347.825,-0.83806
50.3167,347.842,-0.838068
50.3183,347.858,-0.838075
50.32,347.875,-0.838089
50.3217,347.891,-0.838117
50.3233,347.908,-0.838149
50.325,347.925,-0.838192
50.3267,347.941,-0.838238
50.3283,347.958,-0.838287
50.33,347.975,-0.838336
50.3317,347.991,-0.838388
50.3333,348.008,-0.838441
50.335,348.025,-0.838489
50.3367,348.041,-0.838525
50.3383,348.058,-0.838557
50.34,348.075,-0.838584
50.3417,348.091,-0.838606
50.3433,348.108,-0.838633
50.345,348.125,-0.83866
50.3467,348.141,-0.838682
50.3483,348.158,-0.838707
50.35,348.175,-0.838742
50.3517,348.191,-0.838789
50.3533,348.208,-0.838846
50.355,348.225,-0.838896
50.3567,348.241,-0.838945
50.3583,348.258,-0.838996
50.36,348.275,-0.839046
50.3617,348.291,-0.839099
50.3633,348.308,-0.839145
50.365,348.325,-0.839182
50.3667,348.341,-0.839214
50.3683,348.358,-0.839243
50.37,348.375,-0.839277
50.3717,348.391,-0.839316
50.3733,348.408,-0.839357
50.375,348.424,-0.839391
50.3767,348.441,-0.839414
50.3783,348.458,-0.83943
50.38,348.475,-0.839438
50.3817,348.491,-0.839447
50.3833,348.508,-0.839454
50.385,348.524,-0.839465
50.3867,348.541,-0.839465
50.3883,348.558,-0.839455
50.39,348.574,-0.839456
50.3917,348.591,-0.839466
50.3933,348.608,-0.83948
50.395,348.624,-0.839498
50.3967,348.641,-0.839529
50.3983,348.657,-0.839561
50.4,348.674,-0.839597
50.4017,348.691,-0.839629
50.4033,348.708,-0.839653
50.405,348.724,-0.839678
50.4067,348.741,-0.839698
50.4083,348.758,-0.839714
50.41,348.774,-0.839721
50.4117,348.791,-0.839727
50.4133,348.807,-0.839732
50.415,348.824,-0.839747
50.4167,348.841,-0.839765
50.4183,348.858,-0.839782
50.42,348.874,-0.839799
50.4217,348.891,-0.839831
50.4233,348.908,-0.839873
50.425,348.924,-0.839921
50.4267,348.941,-0.839967
50.4283,348.957,-0.840009
50.43,348.974,-0.840047
50.4317,348.991,-0.840086
50.4333,349.007,-0.840113
50.435,349.024,-0.840128
50.4367,349.041,-0.840152
50.4383,349.057,-0.840183
50.44,349.074,-0.840219
50.4417,349.091,-0.840251
50.4433,349.108,-0.840287
50.445,349.124,-0.840323
50.4467,349.141,-0.840355
50.4483,349.157,-0.840379
50.45,349.174,-0.840403
50.4517,349.191,-0.840426
50.4533,349.207,-0.840436
50.455,349.224,-0.840442
50.4567,349.241,-0.840444
50.4583,349.257,-0.840453
50.46,349.274,-0.840472
50.4617,349.291,-0.840505
50.4633,349.308,-0.840543
50.465,349.324,-0.840581
50.4667,349.34,-0.840618
50.4683,349.357,-0.840665
50.47,349.374,-0.840717
50.4717,349.39,-0.840769
50.4733,349.407,-0.840808
50.475,349.424,-0.840845
50.4767,349.44,-0.840882
50.4783,349.457,-0.840915
50.48,349.473,-0.84095
50.4817,349.49,-0.840984
50.4833,349.507,-0.841015
50.485,349.524,-0.841042
50.4867,349.54,-0.841076
50.4883,349.557,-0.841111
50.49,349.574,-0.841144
50.4917,349.59,-0.841175
50.4933,349.607,-0.841204
50.495,349.624,-0.841234
50.4967,349.64,-0.841261
50.4983,349.657,-0.841281
50.5,349.673,-0.84129
50.5017,349.69,-0.841295
50.5033,349.707,-0.841304
50.505,349.723,-0.841314
50.5067,349.74,-0.841327
50.5083,349.756,-0.841341
50.51,349.773,-0.841363
50.5117,349.79,-0.841394
50.5133,349.807,-0.841432
50.515,349.823,-0.841475
50.5167,349.84,-0.841526
50.5183,349.857,-0.841576
50.52,349.873,-0.841624
50.5217,349.89,-0.841663
50.5233,349.906,-0.841693
50.525,349.923,-0.841715
50.5267,349.939,-0.84173
50.5283,349.956,-0.841752
50.53,349.973,-0.841772
50.5317,349.989,-0.841791
50.5333,350.006,-0.841815
50.535,350.023,-0.841847
50.5367,350.04,-0.841878
50.5383,350.056,-0.841908
50.54,350.073,-0.841943
50.5417,350.09,-0.841976
50.5433,350.107,-0.842017
50.545,350.123,-0.842063
50.5467,350.14,-0.842119
50.5483,350.156,-0.842175
50.55,350.173,-0.842222
50.5517,350.189,-0.842261
50.5533,350.206,-0.842296
50.555,350.223,-0.842329
50.5567,350.24,-0.842358
50.5583,350.256,-0.842378
50.56,350.272,-0.842394
50.5617,350.289,-0.842397
50.5633,350.306,-0.842398
50.565,350.323,-0.842396
50.5667,350.339,-0.842393
50.5683,350.356,-0.8424
50.57,350.373,-0.842411
50.5717,350.389,-0.842422
50.5733,350.406,-0.842436
50.575,350.422,-0.842453
50.5767,350.439,-0.842479
50.5783,350.456,-0.842514
50.58,350.473,-0.842551
50.5817,350.489,-0.842598
50.5833,350.506,-0.842647
50.585,350.523,-0.842689
50.5867,350.54,-0.84272
50.5883,350.556,-0.842742
50.59,350.573,-0.842762
50.5917,350.589,-0.842775
50.5933,350.607,-0.842781
50.595,350.623,-0.842792
50.5967,350.639,-0.842803
50.5983,350.656,-0.842812
50.6,350.673,-0.842823
50.6017,350.69,-0.842839
50.6033,350.706,-0.842855
50.605,350.723,-0.842873
50.6067,350.74,-0.842895
50.6083,350.757,-0.842917
50.61,350.773,-0.842933
50.6117,350.79,-0.842951
50.6133,350.806,-0.842976
50.615,350.823,-0.843012
50.6167,350.84,-0.843046
50.6183,350.856,-0.843081
50.62,350.873,-0.843121
50.6217,350.89,-0.843159
50.6233,350.906,-0.843199
50.625,350.923,-0.843237
50.6267,350.94,-0.843272
50.6283,350.956,-0.843309
50.63,350.973,-0.843343
50.6317,350.989,-0.843379
50.6333,351.006,-0.843425
50.635,351.023,-0.843475
50.6367,351.039,-0.843521
50.6383,351.056,-0.843565
50.64,351.073,-0.843608
50.6417,351.089,-0.843646
50.6433,351.106,-0.84368
50.645,351.122,-0.843709
50.6467,351.139,-0.843734
50.6483,351.155,-0.843758
50.65,351.172,-0.843784
50.6517,351.189,-0.84381
50.6533,351.205,-0.843835
50.655,351.222,-0.843865
50.6567,351.239,-0.843896
50.6583,351.255,-0.843936
50.66,351.272,-0.843976
50.6617,351.289,-0.844018
50.6633,351.305,-0.844067
50.665,351.322,-0.844121
50.6667,351.339,-0.84418
50.6683,351.355,-0.844236
50.67,351.372,-0.844285
50.6717,351.389,-0.844324
50.6733,351.406,-0.844355
50.675,351.422,-0.844369
50.6767,351.438,-0.844377
50.6783,351.455,-0.844363
50.68,351.472,-0.844324
50.6817,351.488,-0.84428
50.6833,351.505,-0.844253
50.685,351.522,-0.844245
50.6867,351.538,-0.844247
50.6883,351.555,-0.844255
50.69,351.572,-0.844266
50.6917,351.588,-0.844281
50.6933,351.605,-0.844309
50.695,351.622,-0.844335
50.6967,351.638,-0.844365
50.6983,351.655,-0.844386
50.7,351.672,-0.844409
50.7017,351.689,-0.844421
50.7033,351.705,-0.844434
50.705,351.721,-0.844456
50.7067,351.738,-0.844475
50.7083,351.755,-0.844493
50.71,351.771,-0.844515
50.7117,351.788,-0.844552
50.7133,351.805,-0.844596
50.715,351.821,-0.844645
50.7167,351.838,-0.844698
50.7183,351.854,-0.844747
50.72,351.871,-0.844789
50.7217,351.888,-0.844826
50.7233,351.905,-0.844859
50.725,351.921,-0.844883
50.7267,351.938,-0.844897
50.7283,351.955,-0.844905
50.73,351.971,-0.844911
50.7317,351.988,-0.844921
50.7333,352.005,-0.844933
50.735,352.021,-0.844952
50.7367,352.038,-0.84498
50.7383,352.055,-0.845009
50.74,352.072,-0.845048
50.7417,352.088,-0.845098
50.7433,352.105,-0.845158
50.745,352.121,-0.845254
50.7467,352.138,-0.845339
50.7483,352.155,-0.845407
50.75,352.172,-0.845473
50.7517,352.188,-0.845529
50.7533,352.205,-0.845579
50.755,352.221,-0.845623
50.7567,352.238,-0.845645
50.7583,352.255,-0.845657
50.76,352.272,-0.845657
50.7617,352.288,-0.845652
50.7633,352.305,-0.845653
50.765,352.322,-0.845652
50.7667,352.338,-0.845652
50.7683,352.355,-0.845661
50.77,352.372,-0.845679
50.7717,352.388,-0.845702
50.7733,352.405,-0.845733
50.775,352.422,-0.845758
50.7767,352.438,-0.845786
50.7783,352.455,-0.845814
50.78,352.471,-0.845847
50.7817,352.488,-0.845889
50.7833,352.505,-0.845924
50.785,352.522,-0.845957
50.7867,352.538,-0.845993
50.7883,352.555,-0.846032
50.79,352.571,-0.846076
50.7917,352.588,-0.846126
50.7933,352.605,-0.846167
50.795,352.621,-0.846194
50.7967,352.638,-0.846211
50.7983,352.655,-0.846225
50.8,352.671,-0.846239
50.8017,352.688,-0.84625
50.8033,352.704,-0.846265
50.805,352.721,-0.846283
50.8067,352.738,-0.846301
50.8083,352.754,-0.846315
50.81,352.771,-0.846343
50.8117,352.788,-0.846369
50.8133,352.804,-0.846392
50.815,352.821,-0.846411
50.8167,352.838,-0.846428
50.8183,352.854,-0.846443
50.82,352.871,-0.846463
50.8217,352.887,-0.846472
50.8233,352.904,-0.846474
50.825,352.921,-0.846476
50.8267,352.937,-0.846482
50.8283,352.954,-0.846493
50.83,352.97,-0.8465
50.8317,352.987,-0.846515
50.8333,353.004,-0.84653
50.835,353.02,-0.846555
50.8367,353.037,-0.846592
50.8383,353.054,-0.84663
50.84,353.071,-0.846668
50.8417,353.087,-0.846709
50.8433,353.104,-0.846752
50.845,353.12,-0.8468
50.8467,353.137,-0.846852
50.8483,353.154,-0.846903
50.85,353.17,-0.846951
50.8517,353.187,-0.846995
50.8533,353.204,-0.847028
50.855,353.22,-0.847053
50.8567,353.237,-0.847068
50.8583,353.254,-0.847081
50.86,353.271,-0.847092
50.8617,353.287,-0.847102
50.8633,353.303,-0.847108
50.865,353.32,-0.847118
50.8667,353.337,-0.84713
50.8683,353.353,-0.847151
50.87,353.37,-0.847172
50.8717,353.387,-0.8472
50.8733,353.403,-0.847235
50.875,353.42,-0.847266
50.8767,353.437,-0.847295
50.8783,353.454,-0.847326
50.88,353.47,-0.847351
50.8817,353.487,-0.847377
50.8833,353.504,-0.847399
50.885,353.52,-0.84741
50.8867,353.537,-0.847419
50.8883,353.553,-0.847433
50.89,353.57,-0.847448
50.8917,353.587,-0.847453
50.8933,353.603,-0.847469
50.895,353.62,-0.847491
50.8967,353.637,-0.847518
50.8983,353.653,-0.847548
50.9,353.67,-0.847585
50.9017,353.687,-0.847622
50.9033,353.704,-0.847665
50.905,353.72,-0.84771
50.9067,353.737,-0.847748
50.9083,353.753,-0.847786
50.91,353.77,-0.847809
50.9117,353.787,-0.847835
50.9133,353.803,-0.84786
50.915,353.82,-0.847892
50.9167,353.837,-0.847918
50.9183,353.853,-0.847945
50.92,353.87,-0.847972
50.9217,353.887,-0.848001
50.9233,353.903,-0.848045
50.925,353.92,-0.848094
50.9267,353.937,-0.848137
50.9283,353.953,-0.84817
50.93,353.97,-0.848191
50.9317,353.987,-0.848211
50.9333,354.003,-0.84824
50.935,354.02,-0.848268
50.9367,354.037,-0.848285
50.9383,354.053,-0.848293
50.94,354.07,-0.848289
50.9417,354.086,-0.848294
50.9433,354.103,-0.848313
50.945,354.12,-0.848346
50.9467,354.136,-0.848383
50.9483,354.154,-0.848429
50.95,354.17,-0.84847
50.9517,354.187,-0.848517
50.9533,354.203,-0.848567
50.955,354.22,-0.848615
50.9567,354.236,-0.848651
50.9583,354.253,-0.848676
50.96,354.27,-0.848699
50.9617,354.287,-0.84872
50.9633,354.303,-0.848744
50.965,354.32,-0.848775
50.9667,354.337,-0.848807
50.9683,354.353,-0.848833
50.97,354.37,-0.848856
50.9717,354.387,-0.848883
50.9733,354.403,-0.848904
50.975,354.42,-0.84892
50.9767,354.436,-0.848933
50.9783,354.453,-0.848944
50.98,354.47,-0.848949
50.9817,354.487,-0.848957
50.9833,354.503,-0.848972
50.985,354.52,-0.848997
50.9867,354.536,-0.849026
50.9883,354.553,-0.849059
50.99,354.569,-0.8491
50.9917,354.586,-0.849137
50.9933,354.603,-0.849181
50.995,354.62,-0.849223
50.9967,354.636,-0.849255
50.9983,354.653,-0.849277
51,354.67,-0.849297
51.0017,354.686,-0.849308
51.0033,354.702,-0.849319
51.005,354.719,-0.849341
51.0067,354.736,-0.849371
51.0083,354.752,-0.849401
51.01,354.769,-0.849424
51.0117,354.786,-0.849445
51.0133,354.802,-0.849467
51.015,354.819,-0.849493
51.0167,354.836,-0.849511
51.0183,354.852,-0.849522
51.02,354.869,-0.849532
51.0217,354.886,-0.849538
51.0233,354.903,-0.849549
51.025,354.919,-0.849567
51.0267,354.936,-0.849582
51.0283,354.953,-0.849599
51.03,354.969,-0.84962
51.0317,354.986,-0.849638
51.0333,355.002,-0.849656
51.035,355.019,-0.849674
51.0367,355.036,-0.849691
51.0383,355.052,-0.849707
51.04,355.069,-0.849723
51.0417,355.086,-0.849734
51.0433,355.103,-0.849754
51.045,355.119,-0.849766
51.0467,355.136,-0.849776
51.0483,355.152,-0.849792
51.05,355.169,-0.849802
51.0517,355.186,-0.849827
51.0533,355.202,-0.849861
51.055,355.218,-0.84989
51.0567,355.235,-0.849914
51.0583,355.252,-0.849946
51.06,355.268,-0.84998
51.0617,355.285,-0.850006
51.0633,355.301,-0.850035
51.065,355.318,-0.850069
51.0667,355.335,-0.850095
51.0683,355.352,-0.850117
51.07,355.368,-0.850141
51.0717,355.385,-0.85017
51.0733,355.401,-0.850192
51.075,355.418,-0.850217
51.0767,355.435,-0.850235
51.0783,355.452,-0.850247
51.08,355.468,-0.850248
51.0817,355.485,-0.850244
51.0833,355.502,-0.85025
51.085,355.518,-0.850261
51.0867,355.535,-0.850273
51.0883,355.552,-0.850284
51.09,355.568,-0.850306
51.0917,355.585,-0.850333
51.0933,355.602,-0.850369
51.095,355.618,-0.850406
51.0967,355.635,-0.850439
51.0983,355.651,-0.850461
51.1,355.668,-0.85048
51.1017,355.685,-0.850505
51.1033,355.701,-0.850529
51.105,355.718,-0.850552
51.1067,355.735,-0.850574
51.1083,355.752,-0.850605
51.11,355.768,-0.850641
51.1117,355.785,-0.850675
51.1133,355.802,-0.850702
51.115,355.818,-0.850737
51.1167,355.835,-0.850772
51.1183,355.851,-0.850805
51.12,355.868,-0.850839
51.1217,355.884,-0.850871
51.1233,355.901,-0.850902
51.125,355.918,-0.850924
51.1267,355.935,-0.850937
51.1283,355.951,-0.850939
51.13,355.968,-0.850937
51.1317,355.985,-0.850927
51.1333,356.001,-0.850919
51.135,356.018,-0.850917
51.1367,356.034,-0.850912
51.1383,356.051,-0.850926
51.14,356.068,-0.850958
51.1417,356.085,-0.850992
51.1433,356.101,-0.851024
51.145,356.118,-0.851058
51.1467,356.136,-0.851091
51.1483,356.152,-0.851123
51.15,356.169,-0.85116
51.1517,356.185,-0.851201
51.1533,356.202,-0.851236
51.155,356.218,-0.851259
51.1567,356.235,-0.851285
51.1583,356.251,-0.851312
51.16,356.268,-0.851346
51.1617,356.285,-0.851384
51.1633,356.302,-0.851421
51.165,356.319,-0.851452
51.1667,356.335,-0.85148
51.1683,356.352,-0.851512
51.17,356.369,-0.851541
51.1717,356.385,-0.85157
51.1733,356.402,-0.851596
51.175,356.418,-0.851607
51.1767,356.434,-0.851616
51.1783,356.451,-0.851633
51.18,356.468,-0.851658
51.1817,356.484,-0.851684
51.1833,356.501,-0.851705
51.185,356.518,-0.851733
51.1867,356.535,-0.851769
51.1883,356.551,-0.851813
51.19,356.568,-0.851856
51.1917,356.584,-0.851894
51.1933,356.601,-0.851927
51.195,356.617,-0.851967
51.1967,356.634,-0.852005
51.1983,356.651,-0.852041
51.2,356.668,-0.852075
51.2017,356.684,-0.852104
51.2033,356.701,-0.852137
51.205,356.717,-0.852163
51.2067,356.734,-0.852195
51.2083,356.751,-0.852216
51.21,356.768,-0.852237
51.2117,356.784,-0.852268
51.2133,356.801,-0.852296
51.215,356.817,-0.852324
51.2167,356.834,-0.852345
51.2183,356.851,-0.852359
51.22,356.868,-0.852373
51.2217,356.884,-0.852389
51.2233,356.901,-0.852397
51.225,356.918,-0.852404
51.2267,356.934,-0.852403
51.2283,356.951,-0.852395
51.23,356.967,-0.852386
51.2317,356.984,-0.85238
51.2333,357.001,-0.852372
51.235,357.017,-0.852377
51.2367,357.034,-0.852383
51.2383,357.05,-0.852398
51.24,357.067,-0.852421
51.2417,357.084,-0.852442
51.2433,357.1,-0.852461
51.245,357.117,-0.852483
51.2467,357.134,-0.852502
51.2483,357.151,-0.852517
51.25,357.167,-0.852533
51.2517,357.184,-0.852543
51.2533,357.2,-0.852548
51.255,357.217,-0.852551
51.2567,357.233,-0.852553
51.2583,357.25,-0.85255
51.26,357.267,-0.852547
51.2617,357.283,-0.852542
51.2633,357.3,-0.852544
51.265,357.317,-0.852547
51.2667,357.333,-0.852556
51.2683,357.35,-0.852578
51.27,357.367,-0.852602
51.2717,357.383,-0.852622
51.2733,357.4,-0.852647
51.275,357.416,-0.852674
51.2767,357.433,-0.852712
51.2783,357.449,-0.85275
51.28,357.466,-0.852789
51.2817,357.483,-0.852825
51.2833,357.5,-0.852858
51.285,357.516,-0.852888
51.2867,357.533,-0.852922
51.2883,357.55,-0.852941
51.29,357.566,-0.852949
51.2917,357.583,-0.852959
51.2933,357.6,-0.85297
51.295,357.616,-0.85297
51.2967,357.633,-0.852971
51.2983,357.649,-0.852979
51.3,357.666,-0.852996
51.3017,357.682,-0.853023
51.3033,357.699,-0.853055
51.305,357.716,-0.853088
51.3067,357.733,-0.853119
51.3083,357.749,-0.853138
51.31,357.766,-0.853153
51.3117,357.783,-0.853177
51.3133,357.799,-0.853202
51.315,357.816,-0.853228
51.3167,357.832,-0.853253
51.3183,357.849,-0.853272
51.32,357.866,-0.853295
51.3217,357.882,-0.853318
51.3233,357.899,-0.853348
51.325,357.915,-0.85338
51.3267,357.932,-0.853406
51.3283,357.949,-0.853429
51.33,357.966,-0.853457
51.3317,357.983,-0.853473
51.3333,357.999,-0.853486
51.335,358.016,-0.853497
51.3367,358.032,-0.853508
51.3383,358.049,-0.853519
51.34,358.065,-0.853532
51.3417,358.082,-0.853549
51.3433,358.099,-0.853568
51.345,358.115,-0.853592
51.3467,358.132,-0.853614
51.3483,358.149,-0.853643
51.35,358.165,-0.85368
51.3517,358.182,-0.853723
51.3533,358.199,-0.853766
51.355,358.215,-0.85381
51.3567,358.232,-0.853847
51.3583,358.249,-0.853891
51.36,358.266,-0.853937
51.3617,358.282,-0.853992
51.3633,358.299,-0.854037
51.365,358.316,-0.854074
51.3667,358.332,-0.854102
51.3683,358.349,-0.854117
51.37,358.366,-0.854128
51.3717,358.382,-0.854142
51.3733,358.399,-0.854149
51.375,358.416,-0.854148
51.3767,358.432,-0.854143
51.3783,358.449,-0.854141
51.38,358.465,-0.854145
51.3817,358.482,-0.854157
51.3833,358.498,-0.85417
51.385,358.515,-0.854198
51.3867,358.532,-0.854234
51.3883,358.548,-0.85427
51.39,358.565,-0.854312
51.3917,358.582,-0.854353
51.3933,358.599,-0.854392
51.395,358.615,-0.854424
51.3967,358.632,-0.854457
51.3983,358.649,-0.854485
51.4,358.665,-0.85452
51.4017,358.682,-0.854546
51.4033,358.698,-0.854566
51.405,358.715,-0.854583
51.4067,358.732,-0.854596
51.4083,358.749,-0.854615
51.41,358.765,-0.854625
51.4117,358.782,-0.854635
51.4133,358.798,-0.854635
51.415,358.815,-0.854629
51.4167,358.832,-0.854627
51.4183,358.848,-0.85464
51.42,358.865,-0.854664
51.4217,358.882,-0.854689
51.4233,358.898,-0.854721
51.425,358.915,-0.854763
51.4267,358.932,-0.85481
51.4283,358.948,-0.854861
51.43,358.965,-0.854915
51.4317,358.982,-0.854957
51.4333,358.998,-0.854989
51.435,359.015,-0.855002
51.4367,359.031,-0.855015
51.4383,359.048,-0.855029
51.44,359.065,-0.855039
51.4417,359.081,-0.855038
51.4433,359.098,-0.85504
51.445,359.114,-0.855048
51.4467,359.131,-0.855063
51.4483,359.148,-0.855089
51.45,359.165,-0.85512
51.4517,359.181,-0.855156
51.4533,359.198,-0.855198
51.455,359.215,-0.855246
51.4567,359.231,-0.855298
51.4583,359.248,-0.855348
51.46,359.265,-0.855384
51.4617,359.281,-0.855411
51.4633,359.298,-0.855437
51.465,359.314,-0.855456
51.4667,359.331,-0.855468
51.4683,359.347,-0.855471
51.47,359.364,-0.855472
51.4717,359.381,-0.855465
51.4733,359.398,-0.855462
51.475,359.414,-0.855467
51.4767,359.431,-0.855481
51.4783,359.448,-0.855492
51.48,359.464,-0.855503
51.4817,359.481,-0.855518
51.4833,359.498,-0.855538
51.485,359.514,-0.855563
51.4867,359.531,-0.855594
51.4883,359.548,-0.855634
51.49,359.564,-0.855664
51.4917,359.581,-0.855688
51.4933,359.598,-0.855707
51.495,359.614,-0.855731
51.4967,359.631,-0.85575
51.4983,359.647,-0.855769
51.5,359.664,-0.855788
51.5017,359.681,-0.855798
51.5033,359.697,-0.855809
51.505,359.714,-0.855822
51.5067,359.731,-0.855838
51.5083,359.747,-0.855852
51.51,359.764,-0.855877
51.5117,359.781,-0.855906
51.5133,359.797,-0.855939
51.515,359.814,-0.855963
51.5167,359.83,-0.85599
51.5183,359.847,-0.856017
51.52,359.864,-0.856036
51.5217,359.88,-0.856054
51.5233,359.897,-0.856072
51.525,359.914,-0.85608
51.5267,359.93,-0.85609
51.5283,359.947,-0.856104
51.53,359.964,-0.856126
51.5317,359.981,-0.856145
51.5333,359.997,-0.85616
51.535,360.014,-0.856176
51.5367,360.031,-0.856196
51.5383,360.047,-0.856216
51.54,360.064,-0.856236
51.5417,360.08,-0.856245
51.5433,360.097,-0.85625
51.545,360.113,-0.856254
51.5467,360.13,-0.856261
51.5483,360.147,-0.856278
51.55,360.163,-0.856294
51.5517,360.18,-0.856304
51.5533,360.196,-0.856317
51.555,360.213,-0.85634
51.5567,360.23,-0.856363
51.5583,360.247,-0.856386
51.56,360.263,-0.85641
51.5617,360.28,-0.856435
51.5633,360.297,-0.856461
51.565,360.313,-0.856497
51.5667,360.33,-0.85653
51.5683,360.347,-0.856555
51.57,360.363,-0.856568
51.5717,360.38,-0.856592
51.5733,360.397,-0.856626
51.575,360.413,-0.85666
51.5767,360.43,-0.856682
51.5783,360.446,-0.856706
51.58,360.463,-0.856727
51.5817,360.48,-0.856747
51.5833,360.496,-0.856769
51.585,360.513,-0.856776
51.5867,360.529,-0.856784
51.5883,360.546,-0.856796
51.59,360.563,-0.85682
51.5917,360.58,-0.856851
51.5933,360.596,-0.856884
51.595,360.613,-0.856916
51.5967,360.63,-0.856945
51.5983,360.646,-0.856972
51.6,360.663,-0.856996
51.6017,360.68,-0.857012
51.6033,360.696,-0.857034
51.605,360.713,-0.857055
51.6067,360.729,-0.857075
51.6083,360.746,-0.857091
51.61,360.762,-0.857112
51.6117,360.779,-0.857138
51.6133,360.796,-0.85716
51.615,360.812,-0.857178
51.6167,360.829,-0.857184
51.6183,360.846,-0.857187
51.62,360.862,-0.85719
51.6217,360.879,-0.857194
51.6233,360.895,-0.857199
51.625,360.912,-0.857203
51.6267,360.929,-0.857204
51.6283,360.946,-0.857205
51.63,360.963,-0.857213
51.6317,360.98,-0.857218
51.6333,360.996,-0.857228
51.635,361.013,-0.857241
51.6367,361.029,-0.857257
51.6383,361.046,-0.857285
51.64,361.063,-0.857318
51.6417,361.079,-0.857351
51.6433,361.096,-0.857387
51.645,361.112,-0.857425
51.6467,361.129,-0.857455
51.6483,361.146,-0.857476
51.65,361.163,-0.857486
51.6517,361.179,-0.857488
51.6533,361.195,-0.85749
51.655,361.212,-0.857485
51.6567,361.229,-0.857494
51.6583,361.246,-0.857508
51.66,361.262,-0.857529
51.6617,361.279,-0.857555
51.6633,361.295,-0.857579
51.665,361.312,-0.85761
51.6667,361.328,-0.857637
51.6683,361.345,-0.857661
51.67,361.362,-0.857675
51.6717,361.379,-0.857692
51.6733,361.395,-0.857706
51.675,361.412,-0.857722
51.6767,361.429,-0.857739
51.6783,361.446,-0.85776
51.68,361.462,-0.857779
51.6817,361.479,-0.857794
51.6833,361.495,-0.857806
51.685,361.512,-0.857817
51.6867,361.528,-0.857821
51.6883,361.545,-0.857825
51.69,361.562,-0.857842
51.6917,361.579,-0.857864
51.6933,361.595,-0.857884
51.695,361.612,-0.857911
51.6967,361.629,-0.857945
51.6983,361.645,-0.857984
51.7,361.662,-0.858024
51.7017,361.678,-0.85806
51.7033,361.695,-0.858091
51.705,361.712,-0.858106
51.7067,361.728,-0.858119
51.7083,361.745,-0.858132
51.71,361.761,-0.858144
51.7117,361.778,-0.858151
51.7133,361.795,-0.858158
51.715,361.811,-0.858166
51.7167,361.828,-0.858175
51.7183,361.845,-0.858185
51.72,361.861,-0.858199
51.7217,361.878,-0.858205
51.7233,361.895,-0.858212
51.725,361.911,-0.858215
51.7267,361.928,-0.858223
51.7283,361.945,-0.858238
51.73,361.962,-0.858254
51.7317,361.978,-0.858272
51.7333,361.995,-0.858295
51.735,362.011,-0.858322
51.7367,362.028,-0.858347
51.7383,362.045,-0.858368
51.74,362.061,-0.858385
51.7417,362.078,-0.858396
51.7433,362.095,-0.858391
51.745,362.111,-0.858387
51.7467,362.128,-0.858373
51.7483,362.145,-0.858357
51.75,362.161,-0.85834
51.7517,362.178,-0.85832
51.7533,362.195,-0.858312
51.755,362.211,-0.858304
51.7567,362.227,-0.858315
51.7583,362.244,-0.858336
51.76,362.261,-0.858364
51.7617,362.277,-0.858399
51.7633,362.294,-0.858435
51.765,362.311,-0.858475
51.7667,362.327,-0.858519
51.7683,362.344,-0.858578
51.77,362.361,-0.858625
51.7717,362.378,-0.858671
51.7733,362.394,-0.858713
51.775,362.411,-0.858751
51.7767,362.427,-0.858783
51.7783,362.444,-0.858817
51.78,362.46,-0.858857
51.7817,362.477,-0.858891
51.7833,362.494,-0.858919
51.785,362.511,-0.858942
51.7867,362.527,-0.858958
51.7883,362.544,-0.858974
51.79,362.561,-0.858992
51.7917,362.577,-0.859012
51.7933,362.594,-0.859035
51.795,362.611,-0.859053
51.7967,362.627,-0.859067
51.7983,362.644,-0.859079
51.8,362.66,-0.859088
51.8017,362.677,-0.859094
51.8033,362.694,-0.859104
51.805,362.711,-0.859115
51.8067,362.727,-0.859115
51.8083,362.744,-0.859127
51.81,362.76,-0.859144
51.8117,362.777,-0.859152
51.8133,362.794,-0.85916
51.815,362.81,-0.859171
51.8167,362.827,-0.859179
51.8183,362.844,-0.859186
51.82,362.86,-0.859192
51.8217,362.877,-0.859201
51.8233,362.894,-0.859206
51.825,362.91,-0.859216
51.8267,362.927,-0.859235
51.8283,362.944,-0.859264
51.83,362.96,-0.859293
51.8317,362.977,-0.859321
51.8333,362.994,-0.859359
51.835,363.01,-0.859395
51.8367,363.027,-0.859423
51.8383,363.043,-0.859448
51.84,363.06,-0.859473
51.8417,363.077,-0.859489
51.8433,363.093,-0.859502
51.845,363.11,-0.859507
51.8467,363.126,-0.859512
51.8483,363.143,-0.859511
51.85,363.16,-0.859504
51.8517,363.177,-0.859498
51.8533,363.194,-0.8595
51.855,363.21,-0.859509
51.8567,363.227,-0.859522
51.8583,363.244,-0.859534
51.86,363.26,-0.859548
51.8617,363.276,-0.859572
51.8633,363.293,-0.859603
51.865,363.31,-0.859636
51.8667,363.326,-0.859673
51.8683,363.343,-0.85971
51.87,363.359,-0.85975
51.8717,363.376,-0.859777
51.8733,363.393,-0.859798
51.875,363.41,-0.859818
51.8767,363.427,-0.859832
51.8783,363.443,-0.859836
51.88,363.46,-0.859831
51.8817,363.477,-0.859827
51.8833,363.493,-0.859819
51.885,363.51,-0.859812
51.8867,363.526,-0.859817
51.8883,363.543,-0.859828
51.89,363.559,-0.859841
51.8917,363.576,-0.859864
51.8933,363.593,-0.859898
51.895,363.609,-0.859931
51.8967,363.626,-0.85996
51.8983,363.643,-0.859988
51.9,363.659,-0.860009
51.9017,363.676,-0.860024
51.9033,363.693,-0.860033
51.905,363.709,-0.860041
51.9067,363.726,-0.86005
51.9083,363.743,-0.860065
51.91,363.759,-0.860082
51.9117,363.776,-0.860108
51.9133,363.793,-0.860132
51.915,363.809,-0.860147
51.9167,363.826,-0.860161
51.9183,363.842,-0.860175
51.92,363.859,-0.860192
51.9217,363.876,-0.860212
51.9233,363.892,-0.860227
51.925,363.909,-0.860247
51.9267,363.926,-0.860274
51.9283,363.942,-0.860306
51.93,363.959,-0.860345
51.9317,363.975,-0.860377
51.9333,363.992,-0.860402
51.935,364.009,-0.860419
51.9367,364.026,-0.860427
51.9383,364.043,-0.860434
51.94,364.059,-0.860446
51.9417,364.075,-0.860454
51.9433,364.092,-0.86046
51.945,364.109,-0.86047
51.9467,364.126,-0.860476
51.9483,364.142,-0.860484
51.95,364.159,-0.8605
51.9517,364.176,-0.860518
51.9533,364.192,-0.860528
51.955,364.209,-0.860541
51.9567,364.226,-0.860558
51.9583,364.242,-0.860583
51.96,364.259,-0.860611
51.9617,364.275,-0.860639
51.9633,364.292,-0.860666
51.965,364.309,-0.860699
51.9667,364.326,-0.860738
51.9683,364.342,-0.86077
51.97,364.359,-0.860797
51.9717,364.375,-0.860813
51.9733,364.392,-0.86083
51.975,364.409,-0.860843
51.9767,364.425,-0.860854
51.9783,364.442,-0.860858
51.98,364.458,-0.860858
51.9817,364.475,-0.860863
51.9833,364.492,-0.860864
51.985,364.509,-0.860868
51.9867,364.525,-0.860878
51.9883,364.542,-0.860895
51.99,364.559,-0.860916
51.9917,364.576,-0.860943
51.9933,364.592,-0.86097
51.995,364.609,-0.860998
51.9967,364.625,-0.861022
51.9983,364.642,-0.861048
52,364.658,-0.861072
52.0017,364.675,-0.8611
52.0033,364.692,-0.861121
52.005,364.709,-0.861139
52.0067,364.726,-0.861161
52.0083,364.742,-0.861181
52.01,364.759,-0.861201
52.0117,364.775,-0.861218
52.0133,364.792,-0.861238
52.015,364.809,-0.86126
52.0167,364.825,-0.861281
52.0183,364.842,-0.861299
52.02,364.859,-0.861308
52.0217,364.875,-0.861308
52.0233,364.892,-0.861303
52.025,364.908,-0.861298
52.0267,364.925,-0.861299
52.0283,364.942,-0.861302
52.03,364.958,-0.861311
52.0317,364.975,-0.861328
52.0333,364.992,-0.86135
52.035,365.008,-0.861383
52.0367,365.025,-0.861426
52.0383,365.042,-0.861467
52.04,365.058,-0.861502
52.0417,365.075,-0.861529
52.0433,365.092,-0.861552
52.045,365.108,-0.861569
52.0467,365.125,-0.861586
52.0483,365.142,-0.861605
52.05,365.158,-0.86162
52.0517,365.175,-0.861636
52.0533,365.191,-0.861646
52.055,365.208,-0.86166
52.0567,365.225,-0.861673
52.0583,365.242,-0.861682
52.06,365.258,-0.861683
52.0617,365.275,-0.861687
52.0633,365.292,-0.86169
52.065,365.308,-0.861693
52.0667,365.325,-0.861694
52.0683,365.341,-0.861695
52.07,365.358,-0.861693
52.0717,365.375,-0.861703
52.0733,365.391,-0.861721
52.075,365.408,-0.861737
52.0767,365.424,-0.86175
52.0783,365.441,-0.861766
52.08,365.458,-0.861787
52.0817,365.475,-0.861802
52.0833,365.491,-0.861806
52.085,365.508,-0.861814
52.0867,365.524,-0.86182
52.0883,365.541,-0.861822
52.09,365.558,-0.861829
52.0917,365.574,-0.861843
52.0933,365.591,-0.861867
52.095,365.607,-0.861892
52.0967,365.624,-0.861923
52.0983,365.641,-0.861954
52.1,365.657,-0.861984
52.1017,365.674,-0.862017
52.1033,365.691,-0.862046
52.105,365.707,-0.862065
52.1067,365.724,-0.862091
52.1083,365.741,-0.862109
52.11,365.757,-0.862116
52.1117,365.774,-0.86213
52.1133,365.791,-0.862143
52.115,365.807,-0.862144
52.1167,365.824,-0.86214
52.1183,365.841,-0.862143
52.12,365.857,-0.862155
52.1217,365.874,-0.862168
52.1233,365.891,-0.86218
52.125,365.908,-0.862195
52.1267,365.924,-0.862214
52.1283,365.941,-0.86223
52.13,365.957,-0.862247
52.1317,365.974,-0.862262
52.1333,365.991,-0.862271
52.135,366.007,-0.862278
52.1367,366.024,-0.862286
52.1383,366.041,-0.862291
52.14,366.057,-0.862301
52.1417,366.074,-0.862311
52.1433,366.09,-0.862311
52.145,366.107,-0.862314
52.1467,366.123,-0.862316
52.1483,366.14,-0.86232
52.15,366.157,-0.862339
52.1517,366.173,-0.862353
52.1533,366.19,-0.86236
52.155,366.206,-0.862369
52.1567,366.222,-0.862389
52.1583,366.239,-0.862414
52.16,366.256,-0.862434
52.1617,366.273,-0.862448
52.1633,366.29,-0.862473
52.165,366.306,-0.862489
52.1667,366.323,-0.862496
52.1683,366.34,-0.862507
52.17,366.356,-0.862519
52.1717,366.373,-0.862534
52.1733,366.389,-0.862551
52.175,366.406,-0.862574
52.1767,366.423,-0.862607
52.1783,366.44,-0.862645
52.18,366.456,-0.862681
52.1817,366.473,-0.862713
52.1833,366.489,-0.862744
52.185,366.506,-0.862778
52.1867,366.523,-0.862808
52.1883,366.54,-0.862836
52.19,366.556,-0.86285
52.1917,366.573,-0.862862
52.1933,366.59,-0.862874
52.195,366.606,-0.862879
52.1967,366.623,-0.862884
52.1983,366.639,-0.862883
52.2,366.656,-0.86288
52.2017,366.673,-0.862871
52.2033,366.69,-0.862872
52.205,366.706,-0.862881
52.2067,366.723,-0.862892
52.2083,366.74,-0.862899
52.21,366.757,-0.862917
52.2117,366.773,-0.862933
52.2133,366.79,-0.862947
52.215,366.807,-0.862958
52.2167,366.823,-0.862971
52.2183,366.84,-0.862976
52.22,366.856,-0.862982
52.2217,366.873,-0.862987
52.2233,366.889,-0.862998
52.225,366.906,-0.863016
52.2267,366.923,-0.863034
52.2283,366.939,-0.863057
52.23,366.956,-0.86308
52.2317,366.973,-0.863115
52.2333,366.989,-0.863153
52.235,367.006,-0.863189
52.2367,367.023,-0.863226
52.2383,367.04,-0.863271
52.24,367.056,-0.863308
52.2417,367.073,-0.863329
52.2433,367.09,-0.863346
52.245,367.107,-0.863361
52.2467,367.124,-0.863372
52.2483,367.14,-0.863376
52.25,367.156,-0.863375
52.2517,367.173,-0.863379
52.2533,367.189,-0.863387
52.255,367.206,-0.863401
52.2567,367.223,-0.863409
52.2583,367.239,-0.863418
52.26,367.255,-0.863422
52.2617,367.272,-0.863434
52.2633,367.289,-0.863452
52.265,367.306,-0.863465
52.2667,367.323,-0.863473
52.2683,367.34,-0.863474
52.27,367.356,-0.863483
52.2717,367.373,-0.863501
52.2733,367.389,-0.863524
52.275,367.406,-0.863535
52.2767,367.422,-0.863548
52.2783,367.439,-0.863566
52.28,367.456,-0.863584
52.2817,367.473,-0.863611
52.2833,367.489,-0.863639
52.285,367.506,-0.863664
52.2867,367.523,-0.863688
52.2883,367.54,-0.863705
52.29,367.556,-0.863726
52.2917,367.572,-0.863742
52.2933,367.589,-0.863753
52.295,367.606,-0.863761
52.2967,367.623,-0.863768
52.2983,367.639,-0.863777
52.3,367.656,-0.863787
52.3017,367.673,-0.863796
52.3033,367.689,-0.863799
52.305,367.706,-0.863812
52.3067,367.723,-0.863829
52.3083,367.739,-0.86385
52.31,367.756,-0.863863
52.3117,367.773,-0.863876
52.3133,367.789,-0.863897
52.315,367.806,-0.863924
52.3167,367.822,-0.863942
52.3183,367.839,-0.863956
52.32,367.856,-0.863966
52.3217,367.872,-0.86398
52.3233,367.889,-0.864003
52.325,367.905,-0.864033
52.3267,367.922,-0.864054
52.3283,367.939,-0.864069
52.33,367.956,-0.864086
52.3317,367.972,-0.864113
52.3333,367.989,-0.864128
52.335,368.006,-0.864139
52.3367,368.022,-0.86415
52.3383,368.039,-0.864165
52.34,368.056,-0.864179
52.3417,368.072,-0.864196
52.3433,368.089,-0.864204
52.345,368.106,-0.864213
52.3467,368.122,-0.864223
52.3483,368.139,-0.864234
52.35,368.156,-0.864251
52.3517,368.172,-0.864265
52.3533,368.189,-0.864272
52.355,368.206,-0.86429
52.3567,368.222,-0.86431
52.3583,368.238,-0.864333
52.36,368.255,-0.864353
52.3617,368.271,-0.86437
52.3633,368.288,-0.864382
52.365,368.305,-0.864395
52.3667,368.322,-0.864414
52.3683,368.339,-0.864426
52.37,368.355,-0.864433
52.3717,368.372,-0.864437
52.3733,368.389,-0.86444
52.375,368.405,-0.864442
52.3767,368.422,-0.86445
52.3783,368.438,-0.864457
52.38,368.455,-0.864464
52.3817,368.472,-0.864471
52.3833,368.488,-0.864479
52.385,368.505,-0.864496
52.3867,368.522,-0.864515
52.3883,368.539,-0.864533
52.39,368.555,-0.864559
52.3917,368.572,-0.864589
52.3933,368.589,-0.864617
52.395,368.605,-0.864648
52.3967,368.622,-0.864674
52.3983,368.638,-0.864685
52.4,368.655,-0.864686
52.4017,368.671,-0.864691
52.4033,368.688,-0.864696
52.405,368.705,-0.864696
52.4067,368.721,-0.8647
52.4083,368.738,-0.864699
52.41,368.755,-0.864686
52.4117,368.771,-0.864676
52.4133,368.788,-0.864674
52.415,368.805,-0.86467
52.4167,368.821,-0.864672
52.4183,368.838,-0.864674
52.42,368.854,-0.864681
52.4217,368.871,-0.864692
52.4233,368.888,-0.864705
52.425,368.905,-0.864724
52.4267,368.921,-0.86475
52.4283,368.938,-0.864776
52.43,368.955,-0.864787
52.4317,368.972,-0.864804
52.4333,368.988,-0.864818
52.435,369.004,-0.864823
52.4367,369.021,-0.864828
52.4383,369.038,-0.864836
52.44,369.055,-0.864836
52.4417,369.071,-0.864835
52.4433,369.088,-0.864837
52.445,369.105,-0.864835
52.4467,369.121,-0.864828
52.4483,369.138,-0.864812
52.45,369.154,-0.864795
52.4517,369.171,-0.864786
52.4533,369.187,-0.864772
52.455,369.204,-0.864755
52.4567,369.221,-0.864736
52.4583,369.238,-0.864722
52.46,369.254,-0.864711
52.4617,369.271,-0.864705
52.4633,369.288,-0.864704
52.465,369.304,-0.8647
52.4667,369.321,-0.864705
52.4683,369.338,-0.864717
52.47,369.354,-0.864743
52.4717,369.371,-0.864767
52.4733,369.387,-0.86479
52.475,369.404,-0.864812
52.4767,369.421,-0.864831
52.4783,369.437,-0.864846
52.48,369.454,-0.864853
52.4817,369.471,-0.864849
52.4833,369.487,-0.86484
52.485,369.504,-0.86483
52.4867,369.52,-0.864817
52.4883,369.537,-0.864806
52.49,369.554,-0.864796
52.4917,369.57,-0.864799
52.4933,369.587,-0.86481
52.495,369.604,-0.864823
52.4967,369.62,-0.864839
52.4983,369.637,-0.864863
52.5,369.654,-0.864883
52.5017,369.67,-0.864906
52.5033,369.687,-0.864938
52.505,369.704,-0.864977
52.5067,369.72,-0.865015
52.5083,369.737,-0.865043
52.51,369.754,-0.865073
52.5117,369.771,-0.865102
52.5133,369.787,-0.865125
52.515,369.804,-0.865138
52.5167,369.821,-0.865147
52.5183,369.837,-0.865147
52.52,369.854,-0.865144
52.5217,369.87,-0.865141
52.5233,369.887,-0.865135
52.525,369.904,-0.865137
52.5267,369.92,-0.865138
52.5283,369.937,-0.865147
52.53,369.953,-0.865162
52.5317,369.97,-0.865173
52.5333,369.987,-0.865193
52.535,370.004,-0.865208
52.5367,370.02,-0.865225
52.5383,370.037,-0.865238
52.54,370.054,-0.865253
52.5417,370.07,-0.865274
52.5433,370.087,-0.865296
52.545,370.104,-0.865319
52.5467,370.12,-0.865342
52.5483,370.137,-0.865369
52.55,370.153,-0.865389
52.5517,370.17,-0.865404
52.5533,370.187,-0.865412
52.555,370.203,-0.865416
52.5567,370.22,-0.865415
52.5583,370.237,-0.865412
52.56,370.254,-0.865408
52.5617,370.27,-0.865402
52.5633,370.287,-0.865395
52.565,370.304,-0.865382
52.5667,370.32,-0.865373
52.5683,370.337,-0.865374
52.57,370.354,-0.865383
52.5717,370.37,-0.865392
52.5733,370.387,-0.865401
52.575,370.403,-0.865408
52.5767,370.42,-0.86542
52.5783,370.436,-0.865435
52.58,370.453,-0.865454
52.5817,370.47,-0.865465
52.5833,370.487,-0.865473
52.585,370.503,-0.865486
52.5867,370.52,-0.865494
52.5883,370.537,-0.865501
52.59,370.553,-0.865507
52.5917,370.57,-0.865518
52.5933,370.587,-0.865538
52.595,370.603,-0.865553
52.5967,370.62,-0.865572
52.5983,370.636,-0.865593
52.6,370.653,-0.865612
52.6017,370.67,-0.865629
52.6033,370.687,-0.865656
52.605,370.703,-0.865678
52.6067,370.719,-0.865688
52.6083,370.736,-0.865689
52.61,370.753,-0.865683
52.6117,370.769,-0.865669
52.6133,370.786,-0.865648
52.615,370.803,-0.865628
52.6167,370.819,-0.865606
52.6183,370.836,-0.865589
52.62,370.852,-0.865573
52.6217,370.869,-0.865565
52.6233,370.886,-0.865565
52.625,370.903,-0.865565
52.6267,370.919,-0.86556
52.6283,370.936,-0.865558
52.63,370.953,-0.865556
52.6317,370.969,-0.865547
52.6333,370.986,-0.865539
52.635,371.003,-0.865532
52.6367,371.02,-0.865529
52.6383,371.036,-0.865518
52.64,371.053,-0.86551
52.6417,371.069,-0.86551
52.6433,371.086,-0.865514
52.645,371.102,-0.865525
52.6467,371.119,-0.865529
52.6483,371.136,-0.865531
52.65,371.153,-0.865533
52.6517,371.169,-0.865537
52.6533,371.186,-0.865538
52.655,371.203,-0.865548
52.6567,371.219,-0.865553
52.6583,371.236,-0.86556
52.66,371.253,-0.865558
52.6617,371.269,-0.865562
52.6633,371.285,-0.865574
52.665,371.302,-0.865577
52.6667,371.319,-0.865577
52.6683,371.335,-0.865583
52.67,371.352,-0.865594
52.6717,371.369,-0.865605
52.6733,371.385,-0.86562
52.675,371.402,-0.865625
52.6767,371.419,-0.865633
52.6783,371.435,-0.865638
52.68,371.452,-0.865642
52.6817,371.469,-0.865652
52.6833,371.485,-0.865656
52.685,371.502,-0.865658
52.6867,371.519,-0.865655
52.6883,371.535,-0.865654
52.69,371.552,-0.865654
52.6917,371.568,-0.865653
52.6933,371.585,-0.865652
52.695,371.602,-0.865639
52.6967,371.618,-0.865624
52.6983,371.635,-0.865616
52.7,371.652,-0.865614
52.7017,371.669,-0.865611
52.7033,371.686,-0.865612
52.705,371.702,-0.865608
52.7067,371.719,-0.865601
52.7083,371.735,-0.865591
52.71,371.752,-0.86559
52.7117,371.769,-0.865598
52.7133,371.786,-0.865613
52.715,371.802,-0.865638
52.7167,371.819,-0.865668
52.7183,371.835,-0.865717
52.72,371.852,-0.86579
52.7217,371.869,-0.865842
52.7233,371.886,-0.865879
52.725,371.902,-0.865913
52.7267,371.919,-0.865933
52.7283,371.935,-0.865944
52.73,371.952,-0.86594
52.7317,371.969,-0.865923
52.7333,371.985,-0.865903
52.735,372.002,-0.865883
52.7367,372.019,-0.86586
52.7383,372.035,-0.865838
52.74,372.052,-0.865821
52.7417,372.069,-0.865817
52.7433,372.085,-0.865823
52.745,372.102,-0.865841
52.7467,372.119,-0.86586
52.7483,372.135,-0.865885
52.75,372.152,-0.865902
52.7517,372.168,-0.865916
52.7533,372.185,-0.865932
52.755,372.202,-0.865939
52.7567,372.218,-0.865943
52.7583,372.235,-0.865941
52.76,372.252,-0.865942
52.7617,372.269,-0.865948
52.7633,372.285,-0.865957
52.765,372.302,-0.865962
52.7667,372.318,-0.865971
52.7683,372.335,-0.865983
52.77,372.352,-0.865986
52.7717,372.368,-0.865978
52.7733,372.385,-0.865959
52.775,372.401,-0.865941
52.7767,372.418,-0.865922
52.7783,372.435,-0.865913
52.78,372.452,-0.865922
52.7817,372.468,-0.865935
52.7833,372.485,-0.865961
52.785,372.501,-0.865983
52.7867,372.518,-0.866005
52.7883,372.535,-0.866024
52.79,372.551,-0.866042
52.7917,372.568,-0.866046
52.7933,372.585,-0.86604
52.795,372.601,-0.86603
52.7967,372.618,-0.86602
52.7983,372.635,-0.866011
52.8,372.651,-0.866006
52.8017,372.668,-0.866007
52.8033,372.685,-0.866016
52.805,372.701,-0.866025
52.8067,372.718,-0.866038
52.8083,372.735,-0.866058
52.81,372.751,-0.866078
52.8117,372.768,-0.866094
52.8133,372.785,-0.866102
52.815,372.801,-0.866109
52.8167,372.818,-0.866114
52.8183,372.834,-0.866123
52.82,372.851,-0.866132
52.8217,372.867,-0.866131
52.8233,372.884,-0.866122
52.825,372.901,-0.866121
52.8267,372.918,-0.866123
52.8283,372.934,-0.866127
52.83,372.951,-0.866137
52.8317,372.968,-0.866145
52.8333,372.985,-0.866149
52.835,373.001,-0.866147
52.8367,373.017,-0.866148
52.8383,373.034,-0.866141
52.84,373.051,-0.866131
52.8417,373.067,-0.866123
52.8433,373.084,-0.866113
52.845,373.101,-0.8661
52.8467,373.117,-0.866092
52.8483,373.134,-0.86608
52.85,373.151,-0.866068
52.8517,373.167,-0.866057
52.8533,373.184,-0.866046
52.855,373.2,-0.866046
52.8567,373.217,-0.866052
52.8583,373.234,-0.86606
52.86,373.251,-0.866067
52.8617,373.267,-0.866085
52.8633,373.284,-0.866107
52.865,373.301,-0.866132
52.8667,373.317,-0.866149
52.8683,373.334,-0.866177
52.87,373.35,-0.866208
52.8717,373.367,-0.866236
52.8733,373.383,-0.866258
52.875,373.4,-0.866273
52.8767,373.417,-0.86628
52.8783,373.434,-0.866279
52.88,373.45,-0.866281
52.8817,373.467,-0.866278
