Ramp 10.00 °C/min to 375.00 °C,,
Time,Temperature,Heat Flow (Normalized)
min,°C,W/g
5.00333,249.88,-0.164793
5.005,249.88,-0.164805
5.00667,249.88,-0.164812
5.00833,249.88,-0.164818
5.01,249.88,-0.164817
5.01167,249.88,-0.164817
5.01333,249.88,-0.164816
5.015,249.88,-0.164823
5.01667,249.881,-0.164827
5.01833,249.881,-0.164836
5.02,249.881,-0.164849
5.02167,249.881,-0.164862
5.02333,249.881,-0.164885
5.025,249.882,-0.164906
5.02667,249.882,-0.164933
5.02833,249.882,-0.164967
5.03,249.883,-0.165008
5.03167,249.884,-0.165053
5.03333,249.885,-0.165111
5.035,249.885,-0.165174
5.03667,249.886,-0.165236
5.03833,249.887,-0.165287
5.04,249.888,-0.165332
5.04167,249.889,-0.165379
5.04333,249.891,-0.165418
5.045,249.892,-0.165452
5.04667,249.893,-0.165482
5.04833,249.895,-0.165506
5.05,249.897,-0.165523
5.05167,249.898,-0.165517
5.05333,249.9,-0.165473
5.055,249.902,-0.165341
5.05667,249.905,-0.165045
5.05833,249.907,-0.16458
5.06,249.909,-0.163846
5.06167,249.912,-0.162882
5.06333,249.915,-0.161547
5.065,249.918,-0.159612
5.06667,249.921,-0.157365
5.06833,249.924,-0.154541
5.07,249.928,-0.151051
5.07167,249.932,-0.146894
5.07333,249.936,-0.143234
5.075,249.939,-0.139565
5.07667,249.944,-0.136031
5.07833,249.948,-0.132579
5.08,249.952,-0.129861
5.08167,249.958,-0.127602
5.08333,249.963,-0.125551
5.085,249.968,-0.124208
5.08667,249.973,-0.123326
5.08833,249.978,-0.122877
5.09,249.984,-0.122606
5.09167,249.99,-0.122419
5.09333,249.996,-0.122438
5.095,250.003,-0.122673
5.09667,250.009,-0.122948
5.09833,250.016,-0.123197
5.1,250.022,-0.124048
5.10167,250.03,-0.124662
5.10333,250.037,-0.125012
5.105,250.045,-0.125226
5.10667,250.052,-0.12577
5.10833,250.06,-0.12705
5.11,250.069,-0.129236
5.11167,250.077,-0.13324
5.11333,250.085,-0.138964
5.115,250.094,-0.147306
5.11667,250.102,-0.157371
5.11833,250.112,-0.168545
5.12,250.12,-0.180121
5.12167,250.13,-0.190282
5.12333,250.139,-0.201036
5.125,250.149,-0.209104
5.12667,250.159,-0.217272
5.12833,250.168,-0.225689
5.13,250.179,-0.232437
5.13167,250.189,-0.239703
5.13333,250.199,-0.248992
5.135,250.21,-0.257131
5.13667,250.22,-0.264876
5.13833,250.231,-0.272031
5.14,250.242,-0.280535
5.14167,250.253,-0.288621
5.14333,250.264,-0.295898
5.145,250.275,-0.303647
5.14667,250.286,-0.30928
5.14833,250.297,-0.315617
5.15,250.309,-0.322682
5.15167,250.321,-0.33111
5.15333,250.333,-0.338308
5.155,250.344,-0.34573
5.15667,250.356,-0.353728
5.15833,250.368,-0.36234
5.16,250.38,-0.370209
5.16167,250.393,-0.37869
5.16333,250.405,-0.38633
5.165,250.418,-0.392964
5.16667,250.43,-0.398098
5.16833,250.443,-0.40628
5.17,250.455,-0.413159
5.17167,250.468,-0.419195
5.17333,250.481,-0.425554
5.175,250.493,-0.432103
5.17667,250.506,-0.439348
5.17833,250.52,-0.445527
5.18,250.532,-0.451382
5.18167,250.546,-0.457333
5.18333,250.559,-0.462192
5.185,250.573,-0.466332
5.18667,250.586,-0.471183
5.18833,250.6,-0.475784
5.19,250.613,-0.48024
5.19167,250.627,-0.485337
5.19333,250.641,-0.491222
5.195,250.655,-0.496698
5.19667,250.669,-0.501762
5.19833,250.683,-0.50809
5.2,250.696,-0.513103
5.20167,250.71,-0.517048
5.20333,250.724,-0.520919
5.205,250.738,-0.525672
5.20667,250.752,-0.529606
5.20833,250.766,-0.532881
5.21,250.78,-0.536839
5.21167,250.794,-0.540015
5.21333,250.809,-0.54383
5.215,250.823,-0.547941
5.21667,250.837,-0.551403
5.21833,250.852,-0.554115
5.22,250.867,-0.557571
5.22167,250.881,-0.560012
5.22333,250.896,-0.563372
5.225,250.911,-0.565805
5.22667,250.925,-0.568443
5.22833,250.94,-0.57212
5.23,250.954,-0.574563
5.23167,250.969,-0.578938
5.23333,250.984,-0.583372
5.235,250.999,-0.586893
5.23667,251.014,-0.590401
5.23833,251.029,-0.593686
5.24,251.044,-0.59764
5.24167,251.059,-0.599391
5.24333,251.074,-0.601919
5.245,251.089,-0.605245
5.24667,251.104,-0.607668
5.24833,251.119,-0.609824
5.25,251.134,-0.612118
5.25167,251.149,-0.61369
5.25333,251.164,-0.616395
5.255,251.179,-0.618171
5.25667,251.195,-0.621286
5.25833,251.21,-0.622873
5.26,251.225,-0.623879
5.26167,251.24,-0.626664
5.26333,251.256,-0.62808
5.265,251.271,-0.629554
5.26667,251.286,-0.631971
5.26833,251.301,-0.634015
5.27,251.317,-0.634865
5.27167,251.333,-0.637672
5.27333,251.349,-0.640585
5.275,251.365,-0.643042
5.27667,251.38,-0.646487
5.27833,251.396,-0.648761
5.28,251.411,-0.652031
5.28167,251.427,-0.654943
5.28333,251.443,-0.656717
5.285,251.458,-0.658317
5.28667,251.474,-0.660807
5.28833,251.489,-0.66182
5.29,251.505,-0.662478
5.29167,251.521,-0.663236
5.29333,251.537,-0.663345
5.295,251.552,-0.66471
5.29667,251.568,-0.665657
5.29833,251.584,-0.666538
5.3,251.599,-0.667325
5.30167,251.615,-0.668616
5.30333,251.631,-0.668821
5.305,251.646,-0.66925
5.30667,251.662,-0.67089
5.30833,251.678,-0.672192
5.31,251.694,-0.673845
5.31167,251.71,-0.675693
5.31333,251.726,-0.677241
5.315,251.742,-0.679221
5.31667,251.758,-0.681052
5.31833,251.774,-0.683028
5.32,251.789,-0.684314
5.32167,251.805,-0.685474
5.32333,251.821,-0.686112
5.325,251.838,-0.68693
5.32667,251.854,-0.687726
5.32833,251.869,-0.688451
5.33,251.886,-0.689411
5.33167,251.902,-0.690273
5.33333,251.918,-0.690472
5.335,251.934,-0.690483
5.33667,251.95,-0.69079
5.33833,251.966,-0.691201
5.34,251.982,-0.691467
5.34167,251.998,-0.691779
5.34333,252.014,-0.692271
5.345,252.03,-0.693082
5.34667,252.046,-0.694505
5.34833,252.062,-0.695752
5.35,252.078,-0.696927
5.35167,252.094,-0.698187
5.35333,252.111,-0.698999
5.355,252.127,-0.699739
5.35667,252.143,-0.700394
5.35833,252.159,-0.701173
5.36,252.175,-0.701799
5.36167,252.191,-0.702416
5.36333,252.207,-0.703116
5.365,252.223,-0.703771
5.36667,252.239,-0.704502
5.36833,252.255,-0.704898
5.37,252.271,-0.705322
5.37167,252.288,-0.705827
5.37333,252.304,-0.706196
5.375,252.32,-0.70646
5.37667,252.336,-0.706861
5.37833,252.353,-0.707345
5.38,252.369,-0.707831
5.38167,252.385,-0.708406
5.38333,252.401,-0.708883
5.385,252.417,-0.709185
5.38667,252.434,-0.709419
5.38833,252.45,-0.709781
5.39,252.466,-0.710203
5.39167,252.483,-0.710599
5.39333,252.499,-0.710951
5.395,252.515,-0.711354
5.39667,252.532,-0.711934
5.39833,252.548,-0.712529
5.4,252.564,-0.713052
5.40167,252.58,-0.713689
5.40333,252.596,-0.714211
5.405,252.613,-0.714577
5.40667,252.629,-0.714968
5.40833,252.645,-0.715291
5.41,252.662,-0.715548
5.41167,252.678,-0.715773
5.41333,252.694,-0.716028
5.415,252.711,-0.716344
5.41667,252.727,-0.716672
5.41833,252.743,-0.716948
5.42,252.759,-0.717293
5.42167,252.775,-0.717644
5.42333,252.792,-0.71796
5.425,252.808,-0.718214
5.42667,252.825,-0.718499
5.42833,252.841,-0.71867
5.43,252.857,-0.718827
5.43167,252.874,-0.718993
5.43333,252.89,-0.719234
5.435,252.906,-0.719603
5.43667,252.922,-0.719938
5.43833,252.939,-0.720281
5.44,252.955,-0.720566
5.44167,252.972,-0.720909
5.44333,252.988,-0.721303
5.445,253.004,-0.721622
5.44667,253.021,-0.721894
5.44833,253.037,-0.722182
5.45,253.053,-0.72247
5.45167,253.07,-0.722723
5.45333,253.086,-0.723097
5.455,253.102,-0.723425
5.45667,253.118,-0.723736
5.45833,253.135,-0.723999
5.46,253.151,-0.724179
5.46167,253.168,-0.724327
5.46333,253.184,-0.724463
5.465,253.201,-0.724561
5.46667,253.217,-0.724645
5.46833,253.233,-0.724699
5.47,253.25,-0.724784
5.47167,253.266,-0.724961
5.47333,253.282,-0.725199
5.475,253.299,-0.72548
5.47667,253.315,-0.725839
5.47833,253.331,-0.72612
5.48,253.348,-0.726321
5.48167,253.365,-0.72649
5.48333,253.381,-0.726666
5.485,253.397,-0.726793
5.48667,253.414,-0.726848
5.48833,253.43,-0.726905
5.49,253.446,-0.726965
5.49167,253.462,-0.727025
5.49333,253.479,-0.727086
5.495,253.495,-0.727176
5.49667,253.512,-0.727307
5.49833,253.528,-0.727552
5.5,253.545,-0.72781
5.50167,253.561,-0.728158
5.50333,253.577,-0.728529
5.505,253.594,-0.728883
5.50667,253.611,-0.729129
5.50833,253.627,-0.729391
5.51,253.643,-0.729598
5.51167,253.66,-0.729727
5.51333,253.676,-0.729832
5.515,253.693,-0.729965
5.51667,253.709,-0.73014
5.51833,253.725,-0.730354
5.52,253.742,-0.730533
5.52167,253.758,-0.730649
5.52333,253.775,-0.730784
5.525,253.791,-0.730872
5.52667,253.808,-0.730951
5.52833,253.824,-0.731026
5.53,253.84,-0.731334
5.53167,253.856,-0.731601
5.53333,253.873,-0.731744
5.535,253.89,-0.731865
5.53667,253.906,-0.73193
5.53833,253.922,-0.732
5.54,253.939,-0.732079
5.54167,253.955,-0.732184
5.54333,253.971,-0.732346
5.545,253.988,-0.732511
5.54667,254.004,-0.732656
5.54833,254.021,-0.732823
5.55,254.037,-0.732985
5.55167,254.053,-0.733106
5.55333,254.07,-0.733189
5.555,254.086,-0.733272
5.55667,254.103,-0.733349
5.55833,254.12,-0.733427
5.56,254.136,-0.733516
5.56167,254.152,-0.733609
5.56333,254.168,-0.733701
5.565,254.185,-0.733791
5.56667,254.202,-0.733877
5.56833,254.218,-0.734038
5.57,254.234,-0.734174
5.57167,254.251,-0.734255
5.57333,254.267,-0.734337
5.575,254.283,-0.734422
5.57667,254.3,-0.734512
5.57833,254.316,-0.734608
5.58,254.333,-0.734738
5.58167,254.349,-0.734866
5.58333,254.366,-0.734983
5.585,254.382,-0.735133
5.58667,254.399,-0.735262
5.58833,254.415,-0.735364
5.59,254.432,-0.735534
5.59167,254.448,-0.735673
5.59333,254.465,-0.735756
5.595,254.481,-0.735833
5.59667,254.497,-0.735908
5.59833,254.514,-0.735997
5.6,254.53,-0.736095
5.60167,254.546,-0.736195
5.60333,254.563,-0.736326
5.605,254.58,-0.736541
5.60667,254.596,-0.736745
5.60833,254.612,-0.736884
5.61,254.629,-0.73699
5.61167,254.646,-0.73712
5.61333,254.662,-0.737259
5.615,254.678,-0.737365
5.61667,254.695,-0.737471
5.61833,254.711,-0.737576
5.62,254.728,-0.737678
5.62167,254.744,-0.737786
5.62333,254.761,-0.737894
5.625,254.777,-0.738002
5.62667,254.794,-0.738102
5.62833,254.81,-0.738205
5.63,254.826,-0.738308
5.63167,254.843,-0.738409
5.63333,254.859,-0.738505
5.635,254.876,-0.738611
5.63667,254.892,-0.738705
5.63833,254.908,-0.738798
5.64,254.925,-0.738892
5.64167,254.942,-0.738988
5.64333,254.958,-0.739091
5.645,254.975,-0.739189
5.64667,254.991,-0.739286
5.64833,255.008,-0.739388
5.65,255.024,-0.739501
5.65167,255.041,-0.739617
5.65333,255.057,-0.739733
5.655,255.074,-0.739844
5.65667,255.09,-0.739957
5.65833,255.107,-0.740068
5.66,255.123,-0.740182
5.66167,255.139,-0.740282
5.66333,255.156,-0.740368
5.665,255.173,-0.740449
5.66667,255.189,-0.740522
5.66833,255.206,-0.740599
5.67,255.222,-0.740675
5.67167,255.238,-0.740752
5.67333,255.255,-0.740839
5.675,255.271,-0.740932
5.67667,255.288,-0.741035
5.67833,255.304,-0.741155
5.68,255.321,-0.741295
5.68167,255.337,-0.741408
5.68333,255.353,-0.741523
5.685,255.37,-0.741634
5.68667,255.387,-0.741742
5.68833,255.403,-0.741852
5.69,255.42,-0.741953
5.69167,255.436,-0.742049
5.69333,255.453,-0.742145
5.695,255.469,-0.742238
5.69667,255.486,-0.742332
5.69833,255.502,-0.742435
5.7,255.519,-0.742543
5.70167,255.535,-0.742656
5.70333,255.552,-0.742833
5.705,255.568,-0.743122
5.70667,255.585,-0.743465
5.70833,255.601,-0.743846
5.71,255.617,-0.744142
5.71167,255.634,-0.74428
5.71333,255.651,-0.744397
5.715,255.667,-0.744502
5.71667,255.683,-0.744597
5.71833,255.7,-0.744675
5.72,255.716,-0.744747
5.72167,255.733,-0.744826
5.72333,255.749,-0.744921
5.725,255.766,-0.745021
5.72667,255.782,-0.745119
5.72833,255.799,-0.745223
5.73,255.815,-0.745334
5.73167,255.832,-0.745449
5.73333,255.848,-0.745562
5.735,255.865,-0.745673
5.73667,255.881,-0.745784
5.73833,255.897,-0.745897
5.74,255.914,-0.74601
5.74167,255.931,-0.746118
5.74333,255.947,-0.74622
5.745,255.964,-0.746327
5.74667,255.98,-0.746438
5.74833,255.997,-0.746547
5.75,256.013,-0.746657
5.75167,256.03,-0.746767
5.75333,256.047,-0.746878
5.755,256.063,-0.746985
5.75667,256.079,-0.747103
5.75833,256.096,-0.747227
5.76,256.113,-0.747343
5.76167,256.129,-0.747451
5.76333,256.146,-0.747553
5.765,256.162,-0.747639
5.76667,256.179,-0.747719
5.76833,256.195,-0.747788
5.77,256.212,-0.747853
5.77167,256.228,-0.747918
5.77333,256.245,-0.747984
5.775,256.261,-0.748065
5.77667,256.277,-0.748154
5.77833,256.294,-0.748252
5.78,256.311,-0.748348
5.78167,256.327,-0.748445
5.78333,256.344,-0.748545
5.785,256.36,-0.748654
5.78667,256.377,-0.748756
5.78833,256.393,-0.748858
5.79,256.41,-0.748963
5.79167,256.427,-0.749067
5.79333,256.443,-0.749173
5.795,256.46,-0.749278
5.79667,256.476,-0.749389
5.79833,256.493,-0.749492
5.8,256.509,-0.749593
5.80167,256.526,-0.749705
5.80333,256.542,-0.74982
5.805,256.559,-0.749927
5.80667,256.575,-0.750034
5.80833,256.591,-0.75014
5.81,256.608,-0.75025
5.81167,256.624,-0.750352
5.81333,256.641,-0.750446
5.815,256.658,-0.750535
5.81667,256.674,-0.750619
5.81833,256.69,-0.750695
5.82,256.707,-0.75078
5.82167,256.724,-0.750873
5.82333,256.741,-0.75097
5.825,256.757,-0.751072
5.82667,256.774,-0.751184
5.82833,256.79,-0.7513
5.83,256.807,-0.751443
5.83167,256.823,-0.75168
5.83333,256.839,-0.75182
5.835,256.856,-0.751928
5.83667,256.873,-0.752034
5.83833,256.889,-0.752141
5.84,256.906,-0.752243
5.84167,256.922,-0.752333
5.84333,256.939,-0.752432
5.845,256.955,-0.752528
5.84667,256.972,-0.752619
5.84833,256.988,-0.752711
5.85,257.005,-0.752804
5.85167,257.022,-0.752898
5.85333,257.038,-0.752989
5.855,257.055,-0.753078
5.85667,257.071,-0.753165
5.85833,257.088,-0.753254
5.86,257.105,-0.753337
5.86167,257.121,-0.753434
5.86333,257.137,-0.753525
5.865,257.154,-0.753624
5.86667,257.171,-0.753724
5.86833,257.187,-0.753826
5.87,257.204,-0.753922
5.87167,257.22,-0.754021
5.87333,257.237,-0.754126
5.875,257.253,-0.754233
5.87667,257.27,-0.754346
5.87833,257.287,-0.754455
5.88,257.303,-0.754558
5.88167,257.32,-0.754659
5.88333,257.337,-0.754761
5.885,257.353,-0.754856
5.88667,257.369,-0.754952
5.88833,257.386,-0.755041
5.89,257.402,-0.755125
5.89167,257.419,-0.755214
5.89333,257.436,-0.755307
5.895,257.452,-0.755409
5.89667,257.468,-0.755504
5.89833,257.485,-0.7556
5.9,257.502,-0.755692
5.90167,257.518,-0.755782
5.90333,257.535,-0.755866
5.905,257.551,-0.75595
5.90667,257.568,-0.75603
5.90833,257.585,-0.756107
5.91,257.601,-0.75618
5.91167,257.618,-0.756249
5.91333,257.634,-0.756321
5.915,257.651,-0.756394
5.91667,257.668,-0.756465
5.91833,257.684,-0.756531
5.92,257.701,-0.756603
5.92167,257.717,-0.75668
5.92333,257.734,-0.75676
5.925,257.75,-0.756835
5.92667,257.767,-0.756919
5.92833,257.784,-0.75701
5.93,257.8,-0.757109
5.93167,257.817,-0.757214
5.93333,257.833,-0.757313
5.935,257.85,-0.757412
5.93667,257.866,-0.757508
5.93833,257.883,-0.757602
5.94,257.899,-0.757694
5.94167,257.916,-0.757774
5.94333,257.933,-0.757857
5.945,257.949,-0.757938
5.94667,257.966,-0.758024
5.94833,257.982,-0.758112
5.95,257.999,-0.758209
5.95167,258.016,-0.758303
5.95333,258.032,-0.758394
5.955,258.049,-0.758478
5.95667,258.065,-0.758558
5.95833,258.081,-0.758636
5.96,258.098,-0.758702
5.96167,258.115,-0.758766
5.96333,258.131,-0.758828
5.965,258.148,-0.758902
5.96667,258.164,-0.75898
5.96833,258.181,-0.759068
5.97,258.197,-0.759164
5.97167,258.214,-0.759258
5.97333,258.231,-0.75935
5.975,258.247,-0.759443
5.97667,258.264,-0.759536
5.97833,258.28,-0.759624
5.98,258.297,-0.759702
5.98167,258.313,-0.759774
5.98333,258.33,-0.759852
5.985,258.347,-0.759927
5.98667,258.363,-0.760004
5.98833,258.38,-0.760078
5.99,258.397,-0.760152
5.99167,258.413,-0.760228
5.99333,258.43,-0.760313
5.995,258.446,-0.760401
5.99667,258.463,-0.760494
5.99833,258.48,-0.760593
6,258.496,-0.760687
6.00167,258.513,-0.760781
6.00333,258.529,-0.760873
6.005,258.546,-0.760965
6.00667,258.562,-0.761052
6.00833,258.579,-0.761138
6.01,258.595,-0.761219
6.01167,258.612,-0.7613
6.01333,258.629,-0.761371
6.015,258.646,-0.761433
6.01667,258.662,-0.761498
6.01833,258.679,-0.761564
6.02,258.695,-0.761624
6.02167,258.712,-0.761679
6.02333,258.728,-0.761745
6.025,258.745,-0.761818
6.02667,258.761,-0.761891
6.02833,258.778,-0.761967
6.03,258.795,-0.76205
6.03167,258.812,-0.762139
6.03333,258.828,-0.762228
6.035,258.845,-0.762315
6.03667,258.861,-0.762398
6.03833,258.878,-0.762482
6.04,258.895,-0.76256
6.04167,258.911,-0.762636
6.04333,258.927,-0.762709
6.045,258.944,-0.762771
6.04667,258.96,-0.76283
6.04833,258.977,-0.762888
6.05,258.993,-0.762945
6.05167,259.01,-0.763002
6.05333,259.027,-0.763054
6.055,259.044,-0.763119
6.05667,259.06,-0.763193
6.05833,259.077,-0.763274
6.06,259.093,-0.763352
6.06167,259.11,-0.763437
6.06333,259.126,-0.763523
6.065,259.143,-0.763606
6.06667,259.16,-0.763696
6.06833,259.177,-0.763788
6.07,259.193,-0.763869
6.07167,259.21,-0.763953
6.07333,259.226,-0.764035
6.075,259.243,-0.764113
6.07667,259.26,-0.764193
6.07833,259.276,-0.764273
6.08,259.293,-0.764357
6.08167,259.309,-0.764432
6.08333,259.326,-0.764506
6.085,259.342,-0.764582
6.08667,259.359,-0.764661
6.08833,259.376,-0.764729
6.09,259.392,-0.764797
6.09167,259.409,-0.764864
6.09333,259.425,-0.764931
6.095,259.442,-0.764988
6.09667,259.458,-0.765052
6.09833,259.475,-0.765122
6.1,259.491,-0.76519
6.10167,259.508,-0.765256
6.10333,259.525,-0.765325
6.105,259.541,-0.765392
6.10667,259.558,-0.765463
6.10833,259.575,-0.765537
6.11,259.591,-0.765614
6.11167,259.608,-0.765683
6.11333,259.624,-0.765747
6.115,259.641,-0.765807
6.11667,259.657,-0.765869
6.11833,259.674,-0.765931
6.12,259.691,-0.765993
6.12167,259.707,-0.76605
6.12333,259.724,-0.76611
6.125,259.741,-0.766176
6.12667,259.757,-0.766241
6.12833,259.774,-0.766304
6.13,259.79,-0.766377
6.13167,259.807,-0.766445
6.13333,259.824,-0.766516
6.135,259.84,-0.766577
6.13667,259.856,-0.766638
6.13833,259.873,-0.766698
6.14,259.889,-0.766756
6.14167,259.906,-0.766814
6.14333,259.923,-0.766877
6.145,259.94,-0.766945
6.14667,259.956,-0.767017
6.14833,259.973,-0.767087
6.15,259.989,-0.767166
6.15167,260.006,-0.767248
6.15333,260.023,-0.767335
6.155,260.039,-0.767424
6.15667,260.056,-0.767503
6.15833,260.072,-0.767583
6.16,260.089,-0.767659
6.16167,260.105,-0.767736
6.16333,260.122,-0.767807
6.165,260.138,-0.767881
6.16667,260.155,-0.767963
6.16833,260.172,-0.768035
6.17,260.189,-0.768109
6.17167,260.205,-0.768187
6.17333,260.221,-0.76827
6.175,260.238,-0.768352
6.17667,260.255,-0.768424
6.17833,260.272,-0.768487
6.18,260.288,-0.768539
6.18167,260.305,-0.768575
6.18333,260.321,-0.768612
6.185,260.338,-0.76865
6.18667,260.355,-0.768698
6.18833,260.371,-0.768742
6.19,260.388,-0.768785
6.19167,260.405,-0.768839
6.19333,260.421,-0.7689
6.195,260.438,-0.768956
6.19667,260.454,-0.769009
6.19833,260.471,-0.769056
6.2,260.487,-0.769103
6.20167,260.504,-0.769142
6.20333,260.521,-0.769188
6.205,260.537,-0.76924
6.20667,260.554,-0.769301
6.20833,260.571,-0.769368
6.21,260.587,-0.76944
6.21167,260.604,-0.76952
6.21333,260.621,-0.769596
6.215,260.637,-0.769676
6.21667,260.654,-0.769748
6.21833,260.671,-0.769818
6.22,260.687,-0.769875
6.22167,260.704,-0.769929
6.22333,260.72,-0.769973
6.225,260.737,-0.770012
6.22667,260.754,-0.770053
6.22833,260.77,-0.770093
6.23,260.787,-0.770133
6.23167,260.803,-0.770178
6.23333,260.82,-0.77023
6.235,260.836,-0.770281
6.23667,260.853,-0.770333
6.23833,260.869,-0.770388
6.24,260.886,-0.770451
6.24167,260.903,-0.770513
6.24333,260.919,-0.770579
6.245,260.936,-0.770645
6.24667,260.953,-0.770707
6.24833,260.969,-0.770764
6.25,260.986,-0.770819
6.25167,261.003,-0.770866
6.25333,261.019,-0.770913
6.255,261.036,-0.770956
6.25667,261.052,-0.770992
6.25833,261.069,-0.771029
6.26,261.085,-0.771075
6.26167,261.102,-0.771126
6.26333,261.119,-0.77119
6.265,261.135,-0.771257
6.26667,261.152,-0.771328
6.26833,261.169,-0.771402
6.27,261.185,-0.77147
6.27167,261.202,-0.771535
6.27333,261.219,-0.771595
6.275,261.235,-0.771646
6.27667,261.252,-0.771688
6.27833,261.268,-0.77173
6.28,261.285,-0.771777
6.28167,261.302,-0.771822
6.28333,261.318,-0.771867
6.285,261.335,-0.771905
6.28667,261.351,-0.771944
6.28833,261.368,-0.771981
6.29,261.384,-0.772018
6.29167,261.401,-0.772065
6.29333,261.417,-0.772116
6.295,261.434,-0.772169
6.29667,261.451,-0.772227
6.29833,261.467,-0.772278
6.3,261.484,-0.77233
6.30167,261.5,-0.772391
6.30333,261.517,-0.772458
6.305,261.534,-0.772514
6.30667,261.551,-0.77257
6.30833,261.568,-0.772626
6.31,261.584,-0.772681
6.31167,261.601,-0.772734
6.31333,261.617,-0.772784
6.315,261.634,-0.772824
6.31667,261.65,-0.772858
6.31833,261.667,-0.772898
6.32,261.684,-0.772937
6.32167,261.7,-0.772974
6.32333,261.717,-0.773007
6.325,261.734,-0.773042
6.32667,261.75,-0.773086
6.32833,261.767,-0.773126
6.33,261.783,-0.77317
6.33167,261.8,-0.773207
6.33333,261.817,-0.77324
6.335,261.833,-0.773275
6.33667,261.85,-0.773315
6.33833,261.867,-0.773356
6.34,261.883,-0.7734
6.34167,261.9,-0.773439
6.34333,261.917,-0.77348
6.345,261.933,-0.773526
6.34667,261.95,-0.773572
6.34833,261.967,-0.773618
6.35,261.983,-0.773666
6.35167,262,-0.773713
6.35333,262.016,-0.773757
6.355,262.033,-0.773804
6.35667,262.05,-0.773848
6.35833,262.066,-0.773898
6.36,262.083,-0.773953
6.36167,262.099,-0.774008
6.36333,262.115,-0.774062
6.365,262.132,-0.774116
6.36667,262.149,-0.774169
6.36833,262.166,-0.774222
6.37,262.182,-0.774266
6.37167,262.199,-0.774309
6.37333,262.215,-0.774343
6.375,262.232,-0.774374
6.37667,262.249,-0.7744
6.37833,262.266,-0.774429
6.38,262.282,-0.774463
6.38167,262.299,-0.774498
6.38333,262.316,-0.774538
6.385,262.332,-0.774582
6.38667,262.349,-0.774634
6.38833,262.366,-0.774679
6.39,262.382,-0.774725
6.39167,262.399,-0.774782
6.39333,262.415,-0.774838
6.395,262.432,-0.774883
6.39667,262.448,-0.774925
6.39833,262.465,-0.774962
6.4,262.482,-0.775002
6.40167,262.499,-0.775056
6.40333,262.515,-0.775102
6.405,262.532,-0.775148
6.40667,262.548,-0.775193
6.40833,262.565,-0.775239
6.41,262.582,-0.775288
6.41167,262.598,-0.775318
6.41333,262.615,-0.775344
6.415,262.632,-0.775358
6.41667,262.649,-0.775374
6.41833,262.665,-0.775396
6.42,262.682,-0.775429
6.42167,262.698,-0.775463
6.42333,262.715,-0.775508
6.425,262.732,-0.775568
6.42667,262.748,-0.775635
6.42833,262.765,-0.775699
6.43,262.781,-0.77576
6.43167,262.798,-0.77581
6.43333,262.815,-0.775851
6.435,262.832,-0.775892
6.43667,262.848,-0.775927
6.43833,262.865,-0.775955
6.44,262.881,-0.775989
6.44167,262.898,-0.776015
6.44333,262.915,-0.776044
6.445,262.932,-0.77608
6.44667,262.948,-0.776113
6.44833,262.965,-0.776148
6.45,262.981,-0.776187
6.45167,262.998,-0.776227
6.45333,263.014,-0.776273
6.455,263.031,-0.776329
6.45667,263.048,-0.776386
6.45833,263.064,-0.776445
6.46,263.081,-0.7765
6.46167,263.098,-0.776548
6.46333,263.115,-0.776592
6.465,263.131,-0.776631
6.46667,263.148,-0.776667
6.46833,263.165,-0.776698
6.47,263.182,-0.776724
6.47167,263.198,-0.776754
6.47333,263.215,-0.776788
6.475,263.231,-0.776831
6.47667,263.248,-0.776884
6.47833,263.264,-0.776938
6.48,263.281,-0.776999
6.48167,263.298,-0.777062
6.48333,263.314,-0.777121
6.485,263.331,-0.777182
6.48667,263.348,-0.777231
6.48833,263.365,-0.777264
6.49,263.381,-0.777295
6.49167,263.398,-0.777319
6.49333,263.414,-0.777334
6.495,263.431,-0.777347
6.49667,263.447,-0.777359
6.49833,263.464,-0.777376
6.5,263.481,-0.777395
6.50167,263.497,-0.777424
6.50333,263.514,-0.77746
6.505,263.53,-0.777498
6.50667,263.547,-0.77754
6.50833,263.563,-0.777581
6.51,263.58,-0.777627
6.51167,263.597,-0.777674
6.51333,263.613,-0.777724
6.515,263.63,-0.777777
6.51667,263.647,-0.777837
6.51833,263.664,-0.777901
6.52,263.68,-0.777962
6.52167,263.697,-0.778023
6.52333,263.713,-0.778076
6.525,263.73,-0.77813
6.52667,263.747,-0.77817
6.52833,263.763,-0.778198
6.53,263.78,-0.77822
6.53167,263.797,-0.778246
6.53333,263.814,-0.778278
6.535,263.83,-0.778307
6.53667,263.847,-0.778337
6.53833,263.863,-0.77837
6.54,263.88,-0.778403
6.54167,263.896,-0.778432
6.54333,263.913,-0.778454
6.545,263.93,-0.778474
6.54667,263.946,-0.778492
6.54833,263.963,-0.778515
6.55,263.98,-0.778534
6.55167,263.996,-0.778551
6.55333,264.012,-0.778565
6.555,264.029,-0.778583
6.55667,264.046,-0.77861
6.55833,264.062,-0.778639
6.56,264.078,-0.778672
6.56167,264.094,-0.778697
6.56333,264.112,-0.77873
6.565,264.128,-0.778761
6.56667,264.145,-0.778789
6.56833,264.162,-0.778814
6.57,264.178,-0.77884
6.57167,264.195,-0.778857
6.57333,264.212,-0.778873
6.575,264.228,-0.778897
6.57667,264.245,-0.778928
6.57833,264.262,-0.778969
6.58,264.279,-0.779021
6.58167,264.295,-0.779075
6.58333,264.312,-0.779137
6.585,264.328,-0.779222
6.58667,264.345,-0.77928
6.58833,264.362,-0.779322
6.59,264.379,-0.779366
6.59167,264.395,-0.779406
6.59333,264.412,-0.779443
6.595,264.428,-0.779474
6.59667,264.445,-0.779503
6.59833,264.462,-0.779537
6.6,264.478,-0.77958
6.60167,264.495,-0.779615
6.60333,264.512,-0.779651
6.605,264.529,-0.779681
6.60667,264.545,-0.779708
6.60833,264.562,-0.779731
6.61,264.578,-0.779752
6.61167,264.595,-0.779768
6.61333,264.612,-0.779785
6.615,264.628,-0.779798
6.61667,264.645,-0.77982
6.61833,264.661,-0.779844
6.62,264.678,-0.779862
6.62167,264.694,-0.779889
6.62333,264.711,-0.779925
6.625,264.728,-0.779968
6.62667,264.745,-0.780011
6.62833,264.761,-0.780052
6.63,264.778,-0.780092
6.63167,264.795,-0.780129
6.63333,264.811,-0.780167
6.635,264.828,-0.780203
6.63667,264.845,-0.780235
6.63833,264.862,-0.780269
6.64,264.878,-0.780301
6.64167,264.895,-0.780331
6.64333,264.912,-0.78036
6.645,264.929,-0.780396
6.64667,264.945,-0.780431
6.64833,264.962,-0.780464
6.65,264.978,-0.780509
6.65167,264.995,-0.780555
6.65333,265.012,-0.780606
6.655,265.028,-0.780641
6.65667,265.045,-0.780684
6.65833,265.062,-0.780729
6.66,265.079,-0.78077
6.66167,265.095,-0.780799
6.66333,265.112,-0.780819
6.665,265.129,-0.780839
6.66667,265.145,-0.780858
6.66833,265.162,-0.780882
6.67,265.178,-0.780906
6.67167,265.195,-0.780938
6.67333,265.212,-0.780973
6.675,265.229,-0.781012
6.67667,265.246,-0.781062
6.67833,265.262,-0.781114
6.68,265.279,-0.781174
6.68167,265.295,-0.78123
6.68333,265.312,-0.781296
6.685,265.328,-0.781361
6.68667,265.344,-0.781422
6.68833,265.361,-0.781474
6.69,265.378,-0.78152
6.69167,265.395,-0.78156
6.69333,265.411,-0.781597
6.695,265.428,-0.781625
6.69667,265.445,-0.781646
6.69833,265.461,-0.781661
6.7,265.478,-0.781667
6.70167,265.495,-0.781685
6.70333,265.511,-0.781702
6.705,265.528,-0.781716
6.70667,265.545,-0.781731
6.70833,265.561,-0.781747
6.71,265.578,-0.781764
6.71167,265.594,-0.781782
6.71333,265.611,-0.781794
6.715,265.628,-0.781801
6.71667,265.644,-0.781804
6.71833,265.661,-0.781803
6.72,265.677,-0.781807
6.72167,265.694,-0.781813
6.72333,265.711,-0.781826
6.725,265.728,-0.781845
6.72667,265.744,-0.781872
6.72833,265.761,-0.781905
6.73,265.777,-0.781951
6.73167,265.794,-0.781996
6.73333,265.81,-0.782044
6.735,265.827,-0.782087
6.73667,265.844,-0.782128
6.73833,265.861,-0.78216
6.74,265.877,-0.782182
6.74167,265.894,-0.782193
6.74333,265.91,-0.782206
6.745,265.927,-0.782223
6.74667,265.943,-0.782233
6.74833,265.96,-0.782252
6.75,265.977,-0.782269
6.75167,265.994,-0.782295
6.75333,266.01,-0.782325
6.755,266.027,-0.782352
6.75667,266.044,-0.782374
6.75833,266.06,-0.782398
6.76,266.077,-0.78242
6.76167,266.094,-0.782439
6.76333,266.11,-0.782464
6.765,266.127,-0.782485
6.76667,266.144,-0.782504
6.76833,266.161,-0.782517
6.77,266.177,-0.782538
6.77167,266.194,-0.78256
6.77333,266.21,-0.782579
6.775,266.227,-0.782597
6.77667,266.243,-0.782615
6.77833,266.26,-0.782639
6.78,266.277,-0.782657
6.78167,266.293,-0.782681
6.78333,266.31,-0.782707
6.785,266.327,-0.782733
6.78667,266.343,-0.782754
6.78833,266.36,-0.782773
6.79,266.377,-0.782789
6.79167,266.393,-0.782802
6.79333,266.41,-0.782818
6.795,266.426,-0.782827
6.79667,266.443,-0.782844
6.79833,266.46,-0.782867
6.8,266.477,-0.782893
6.80167,266.493,-0.782914
6.80333,266.51,-0.782936
6.805,266.526,-0.782957
6.80667,266.543,-0.78298
6.80833,266.56,-0.783001
6.81,266.577,-0.783019
6.81167,266.593,-0.783032
6.81333,266.61,-0.783047
6.815,266.627,-0.783065
6.81667,266.643,-0.783085
6.81833,266.66,-0.783106
6.82,266.676,-0.783125
6.82167,266.693,-0.783148
6.82333,266.709,-0.783177
6.825,266.726,-0.783214
6.82667,266.743,-0.783253
6.82833,266.76,-0.783296
6.83,266.776,-0.783328
6.83167,266.793,-0.783351
6.83333,266.81,-0.783368
6.835,266.826,-0.783377
6.83667,266.843,-0.783382
6.83833,266.859,-0.783387
6.84,266.876,-0.783401
6.84167,266.892,-0.783421
6.84333,266.909,-0.783446
6.845,266.926,-0.783482
6.84667,266.943,-0.783518
6.84833,266.959,-0.783544
6.85,266.976,-0.783558
6.85167,266.993,-0.78357
6.85333,267.01,-0.783578
6.855,267.026,-0.783591
6.85667,267.043,-0.783599
6.85833,267.06,-0.783614
6.86,267.076,-0.783642
6.86167,267.093,-0.783679
6.86333,267.109,-0.78372
6.865,267.126,-0.783762
6.86667,267.143,-0.783812
6.86833,267.159,-0.783851
6.87,267.176,-0.783884
6.87167,267.192,-0.783904
6.87333,267.209,-0.78393
6.875,267.226,-0.783947
6.87667,267.242,-0.783957
6.87833,267.259,-0.783966
6.88,267.275,-0.783973
6.88167,267.292,-0.783991
6.88333,267.309,-0.784009
6.885,267.325,-0.784034
6.88667,267.342,-0.784065
6.88833,267.359,-0.784101
6.89,267.376,-0.784137
6.89167,267.392,-0.784178
6.89333,267.409,-0.784213
6.895,267.426,-0.78425
6.89667,267.442,-0.784289
6.89833,267.459,-0.784322
6.9,267.476,-0.784354
6.90167,267.492,-0.784381
6.90333,267.509,-0.784412
6.905,267.526,-0.784436
6.90667,267.542,-0.784456
6.90833,267.559,-0.784476
6.91,267.576,-0.784496
6.91167,267.592,-0.784522
6.91333,267.608,-0.784548
6.915,267.625,-0.784569
6.91667,267.642,-0.784588
6.91833,267.659,-0.784606
6.92,267.675,-0.784636
6.92167,267.692,-0.784665
6.92333,267.709,-0.784683
6.925,267.726,-0.784696
6.92667,267.742,-0.784714
6.92833,267.759,-0.784732
6.93,267.776,-0.784741
6.93167,267.792,-0.784739
6.93333,267.809,-0.784733
6.935,267.825,-0.784732
6.93667,267.842,-0.78474
6.93833,267.859,-0.784761
6.94,267.875,-0.784787
6.94167,267.892,-0.784808
6.94333,267.909,-0.784833
6.945,267.925,-0.784863
6.94667,267.942,-0.784904
6.94833,267.959,-0.784942
6.95,267.975,-0.784974
6.95167,267.992,-0.784997
6.95333,268.009,-0.785019
6.955,268.025,-0.785038
6.95667,268.042,-0.785055
6.95833,268.058,-0.785072
6.96,268.075,-0.785097
6.96167,268.092,-0.785115
6.96333,268.108,-0.785132
6.965,268.125,-0.785155
6.96667,268.141,-0.785182
6.96833,268.158,-0.785213
6.97,268.175,-0.785233
6.97167,268.191,-0.785255
6.97333,268.208,-0.785285
6.975,268.225,-0.785317
6.97667,268.242,-0.785349
6.97833,268.258,-0.78538
6.98,268.275,-0.785407
6.98167,268.291,-0.785435
6.98333,268.308,-0.78545
6.985,268.325,-0.785461
6.98667,268.342,-0.785474
6.98833,268.358,-0.785501
6.99,268.375,-0.785532
6.99167,268.392,-0.785561
6.99333,268.408,-0.78559
6.995,268.425,-0.785615
6.99667,268.442,-0.78564
6.99833,268.458,-0.785662
7,268.474,-0.785676
7.00167,268.491,-0.78568
7.00333,268.508,-0.785673
7.005,268.525,-0.785659
7.00667,268.541,-0.785653
7.00833,268.558,-0.785655
7.01,268.574,-0.785668
7.01167,268.591,-0.78569
7.01333,268.608,-0.785719
7.015,268.624,-0.785755
7.01667,268.642,-0.785795
7.01833,268.658,-0.785826
7.02,268.675,-0.785849
7.02167,268.691,-0.785871
7.02333,268.708,-0.785887
7.025,268.725,-0.785899
7.02667,268.741,-0.785907
7.02833,268.758,-0.785917
7.03,268.775,-0.785924
7.03167,268.791,-0.785937
7.03333,268.808,-0.785954
7.035,268.825,-0.785979
7.03667,268.842,-0.786012
7.03833,268.858,-0.786043
7.04,268.875,-0.78607
7.04167,268.891,-0.786096
7.04333,268.908,-0.786123
7.045,268.924,-0.786154
7.04667,268.941,-0.786194
7.04833,268.958,-0.786239
7.05,268.974,-0.786283
7.05167,268.991,-0.78633
7.05333,269.008,-0.786378
7.055,269.024,-0.786424
7.05667,269.041,-0.78646
7.05833,269.058,-0.786484
7.06,269.074,-0.786505
7.06167,269.09,-0.786531
7.06333,269.107,-0.786551
7.065,269.124,-0.786573
7.06667,269.141,-0.786591
7.06833,269.157,-0.786609
7.07,269.174,-0.786626
7.07167,269.191,-0.786644
7.07333,269.207,-0.786667
7.075,269.224,-0.786693
7.07667,269.241,-0.786722
7.07833,269.258,-0.786753
7.08,269.275,-0.78679
7.08167,269.292,-0.786825
7.08333,269.308,-0.786859
7.085,269.324,-0.786892
7.08667,269.341,-0.786929
7.08833,269.357,-0.786963
7.09,269.374,-0.786989
7.09167,269.391,-0.787013
7.09333,269.407,-0.787035
7.095,269.424,-0.787054
7.09667,269.441,-0.787059
7.09833,269.457,-0.787061
7.1,269.474,-0.787057
7.10167,269.491,-0.787057
7.10333,269.507,-0.787058
7.105,269.524,-0.787062
7.10667,269.541,-0.787073
7.10833,269.557,-0.787083
7.11,269.574,-0.787095
7.11167,269.591,-0.787098
7.11333,269.607,-0.787111
7.115,269.624,-0.787123
7.11667,269.64,-0.787132
7.11833,269.657,-0.787139
7.12,269.673,-0.787149
7.12167,269.69,-0.787151
7.12333,269.706,-0.787158
7.125,269.723,-0.787157
7.12667,269.74,-0.787158
7.12833,269.757,-0.787155
7.13,269.773,-0.787144
7.13167,269.79,-0.787141
7.13333,269.807,-0.787148
7.135,269.823,-0.787168
7.13667,269.84,-0.7872
7.13833,269.857,-0.787243
7.14,269.873,-0.787284
7.14167,269.89,-0.787326
7.14333,269.906,-0.787362
7.145,269.923,-0.787402
7.14667,269.94,-0.787449
7.14833,269.956,-0.787492
7.15,269.973,-0.787528
7.15167,269.99,-0.787562
7.15333,270.007,-0.787594
7.155,270.023,-0.787626
7.15667,270.04,-0.78765
7.15833,270.057,-0.787663
7.16,270.073,-0.787667
7.16167,270.09,-0.787666
7.16333,270.106,-0.787671
7.165,270.123,-0.78768
7.16667,270.139,-0.787687
7.16833,270.156,-0.78769
7.17,270.173,-0.787698
7.17167,270.189,-0.787709
7.17333,270.206,-0.787728
7.175,270.223,-0.78775
7.17667,270.24,-0.787776
7.17833,270.256,-0.787801
7.18,270.273,-0.787818
7.18167,270.29,-0.787837
7.18333,270.307,-0.787855
7.185,270.323,-0.787874
7.18667,270.34,-0.787904
7.18833,270.357,-0.787926
7.19,270.373,-0.787945
7.19167,270.39,-0.787965
7.19333,270.406,-0.787989
7.195,270.423,-0.788017
7.19667,270.44,-0.788038
7.19833,270.457,-0.788052
7.2,270.473,-0.788066
7.20167,270.49,-0.788078
7.20333,270.507,-0.788094
7.205,270.523,-0.788122
7.20667,270.54,-0.788163
7.20833,270.556,-0.788202
7.21,270.573,-0.788243
7.21167,270.59,-0.788291
7.21333,270.606,-0.788335
7.215,270.623,-0.788376
7.21667,270.64,-0.788412
7.21833,270.657,-0.788445
7.22,270.673,-0.788469
7.22167,270.69,-0.788485
7.22333,270.706,-0.788503
7.225,270.723,-0.78852
7.22667,270.74,-0.788543
7.22833,270.757,-0.788566
7.23,270.773,-0.788583
7.23167,270.789,-0.788602
7.23333,270.806,-0.788621
7.235,270.822,-0.788642
7.23667,270.839,-0.788661
7.23833,270.856,-0.788676
7.24,270.872,-0.788689
7.24167,270.889,-0.788694
7.24333,270.906,-0.788708
7.245,270.923,-0.788723
7.24667,270.939,-0.788738
7.24833,270.956,-0.788759
7.25,270.973,-0.788783
7.25167,270.99,-0.788809
7.25333,271.006,-0.788839
7.255,271.023,-0.788876
7.25667,271.039,-0.788918
7.25833,271.056,-0.788963
7.26,271.072,-0.789008
7.26167,271.089,-0.789048
7.26333,271.105,-0.789078
7.265,271.122,-0.789097
7.26667,271.139,-0.789109
7.26833,271.155,-0.78912
7.27,271.172,-0.789132
7.27167,271.189,-0.789138
7.27333,271.205,-0.789138
7.275,271.222,-0.789131
7.27667,271.239,-0.789127
7.27833,271.255,-0.789124
7.28,271.272,-0.78913
7.28167,271.289,-0.789134
7.28333,271.305,-0.789139
7.285,271.322,-0.789143
7.28667,271.339,-0.78915
7.28833,271.355,-0.789156
7.29,271.372,-0.789163
7.29167,271.389,-0.789174
7.29333,271.405,-0.789193
7.295,271.422,-0.789223
7.29667,271.439,-0.789256
7.29833,271.455,-0.789285
7.3,271.472,-0.789322
7.30167,271.489,-0.789359
7.30333,271.505,-0.789393
7.305,271.522,-0.789426
7.30667,271.539,-0.789456
7.30833,271.555,-0.789472
7.31,271.572,-0.78949
7.31167,271.588,-0.78951
7.31333,271.605,-0.789526
7.315,271.621,-0.789547
7.31667,271.638,-0.789564
7.31833,271.655,-0.789583
7.32,271.672,-0.789607
7.32167,271.688,-0.78963
7.32333,271.705,-0.789656
7.325,271.722,-0.789679
7.32667,271.739,-0.789701
7.32833,271.755,-0.789718
7.33,271.772,-0.789727
7.33167,271.789,-0.789741
7.33333,271.805,-0.789745
7.335,271.822,-0.789741
7.33667,271.839,-0.789742
7.33833,271.855,-0.789754
7.34,271.872,-0.789772
7.34167,271.888,-0.789797
7.34333,271.905,-0.789823
7.345,271.922,-0.789853
7.34667,271.938,-0.789884
7.34833,271.955,-0.789919
7.35,271.971,-0.789943
7.35167,271.988,-0.789964
7.35333,272.004,-0.789982
7.355,272.022,-0.790005
7.35667,272.038,-0.790037
7.35833,272.054,-0.790071
7.36,272.071,-0.79011
7.36167,272.088,-0.790155
7.36333,272.104,-0.790199
7.365,272.121,-0.79024
7.36667,272.138,-0.790273
7.36833,272.155,-0.790293
7.37,272.171,-0.790305
7.37167,272.188,-0.790314
7.37333,272.205,-0.790316
7.375,272.221,-0.790312
7.37667,272.238,-0.790304
7.37833,272.255,-0.790304
7.38,272.271,-0.790317
7.38167,272.288,-0.790341
7.38333,272.304,-0.790374
7.385,272.321,-0.790412
7.38667,272.338,-0.790451
7.38833,272.354,-0.790488
7.39,272.371,-0.790523
7.39167,272.387,-0.790554
7.39333,272.404,-0.790572
7.395,272.421,-0.790589
7.39667,272.437,-0.7906
7.39833,272.454,-0.790611
7.4,272.471,-0.790623
7.40167,272.487,-0.790635
7.40333,272.504,-0.790656
7.405,272.521,-0.790684
7.40667,272.538,-0.790713
7.40833,272.554,-0.790751
7.41,272.571,-0.79079
7.41167,272.588,-0.790832
7.41333,272.604,-0.79087
7.415,272.621,-0.790919
7.41667,272.637,-0.790962
7.41833,272.654,-0.790998
7.42,272.671,-0.791023
7.42167,272.687,-0.791042
7.42333,272.704,-0.791062
7.425,272.72,-0.791078
7.42667,272.737,-0.791089
7.42833,272.754,-0.791093
7.43,272.77,-0.791104
7.43167,272.787,-0.791118
7.43333,272.804,-0.791141
7.435,272.821,-0.791172
7.43667,272.837,-0.791205
7.43833,272.854,-0.791235
7.44,272.871,-0.791261
7.44167,272.887,-0.791296
7.44333,272.904,-0.791335
7.445,272.92,-0.791373
7.44667,272.937,-0.791411
7.44833,272.954,-0.791444
7.45,272.97,-0.791477
7.45167,272.987,-0.791508
7.45333,273.004,-0.791539
7.455,273.02,-0.79157
7.45667,273.037,-0.791596
7.45833,273.053,-0.791619
7.46,273.07,-0.791637
7.46167,273.087,-0.791654
7.46333,273.104,-0.791676
7.465,273.12,-0.791701
7.46667,273.137,-0.791727
7.46833,273.154,-0.791763
7.47,273.17,-0.791803
7.47167,273.187,-0.791841
7.47333,273.203,-0.791883
7.475,273.22,-0.791925
7.47667,273.237,-0.791961
7.47833,273.253,-0.791986
7.48,273.27,-0.792002
7.48167,273.287,-0.792018
7.48333,273.303,-0.792028
7.485,273.32,-0.792022
7.48667,273.337,-0.792013
7.48833,273.353,-0.792006
7.49,273.37,-0.791994
7.49167,273.387,-0.791984
7.49333,273.404,-0.791971
7.495,273.42,-0.791967
7.49667,273.437,-0.791971
7.49833,273.453,-0.791984
7.5,273.47,-0.792009
7.50167,273.486,-0.792044
7.50333,273.503,-0.792081
7.505,273.52,-0.792125
7.50667,273.537,-0.792168
7.50833,273.553,-0.792205
7.51,273.57,-0.792247
7.51167,273.587,-0.792283
7.51333,273.603,-0.792308
7.515,273.62,-0.79233
7.51667,273.636,-0.792348
7.51833,273.653,-0.792368
7.52,273.67,-0.792384
7.52167,273.687,-0.792405
7.52333,273.703,-0.792436
7.525,273.72,-0.792472
7.52667,273.737,-0.792505
7.52833,273.753,-0.792534
7.53,273.77,-0.792564
7.53167,273.786,-0.792594
7.53333,273.803,-0.792614
7.535,273.82,-0.792625
7.53667,273.837,-0.792633
7.53833,273.853,-0.792643
7.54,273.87,-0.792654
7.54167,273.886,-0.792667
7.54333,273.903,-0.792684
7.545,273.92,-0.792708
7.54667,273.936,-0.792729
7.54833,273.953,-0.792755
7.55,273.97,-0.792782
7.55167,273.986,-0.792798
7.55333,274.003,-0.792806
7.555,274.02,-0.792808
7.55667,274.036,-0.792813
7.55833,274.053,-0.792816
7.56,274.07,-0.792821
7.56167,274.086,-0.79283
7.56333,274.103,-0.792843
7.565,274.119,-0.792864
7.56667,274.136,-0.792891
7.56833,274.153,-0.792926
7.57,274.169,-0.792957
7.57167,274.186,-0.79299
7.57333,274.203,-0.793018
7.575,274.22,-0.79304
7.57667,274.236,-0.793053
7.57833,274.253,-0.793066
7.58,274.269,-0.793081
7.58167,274.286,-0.793096
7.58333,274.302,-0.793115
7.585,274.32,-0.793134
7.58667,274.336,-0.79316
7.58833,274.353,-0.793194
7.59,274.369,-0.793229
7.59167,274.386,-0.793266
7.59333,274.402,-0.793308
7.595,274.419,-0.793347
7.59667,274.436,-0.793386
7.59833,274.453,-0.793425
7.6,274.469,-0.793463
7.60167,274.486,-0.793498
7.60333,274.503,-0.793529
7.605,274.519,-0.793562
7.60667,274.536,-0.793591
7.60833,274.553,-0.793623
7.61,274.569,-0.793652
7.61167,274.586,-0.793678
7.61333,274.603,-0.793703
7.615,274.619,-0.793738
7.61667,274.636,-0.793779
7.61833,274.653,-0.793811
7.62,274.669,-0.793842
7.62167,274.686,-0.793884
7.62333,274.702,-0.793911
7.625,274.719,-0.793937
7.62667,274.736,-0.793959
7.62833,274.752,-0.793979
7.63,274.769,-0.793995
7.63167,274.786,-0.794014
7.63333,274.802,-0.794031
7.635,274.819,-0.794053
7.63667,274.836,-0.794077
7.63833,274.853,-0.794112
7.64,274.869,-0.79415
7.64167,274.886,-0.794195
7.64333,274.902,-0.79424
7.645,274.919,-0.794275
7.64667,274.936,-0.794313
7.64833,274.953,-0.794355
7.65,274.969,-0.794396
7.65167,274.985,-0.794421
7.65333,275.002,-0.794432
7.655,275.019,-0.794433
7.65667,275.035,-0.794433
7.65833,275.052,-0.794432
7.66,275.069,-0.794441
7.66167,275.086,-0.794446
7.66333,275.102,-0.794446
7.665,275.119,-0.794458
7.66667,275.136,-0.794483
7.66833,275.152,-0.794507
7.67,275.169,-0.79454
7.67167,275.186,-0.794583
7.67333,275.202,-0.794621
7.675,275.219,-0.794652
7.67667,275.235,-0.794674
7.67833,275.252,-0.794697
7.68,275.269,-0.79472
7.68167,275.285,-0.794739
7.68333,275.302,-0.794752
7.685,275.319,-0.794771
7.68667,275.335,-0.794791
7.68833,275.352,-0.794803
7.69,275.369,-0.794824
7.69167,275.386,-0.794847
7.69333,275.402,-0.794879
7.695,275.419,-0.794912
7.69667,275.435,-0.794947
7.69833,275.452,-0.794981
7.7,275.468,-0.795009
7.70167,275.485,-0.795041
7.70333,275.502,-0.795072
7.705,275.518,-0.795093
7.70667,275.535,-0.795115
7.70833,275.552,-0.795141
7.71,275.569,-0.795163
7.71167,275.585,-0.795186
7.71333,275.602,-0.795214
7.715,275.619,-0.795239
7.71667,275.635,-0.79527
7.71833,275.652,-0.795302
7.72,275.669,-0.795335
7.72167,275.685,-0.795361
7.72333,275.702,-0.795384
7.725,275.719,-0.79541
7.72667,275.736,-0.795439
7.72833,275.752,-0.795469
7.73,275.769,-0.795499
7.73167,275.785,-0.795533
7.73333,275.802,-0.79557
7.735,275.819,-0.795607
7.73667,275.835,-0.795634
7.73833,275.852,-0.795656
7.74,275.869,-0.795675
7.74167,275.885,-0.795689
7.74333,275.902,-0.795704
7.745,275.919,-0.79572
7.74667,275.935,-0.795734
7.74833,275.952,-0.795754
7.75,275.969,-0.795781
7.75167,275.985,-0.795807
7.75333,276.002,-0.795828
7.755,276.018,-0.795851
7.75667,276.035,-0.79588
7.75833,276.052,-0.795913
7.76,276.068,-0.79594
7.76167,276.085,-0.795963
7.76333,276.102,-0.79598
7.765,276.119,-0.796001
7.76667,276.136,-0.796021
7.76833,276.152,-0.796045
7.77,276.169,-0.796064
7.77167,276.185,-0.796086
7.77333,276.202,-0.796112
7.775,276.219,-0.796135
7.77667,276.235,-0.796154
7.77833,276.252,-0.796181
7.78,276.269,-0.796198
7.78167,276.285,-0.79621
7.78333,276.302,-0.79622
7.785,276.319,-0.796225
7.78667,276.335,-0.796227
7.78833,276.352,-0.796238
7.79,276.368,-0.796248
7.79167,276.385,-0.79626
7.79333,276.402,-0.796276
7.795,276.419,-0.796298
7.79667,276.435,-0.79633
7.79833,276.452,-0.79637
7.8,276.468,-0.796418
7.80167,276.485,-0.796468
7.80333,276.502,-0.796538
7.805,276.519,-0.796611
7.80667,276.535,-0.796689
7.80833,276.552,-0.796745
7.81,276.568,-0.796793
7.81167,276.585,-0.796836
7.81333,276.602,-0.79687
7.815,276.618,-0.796906
7.81667,276.635,-0.796942
7.81833,276.651,-0.796969
7.82,276.668,-0.796993
7.82167,276.685,-0.797015
7.82333,276.702,-0.797034
7.825,276.718,-0.797051
7.82667,276.735,-0.797071
7.82833,276.751,-0.797087
7.83,276.768,-0.797099
7.83167,276.785,-0.797114
7.83333,276.801,-0.797142
7.835,276.818,-0.797169
7.83667,276.835,-0.797198
7.83833,276.852,-0.797234
7.84,276.868,-0.797276
7.84167,276.885,-0.797328
7.84333,276.902,-0.797377
7.845,276.918,-0.797421
7.84667,276.935,-0.797459
7.84833,276.952,-0.797488
7.85,276.968,-0.797514
7.85167,276.984,-0.797533
7.85333,277.001,-0.797552
7.855,277.018,-0.797563
7.85667,277.034,-0.797576
7.85833,277.051,-0.797587
7.86,277.069,-0.797602
7.86167,277.085,-0.797611
7.86333,277.102,-0.797625
7.865,277.118,-0.797642
7.86667,277.135,-0.797655
7.86833,277.151,-0.797669
7.87,277.168,-0.797691
7.87167,277.185,-0.797701
7.87333,277.201,-0.797707
7.875,277.218,-0.797708
7.87667,277.235,-0.79772
7.87833,277.251,-0.797742
7.88,277.268,-0.797761
7.88167,277.285,-0.797776
7.88333,277.301,-0.7978
7.885,277.318,-0.797825
7.88667,277.335,-0.797847
7.88833,277.351,-0.797869
7.89,277.368,-0.797893
7.89167,277.385,-0.797908
7.89333,277.401,-0.797924
7.895,277.418,-0.797934
7.89667,277.435,-0.797952
7.89833,277.451,-0.797975
7.9,277.468,-0.798
7.90167,277.485,-0.798026
7.90333,277.501,-0.798048
7.905,277.518,-0.798073
7.90667,277.535,-0.798105
7.90833,277.551,-0.798139
7.91,277.568,-0.798176
7.91167,277.584,-0.79821
7.91333,277.601,-0.798249
7.915,277.618,-0.798302
7.91667,277.634,-0.798347
7.91833,277.651,-0.798391
7.92,277.668,-0.798431
7.92167,277.684,-0.798466
7.92333,277.701,-0.798503
7.925,277.718,-0.798537
7.92667,277.734,-0.798563
7.92833,277.751,-0.79859
7.93,277.767,-0.798609
7.93167,277.784,-0.798632
7.93333,277.801,-0.798663
7.935,277.817,-0.798692
7.93667,277.834,-0.798716
7.93833,277.85,-0.798731
7.94,277.867,-0.798741
7.94167,277.884,-0.798752
7.94333,277.901,-0.798765
7.945,277.917,-0.798783
7.94667,277.934,-0.798807
7.94833,277.951,-0.798837
7.95,277.968,-0.798873
7.95167,277.984,-0.798911
7.95333,278.001,-0.798955
7.955,278.017,-0.799002
7.95667,278.034,-0.799046
7.95833,278.051,-0.799084
7.96,278.068,-0.799118
7.96167,278.084,-0.799152
7.96333,278.101,-0.799176
7.965,278.118,-0.799195
7.96667,278.134,-0.799208
7.96833,278.151,-0.799223
7.97,278.168,-0.79923
7.97167,278.184,-0.79923
7.97333,278.201,-0.799232
7.975,278.217,-0.799237
7.97667,278.234,-0.799243
7.97833,278.251,-0.799248
7.98,278.267,-0.799258
7.98167,278.284,-0.799274
7.98333,278.3,-0.799285
7.985,278.317,-0.799296
7.98667,278.334,-0.79931
7.98833,278.35,-0.799327
7.99,278.367,-0.799347
7.99167,278.384,-0.799378
7.99333,278.4,-0.799423
7.995,278.417,-0.799468
7.99667,278.434,-0.799501
7.99833,278.45,-0.799544
8,278.467,-0.79959
8.00167,278.484,-0.799625
8.00333,278.5,-0.799652
8.005,278.517,-0.799674
8.00667,278.534,-0.799696
8.00833,278.55,-0.799716
8.01,278.567,-0.799733
8.01167,278.583,-0.799754
8.01333,278.6,-0.79978
8.015,278.617,-0.799805
8.01667,278.633,-0.799834
8.01833,278.65,-0.799863
8.02,278.667,-0.799906
8.02167,278.683,-0.799947
8.02333,278.7,-0.799983
8.025,278.717,-0.800007
8.02667,278.733,-0.800032
8.02833,278.75,-0.800055
8.03,278.767,-0.80007
8.03167,278.783,-0.800095
8.03333,278.8,-0.800116
8.035,278.817,-0.80014
8.03667,278.833,-0.800156
8.03833,278.85,-0.800175
8.04,278.866,-0.800187
8.04167,278.883,-0.800196
8.04333,278.9,-0.800207
8.045,278.916,-0.800211
8.04667,278.933,-0.800221
8.04833,278.949,-0.800237
8.05,278.967,-0.800261
8.05167,278.983,-0.800287
8.05333,279,-0.80032
8.055,279.017,-0.800352
8.05667,279.033,-0.800385
8.05833,279.05,-0.800418
8.06,279.066,-0.800441
8.06167,279.083,-0.800466
8.06333,279.1,-0.800488
8.065,279.116,-0.800519
8.06667,279.133,-0.800551
8.06833,279.15,-0.800591
8.07,279.166,-0.800626
8.07167,279.183,-0.800663
8.07333,279.199,-0.800706
8.075,279.216,-0.800746
8.07667,279.233,-0.80078
8.07833,279.249,-0.800821
8.08,279.266,-0.800864
8.08167,279.283,-0.800906
8.08333,279.299,-0.800951
8.085,279.317,-0.801003
8.08667,279.333,-0.801064
8.08833,279.35,-0.801115
8.09,279.367,-0.801156
8.09167,279.383,-0.801197
8.09333,279.4,-0.801228
8.095,279.416,-0.801248
8.09667,279.433,-0.801265
8.09833,279.45,-0.801278
8.1,279.466,-0.80129
8.10167,279.483,-0.801303
8.10333,279.5,-0.801315
8.105,279.516,-0.801338
8.10667,279.533,-0.801358
8.10833,279.55,-0.80138
8.11,279.566,-0.801406
8.11167,279.583,-0.801433
8.11333,279.6,-0.801454
8.115,279.616,-0.801475
8.11667,279.633,-0.801491
8.11833,279.65,-0.801507
8.12,279.666,-0.801534
8.12167,279.683,-0.80156
8.12333,279.699,-0.801589
8.125,279.716,-0.801621
8.12667,279.732,-0.801652
8.12833,279.749,-0.801691
8.13,279.766,-0.801739
8.13167,279.782,-0.801789
8.13333,279.799,-0.801836
8.135,279.816,-0.801875
8.13667,279.833,-0.80191
8.13833,279.849,-0.801941
8.14,279.866,-0.801964
8.14167,279.882,-0.801981
8.14333,279.899,-0.801998
8.145,279.916,-0.802013
8.14667,279.932,-0.802029
8.14833,279.949,-0.802047
8.15,279.966,-0.802066
8.15167,279.982,-0.802075
8.15333,279.999,-0.802079
8.155,280.016,-0.802075
8.15667,280.033,-0.802076
8.15833,280.049,-0.802079
8.16,280.066,-0.802088
8.16167,280.083,-0.802111
8.16333,280.099,-0.80214
8.165,280.116,-0.802175
8.16667,280.132,-0.802208
8.16833,280.149,-0.802253
8.17,280.166,-0.802291
8.17167,280.182,-0.80232
8.17333,280.199,-0.802346
8.175,280.215,-0.80237
8.17667,280.232,-0.80239
8.17833,280.249,-0.802408
8.18,280.265,-0.802437
8.18167,280.282,-0.802467
8.18333,280.299,-0.8025
8.185,280.315,-0.802532
8.18667,280.332,-0.802568
8.18833,280.349,-0.802595
8.19,280.365,-0.802614
8.19167,280.382,-0.802634
8.19333,280.399,-0.802654
8.195,280.415,-0.802676
8.19667,280.432,-0.802693
8.19833,280.449,-0.802708
8.2,280.465,-0.802718
8.20167,280.482,-0.802721
8.20333,280.499,-0.802728
8.205,280.515,-0.802742
8.20667,280.532,-0.802758
8.20833,280.548,-0.802767
8.21,280.565,-0.802772
8.21167,280.582,-0.802771
8.21333,280.599,-0.802777
8.215,280.615,-0.802792
8.21667,280.632,-0.802817
8.21833,280.649,-0.802851
8.22,280.665,-0.80289
8.22167,280.682,-0.802937
8.22333,280.699,-0.802989
8.225,280.715,-0.803043
8.22667,280.732,-0.80309
8.22833,280.748,-0.803134
8.23,280.766,-0.803172
8.23167,280.782,-0.803209
8.23333,280.799,-0.803246
8.235,280.815,-0.803271
8.23667,280.832,-0.803292
8.23833,280.848,-0.803315
8.24,280.865,-0.803338
8.24167,280.882,-0.803364
8.24333,280.898,-0.803385
8.245,280.915,-0.803409
8.24667,280.932,-0.803427
8.24833,280.948,-0.803444
8.25,280.965,-0.803465
8.25167,280.982,-0.803489
8.25333,280.999,-0.803518
8.255,281.015,-0.803549
8.25667,281.032,-0.803569
8.25833,281.049,-0.803585
8.26,281.065,-0.803603
8.26167,281.082,-0.803623
8.26333,281.098,-0.803652
8.265,281.115,-0.803683
8.26667,281.132,-0.803722
8.26833,281.148,-0.803765
8.27,281.165,-0.803813
8.27167,281.182,-0.803857
8.27333,281.199,-0.803904
8.275,281.215,-0.803945
8.27667,281.232,-0.803977
8.27833,281.248,-0.804001
8.28,281.265,-0.80402
8.28167,281.282,-0.804031
8.28333,281.299,-0.804035
8.285,281.315,-0.804044
8.28667,281.332,-0.804059
8.28833,281.348,-0.804076
8.29,281.365,-0.804088
8.29167,281.381,-0.804099
8.29333,281.398,-0.804113
8.295,281.415,-0.804135
8.29667,281.431,-0.804153
8.29833,281.448,-0.804177
8.3,281.465,-0.8042
8.30167,281.481,-0.804218
8.30333,281.498,-0.804231
8.305,281.515,-0.804246
8.30667,281.531,-0.804267
8.30833,281.548,-0.804286
8.31,281.564,-0.804309
8.31167,281.581,-0.804341
8.31333,281.598,-0.804375
8.315,281.615,-0.804417
8.31667,281.631,-0.804468
8.31833,281.648,-0.804521
8.32,281.665,-0.804575
8.32167,281.681,-0.804632
8.32333,281.698,-0.80468
8.325,281.715,-0.804716
8.32667,281.731,-0.804743
8.32833,281.748,-0.804771
8.33,281.765,-0.804801
8.33167,281.781,-0.804832
8.33333,281.798,-0.804861
8.335,281.815,-0.804887
8.33667,281.832,-0.804916
8.33833,281.848,-0.804946
8.34,281.865,-0.804977
8.34167,281.882,-0.805021
8.34333,281.899,-0.805068
8.345,281.915,-0.805115
8.34667,281.932,-0.805168
8.34833,281.948,-0.805217
8.35,281.965,-0.805263
8.35167,281.981,-0.8053
8.35333,281.998,-0.805332
8.355,282.015,-0.805363
8.35667,282.031,-0.805386
8.35833,282.048,-0.805408
8.36,282.065,-0.805432
8.36167,282.081,-0.805452
8.36333,282.098,-0.805475
8.365,282.114,-0.8055
8.36667,282.131,-0.805536
8.36833,282.148,-0.805577
8.37,282.164,-0.805628
8.37167,282.181,-0.80568
8.37333,282.198,-0.805729
8.375,282.215,-0.805784
8.37667,282.231,-0.80584
8.37833,282.248,-0.805888
8.38,282.264,-0.805913
8.38167,282.281,-0.805928
8.38333,282.298,-0.805944
8.385,282.315,-0.805955
8.38667,282.331,-0.805965
8.38833,282.348,-0.805968
8.39,282.365,-0.805969
8.39167,282.382,-0.805973
8.39333,282.398,-0.805978
8.395,282.415,-0.805988
8.39667,282.431,-0.806008
8.39833,282.448,-0.806026
8.4,282.465,-0.806044
8.40167,282.481,-0.80607
8.40333,282.498,-0.806108
8.405,282.514,-0.806148
8.40667,282.531,-0.80619
8.40833,282.548,-0.806233
8.41,282.564,-0.806269
8.41167,282.581,-0.806294
8.41333,282.597,-0.806312
8.415,282.614,-0.806336
8.41667,282.631,-0.806354
8.41833,282.647,-0.806363
8.42,282.664,-0.806384
8.42167,282.681,-0.806411
8.42333,282.697,-0.806446
8.425,282.714,-0.806492
8.42667,282.731,-0.806544
8.42833,282.748,-0.806598
8.43,282.764,-0.806649
8.43167,282.781,-0.806694
8.43333,282.798,-0.806743
8.435,282.814,-0.806783
8.43667,282.831,-0.806808
8.43833,282.848,-0.806828
8.44,282.864,-0.806845
8.44167,282.881,-0.806861
8.44333,282.898,-0.806877
8.445,282.914,-0.806893
8.44667,282.931,-0.806906
8.44833,282.948,-0.806921
8.45,282.964,-0.806945
8.45167,282.98,-0.806977
8.45333,282.997,-0.807006
8.455,283.014,-0.807035
8.45667,283.03,-0.807071
8.45833,283.047,-0.807114
8.46,283.064,-0.807149
8.46167,283.081,-0.80718
8.46333,283.097,-0.807217
8.465,283.115,-0.807254
8.46667,283.131,-0.807283
8.46833,283.147,-0.807319
8.47,283.164,-0.807349
8.47167,283.181,-0.807381
8.47333,283.198,-0.80741
8.475,283.214,-0.807441
8.47667,283.231,-0.807473
8.47833,283.247,-0.807506
8.48,283.264,-0.807545
8.48167,283.281,-0.807593
8.48333,283.297,-0.807639
8.485,283.314,-0.807686
8.48667,283.331,-0.807732
8.48833,283.348,-0.807771
8.49,283.364,-0.80781
8.49167,283.381,-0.807841
8.49333,283.397,-0.807862
8.495,283.414,-0.807872
8.49667,283.431,-0.807881
8.49833,283.447,-0.807892
8.5,283.464,-0.807906
8.50167,283.481,-0.807921
8.50333,283.497,-0.807939
8.505,283.514,-0.80796
8.50667,283.531,-0.807988
8.50833,283.547,-0.808012
8.51,283.564,-0.808039
8.51167,283.58,-0.808071
8.51333,283.597,-0.808102
8.515,283.614,-0.808133
8.51667,283.63,-0.808158
8.51833,283.647,-0.808192
8.52,283.664,-0.808235
8.52167,283.68,-0.808274
8.52333,283.697,-0.80831
8.525,283.714,-0.808353
8.52667,283.731,-0.808393
8.52833,283.747,-0.808429
8.53,283.764,-0.808469
8.53167,283.781,-0.808506
8.53333,283.797,-0.808537
8.535,283.814,-0.808574
8.53667,283.831,-0.808603
8.53833,283.847,-0.808625
8.54,283.864,-0.808645
8.54167,283.88,-0.808663
8.54333,283.897,-0.808682
8.545,283.914,-0.808704
8.54667,283.93,-0.808731
8.54833,283.947,-0.808752
8.55,283.963,-0.808778
8.55167,283.98,-0.808816
8.55333,283.997,-0.808849
8.555,284.014,-0.808881
8.55667,284.03,-0.808906
8.55833,284.047,-0.808926
8.56,284.063,-0.808939
8.56167,284.08,-0.808942
8.56333,284.097,-0.808943
8.565,284.114,-0.80895
8.56667,284.13,-0.808958
8.56833,284.147,-0.808967
8.57,284.163,-0.808986
8.57167,284.18,-0.809004
8.57333,284.197,-0.809026
8.575,284.213,-0.809055
8.57667,284.23,-0.809084
8.57833,284.246,-0.809108
8.58,284.263,-0.809133
8.58167,284.28,-0.809155
8.58333,284.296,-0.809176
8.585,284.313,-0.809202
8.58667,284.329,-0.809227
8.58833,284.346,-0.809246
8.59,284.363,-0.809266
8.59167,284.38,-0.809286
8.59333,284.396,-0.809301
8.595,284.413,-0.809315
8.59667,284.43,-0.809329
8.59833,284.446,-0.809353
8.6,284.463,-0.80938
8.60167,284.48,-0.809413
8.60333,284.496,-0.809451
8.605,284.513,-0.809495
8.60667,284.529,-0.809536
8.60833,284.546,-0.809583
8.61,284.562,-0.809632
8.61167,284.579,-0.809684
8.61333,284.596,-0.809731
8.615,284.613,-0.809782
8.61667,284.629,-0.809834
8.61833,284.646,-0.809876
8.62,284.663,-0.809908
8.62167,284.679,-0.80993
8.62333,284.696,-0.809941
8.625,284.713,-0.809947
8.62667,284.729,-0.809963
8.62833,284.746,-0.809987
8.63,284.763,-0.810005
8.63167,284.779,-0.810032
8.63333,284.796,-0.810071
8.635,284.813,-0.810111
8.63667,284.83,-0.810155
8.63833,284.846,-0.8102
8.64,284.863,-0.810242
8.64167,284.879,-0.810284
8.64333,284.896,-0.810327
8.645,284.913,-0.810362
8.64667,284.929,-0.810398
8.64833,284.946,-0.810434
8.65,284.962,-0.810465
8.65167,284.979,-0.810485
8.65333,284.996,-0.810501
8.655,285.013,-0.81052
8.65667,285.03,-0.810538
8.65833,285.046,-0.810564
8.66,285.063,-0.810594
8.66167,285.079,-0.810626
8.66333,285.096,-0.810662
8.665,285.112,-0.810696
8.66667,285.13,-0.810732
8.66833,285.146,-0.810761
8.67,285.162,-0.810798
8.67167,285.18,-0.810834
8.67333,285.196,-0.81088
8.675,285.212,-0.81092
8.67667,285.23,-0.810956
8.67833,285.246,-0.81099
8.68,285.263,-0.811024
8.68167,285.28,-0.811065
8.68333,285.296,-0.811104
8.685,285.313,-0.811147
8.68667,285.33,-0.811189
8.68833,285.346,-0.81124
8.69,285.363,-0.811286
8.69167,285.379,-0.811332
8.69333,285.396,-0.811373
8.695,285.412,-0.811401
8.69667,285.429,-0.811425
8.69833,285.446,-0.81144
8.7,285.463,-0.811446
8.70167,285.479,-0.811443
8.70333,285.496,-0.811443
8.705,285.513,-0.811451
8.70667,285.529,-0.811468
8.70833,285.546,-0.811495
8.71,285.562,-0.811533
8.71167,285.579,-0.811591
8.71333,285.595,-0.811676
8.715,285.612,-0.81179
8.71667,285.629,-0.811904
8.71833,285.646,-0.812026
8.72,285.663,-0.812116
8.72167,285.679,-0.812173
8.72333,285.696,-0.812223
8.725,285.713,-0.812267
8.72667,285.73,-0.812314
8.72833,285.746,-0.812351
8.73,285.763,-0.812384
8.73167,285.779,-0.812421
8.73333,285.795,-0.812458
8.735,285.812,-0.812497
8.73667,285.829,-0.81253
8.73833,285.845,-0.812558
8.74,285.862,-0.812584
8.74167,285.879,-0.812608
8.74333,285.896,-0.812642
8.745,285.913,-0.812676
8.74667,285.929,-0.812695
8.74833,285.946,-0.812719
8.75,285.962,-0.812741
8.75167,285.979,-0.812768
8.75333,285.995,-0.8128
8.755,286.012,-0.812836
8.75667,286.029,-0.812863
8.75833,286.045,-0.812889
8.76,286.062,-0.812908
8.76167,286.079,-0.812924
8.76333,286.096,-0.81294
8.765,286.112,-0.81295
8.76667,286.129,-0.812966
8.76833,286.145,-0.812989
8.77,286.162,-0.813017
8.77167,286.179,-0.813055
8.77333,286.196,-0.813098
8.775,286.212,-0.813143
8.77667,286.229,-0.813188
8.77833,286.246,-0.813238
8.78,286.262,-0.813283
8.78167,286.279,-0.81333
8.78333,286.295,-0.813378
8.785,286.312,-0.813422
8.78667,286.329,-0.813466
8.78833,286.345,-0.813508
8.79,286.362,-0.813553
8.79167,286.378,-0.813593
8.79333,286.395,-0.813639
8.795,286.412,-0.813685
8.79667,286.428,-0.813733
8.79833,286.446,-0.813775
8.8,286.462,-0.813822
8.80167,286.479,-0.813865
8.80333,286.495,-0.813901
8.805,286.512,-0.813935
8.80667,286.529,-0.813968
8.80833,286.546,-0.814003
8.81,286.562,-0.814034
8.81167,286.578,-0.814061
8.81333,286.595,-0.814092
8.815,286.612,-0.814121
8.81667,286.629,-0.814156
8.81833,286.645,-0.814203
8.82,286.662,-0.814254
8.82167,286.679,-0.814304
8.82333,286.695,-0.814356
8.825,286.712,-0.814412
8.82667,286.729,-0.814468
8.82833,286.745,-0.814528
8.83,286.762,-0.814586
8.83167,286.778,-0.814638
8.83333,286.795,-0.814681
8.835,286.811,-0.814713
8.83667,286.828,-0.814745
8.83833,286.844,-0.81477
8.84,286.861,-0.814793
8.84167,286.878,-0.814816
8.84333,286.895,-0.814843
8.845,286.912,-0.814866
8.84667,286.928,-0.814893
8.84833,286.945,-0.81493
8.85,286.962,-0.814968
8.85167,286.978,-0.815006
8.85333,286.995,-0.815053
8.855,287.012,-0.815108
8.85667,287.028,-0.815158
8.85833,287.045,-0.815205
8.86,287.061,-0.815243
8.86167,287.078,-0.815278
8.86333,287.095,-0.815309
8.865,287.111,-0.815334
8.86667,287.128,-0.815343
8.86833,287.145,-0.815342
8.87,287.161,-0.81534
8.87167,287.178,-0.815336
8.87333,287.195,-0.815335
8.875,287.212,-0.815343
8.87667,287.228,-0.815366
8.87833,287.245,-0.815394
8.88,287.261,-0.81543
8.88167,287.278,-0.815482
8.88333,287.295,-0.815537
8.885,287.311,-0.815596
8.88667,287.328,-0.815647
8.88833,287.345,-0.815696
8.89,287.361,-0.815754
8.89167,287.378,-0.815812
8.89333,287.395,-0.815871
8.895,287.411,-0.815924
8.89667,287.428,-0.815975
8.89833,287.444,-0.816027
8.9,287.461,-0.816078
8.90167,287.478,-0.816128
8.90333,287.495,-0.816172
8.905,287.511,-0.816213
8.90667,287.528,-0.816246
8.90833,287.544,-0.816278
8.91,287.561,-0.816318
8.91167,287.578,-0.816365
8.91333,287.594,-0.816416
8.915,287.611,-0.816465
8.91667,287.628,-0.816508
8.91833,287.645,-0.816548
8.92,287.661,-0.816583
8.92167,287.678,-0.816608
8.92333,287.695,-0.81663
8.925,287.711,-0.816645
8.92667,287.727,-0.816667
8.92833,287.744,-0.816688
8.93,287.761,-0.816718
8.93167,287.777,-0.816756
8.93333,287.794,-0.816798
8.935,287.811,-0.816846
8.93667,287.827,-0.816905
8.93833,287.844,-0.816959
8.94,287.861,-0.817005
8.94167,287.878,-0.817044
8.94333,287.894,-0.817084
8.945,287.911,-0.817119
8.94667,287.928,-0.817154
8.94833,287.944,-0.817192
8.95,287.961,-0.817231
8.95167,287.978,-0.817276
8.95333,287.994,-0.817322
8.955,288.011,-0.817373
8.95667,288.028,-0.817421
8.95833,288.044,-0.817465
8.96,288.061,-0.817506
8.96167,288.077,-0.81754
8.96333,288.094,-0.817567
8.965,288.111,-0.817596
8.96667,288.127,-0.817624
8.96833,288.144,-0.817656
8.97,288.16,-0.817687
8.97167,288.177,-0.817723
8.97333,288.194,-0.817769
8.975,288.21,-0.81782
8.97667,288.227,-0.817881
8.97833,288.243,-0.817946
8.98,288.26,-0.818035
8.98167,288.277,-0.81812
8.98333,288.293,-0.818186
8.985,288.31,-0.818253
8.98667,288.326,-0.818312
8.98833,288.343,-0.818363
8.99,288.36,-0.818403
8.99167,288.376,-0.818437
8.99333,288.393,-0.818473
8.995,288.41,-0.818522
8.99667,288.427,-0.818571
8.99833,288.443,-0.818624
9,288.46,-0.818685
9.00167,288.477,-0.818749
9.00333,288.493,-0.818811
9.005,288.51,-0.818875
9.00667,288.527,-0.818935
9.00833,288.543,-0.818993
9.01,288.56,-0.819048
9.01167,288.576,-0.819108
9.01333,288.593,-0.819174
9.015,288.61,-0.819236
9.01667,288.627,-0.819293
9.01833,288.643,-0.81935
9.02,288.66,-0.819406
9.02167,288.677,-0.819455
9.02333,288.693,-0.819495
9.025,288.71,-0.819523
9.02667,288.727,-0.819543
9.02833,288.744,-0.819562
9.03,288.76,-0.819585
9.03167,288.777,-0.819614
9.03333,288.794,-0.819638
9.035,288.81,-0.819663
9.03667,288.827,-0.819698
9.03833,288.844,-0.819734
9.04,288.86,-0.819766
9.04167,288.877,-0.819797
9.04333,288.893,-0.819826
9.045,288.91,-0.81986
9.04667,288.927,-0.819893
9.04833,288.943,-0.819915
9.05,288.96,-0.819942
9.05167,288.976,-0.819969
9.05333,288.993,-0.820001
9.055,289.01,-0.820036
9.05667,289.026,-0.820072
9.05833,289.043,-0.820116
9.06,289.06,-0.820161
9.06167,289.076,-0.820212
9.06333,289.093,-0.820266
9.065,289.11,-0.820328
9.06667,289.126,-0.820389
9.06833,289.143,-0.82045
9.07,289.16,-0.820517
9.07167,289.176,-0.820606
9.07333,289.193,-0.820678
9.075,289.21,-0.820749
9.07667,289.227,-0.820822
9.07833,289.243,-0.820911
9.08,289.26,-0.820987
9.08167,289.276,-0.821056
9.08333,289.293,-0.821121
9.085,289.31,-0.821187
9.08667,289.326,-0.821241
9.08833,289.343,-0.821299
9.09,289.36,-0.821358
9.09167,289.376,-0.821414
9.09333,289.393,-0.821471
9.095,289.41,-0.821519
9.09667,289.427,-0.821563
9.09833,289.443,-0.821607
9.1,289.459,-0.821652
9.10167,289.476,-0.821696
9.10333,289.493,-0.821748
9.105,289.509,-0.821797
9.10667,289.526,-0.821853
9.10833,289.543,-0.82192
9.11,289.56,-0.821989
9.11167,289.577,-0.822052
9.11333,289.593,-0.822105
9.115,289.61,-0.822152
9.11667,289.626,-0.822206
9.11833,289.643,-0.822256
9.12,289.659,-0.822304
9.12167,289.676,-0.822347
9.12333,289.693,-0.822399
9.125,289.71,-0.82244
9.12667,289.726,-0.822478
9.12833,289.743,-0.822517
9.13,289.759,-0.822554
9.13167,289.776,-0.822597
9.13333,289.793,-0.822646
9.135,289.809,-0.822703
9.13667,289.826,-0.822764
9.13833,289.843,-0.822838
9.14,289.859,-0.822946
9.14167,289.876,-0.823075
9.14333,289.893,-0.823155
9.145,289.909,-0.823235
9.14667,289.926,-0.823308
9.14833,289.943,-0.823364
9.15,289.959,-0.823427
9.15167,289.976,-0.82348
9.15333,289.992,-0.823529
9.155,290.009,-0.823575
9.15667,290.026,-0.823628
9.15833,290.043,-0.823693
9.16,290.059,-0.823763
9.16167,290.076,-0.823829
9.16333,290.092,-0.823893
9.165,290.109,-0.823955
9.16667,290.126,-0.824022
9.16833,290.142,-0.824088
9.17,290.159,-0.824148
9.17167,290.176,-0.824204
9.17333,290.192,-0.824258
9.175,290.209,-0.824308
9.17667,290.226,-0.824357
9.17833,290.242,-0.824413
9.18,290.259,-0.824463
9.18167,290.276,-0.824506
9.18333,290.292,-0.824547
9.185,290.309,-0.824587
9.18667,290.326,-0.824636
9.18833,290.342,-0.824691
9.19,290.359,-0.824748
9.19167,290.375,-0.824806
9.19333,290.392,-0.824862
9.195,290.409,-0.824928
9.19667,290.426,-0.825003
9.19833,290.442,-0.82508
9.2,290.459,-0.825156
9.20167,290.476,-0.825229
9.20333,290.492,-0.82529
9.205,290.509,-0.825349
9.20667,290.525,-0.825402
9.20833,290.542,-0.825454
9.21,290.559,-0.825498
9.21167,290.575,-0.825538
9.21333,290.592,-0.82558
9.215,290.609,-0.82563
9.21667,290.625,-0.825678
9.21833,290.642,-0.825726
9.22,290.659,-0.825776
9.22167,290.676,-0.825826
9.22333,290.692,-0.82588
9.225,290.709,-0.825934
9.22667,290.725,-0.825997
9.22833,290.742,-0.82606
9.23,290.758,-0.826118
9.23167,290.775,-0.826173
9.23333,290.792,-0.82623
9.235,290.809,-0.826286
9.23667,290.825,-0.826332
9.23833,290.842,-0.826359
9.24,290.859,-0.826389
9.24167,290.875,-0.826426
9.24333,290.892,-0.826465
9.245,290.908,-0.826507
9.24667,290.925,-0.826556
9.24833,290.941,-0.826614
9.25,290.958,-0.826687
9.25167,290.975,-0.826786
9.25333,290.992,-0.826989
9.255,291.008,-0.827119
9.25667,291.025,-0.827212
9.25833,291.042,-0.82729
9.26,291.058,-0.827363
9.26167,291.075,-0.827425
9.26333,291.092,-0.827478
9.265,291.108,-0.827529
9.26667,291.125,-0.827582
9.26833,291.142,-0.827629
9.27,291.159,-0.827673
9.27167,291.175,-0.827718
9.27333,291.192,-0.827762
9.275,291.209,-0.827805
9.27667,291.225,-0.827842
9.27833,291.242,-0.827883
9.28,291.258,-0.82793
9.28167,291.275,-0.827986
9.28333,291.292,-0.828043
9.285,291.309,-0.82811
9.28667,291.325,-0.828175
9.28833,291.341,-0.82824
9.29,291.358,-0.828301
9.29167,291.375,-0.828358
9.29333,291.391,-0.828408
9.295,291.408,-0.82845
9.29667,291.424,-0.82849
9.29833,291.441,-0.828538
9.3,291.458,-0.828584
9.30167,291.475,-0.828627
9.30333,291.491,-0.828664
9.305,291.508,-0.828701
9.30667,291.525,-0.828743
9.30833,291.542,-0.828782
9.31,291.558,-0.828824
9.31167,291.575,-0.828882
9.31333,291.592,-0.828942
9.315,291.608,-0.829007
9.31667,291.625,-0.829073
9.31833,291.641,-0.829143
9.32,291.658,-0.829214
9.32167,291.675,-0.829286
9.32333,291.691,-0.829349
9.325,291.708,-0.829411
9.32667,291.724,-0.829473
9.32833,291.741,-0.829532
9.33,291.758,-0.829591
9.33167,291.774,-0.829661
9.33333,291.791,-0.829732
9.335,291.808,-0.829791
9.33667,291.825,-0.82985
9.33833,291.841,-0.829908
9.34,291.858,-0.829965
9.34167,291.875,-0.830023
9.34333,291.891,-0.830077
9.345,291.908,-0.830133
9.34667,291.924,-0.830198
9.34833,291.941,-0.830255
9.35,291.958,-0.830311
9.35167,291.974,-0.830371
9.35333,291.991,-0.830435
9.355,292.008,-0.830497
9.35667,292.024,-0.830559
9.35833,292.04,-0.830621
9.36,292.058,-0.830686
9.36167,292.074,-0.83074
9.36333,292.091,-0.830788
9.365,292.108,-0.830843
9.36667,292.124,-0.83089
9.36833,292.141,-0.830938
9.37,292.158,-0.830988
9.37167,292.174,-0.83104
9.37333,292.191,-0.831093
9.375,292.207,-0.831143
9.37667,292.224,-0.831191
9.37833,292.241,-0.831235
9.38,292.257,-0.831271
9.38167,292.274,-0.831311
9.38333,292.291,-0.831353
9.385,292.307,-0.831396
9.38667,292.324,-0.831443
9.38833,292.341,-0.8315
9.39,292.358,-0.831564
9.39167,292.374,-0.831635
9.39333,292.391,-0.83171
9.395,292.408,-0.831784
9.39667,292.425,-0.831857
9.39833,292.441,-0.831924
9.4,292.458,-0.831979
9.40167,292.474,-0.83202
9.40333,292.491,-0.832058
9.405,292.507,-0.832093
9.40667,292.524,-0.832132
9.40833,292.541,-0.832176
9.41,292.557,-0.832215
9.41167,292.574,-0.832263
9.41333,292.591,-0.83232
9.415,292.607,-0.832381
9.41667,292.624,-0.832446
9.41833,292.641,-0.832509
9.42,292.657,-0.832571
9.42167,292.674,-0.832632
9.42333,292.69,-0.832697
9.425,292.707,-0.832767
9.42667,292.723,-0.832837
9.42833,292.74,-0.832904
9.43,292.757,-0.832965
9.43167,292.773,-0.833031
9.43333,292.79,-0.833105
9.435,292.807,-0.833186
9.43667,292.824,-0.833265
9.43833,292.84,-0.83334
9.44,292.857,-0.833415
9.44167,292.874,-0.833478
9.44333,292.89,-0.833535
9.445,292.907,-0.83359
9.44667,292.924,-0.833639
9.44833,292.94,-0.833686
9.45,292.957,-0.833721
9.45167,292.974,-0.833746
9.45333,292.99,-0.833767
9.455,293.007,-0.833793
9.45667,293.023,-0.833817
9.45833,293.04,-0.833844
9.46,293.057,-0.833866
9.46167,293.073,-0.833899
9.46333,293.09,-0.833948
9.465,293.106,-0.834013
9.46667,293.123,-0.834086
9.46833,293.14,-0.83416
9.47,293.156,-0.834246
9.47167,293.173,-0.834316
9.47333,293.19,-0.834387
9.475,293.206,-0.834458
9.47667,293.223,-0.834523
9.47833,293.24,-0.834571
9.48,293.257,-0.834613
9.48167,293.273,-0.834655
9.48333,293.29,-0.8347
9.485,293.307,-0.834746
9.48667,293.323,-0.834782
9.48833,293.34,-0.834813
9.49,293.356,-0.834852
9.49167,293.373,-0.834886
9.49333,293.39,-0.834923
9.495,293.407,-0.834961
9.49667,293.423,-0.835002
9.49833,293.44,-0.835046
9.5,293.456,-0.835093
9.50167,293.473,-0.83513
9.50333,293.489,-0.835173
9.505,293.506,-0.835218
9.50667,293.522,-0.835269
9.50833,293.539,-0.835325
9.51,293.556,-0.835387
9.51167,293.573,-0.835446
9.51333,293.589,-0.835497
9.515,293.606,-0.835552
9.51667,293.623,-0.835611
9.51833,293.64,-0.835673
9.52,293.656,-0.835726
9.52167,293.673,-0.835776
9.52333,293.689,-0.835828
9.525,293.706,-0.835883
9.52667,293.723,-0.835935
9.52833,293.74,-0.835991
9.53,293.756,-0.836047
9.53167,293.773,-0.8361
9.53333,293.789,-0.83615
9.535,293.806,-0.836209
9.53667,293.823,-0.836269
9.53833,293.839,-0.836326
9.54,293.856,-0.836382
9.54167,293.873,-0.836437
9.54333,293.889,-0.836497
9.545,293.906,-0.836553
9.54667,293.922,-0.836602
9.54833,293.939,-0.83665
9.55,293.956,-0.836694
9.55167,293.973,-0.836737
9.55333,293.989,-0.836774
9.555,294.006,-0.836815
9.55667,294.022,-0.836849
9.55833,294.039,-0.836888
9.56,294.056,-0.836935
9.56167,294.072,-0.836988
9.56333,294.089,-0.837042
9.565,294.105,-0.837093
9.56667,294.122,-0.837138
9.56833,294.139,-0.837184
9.57,294.155,-0.837227
9.57167,294.172,-0.837261
9.57333,294.189,-0.837293
9.575,294.206,-0.837323
9.57667,294.222,-0.837371
9.57833,294.239,-0.837426
9.58,294.256,-0.837482
9.58167,294.272,-0.83754
9.58333,294.289,-0.837603
9.585,294.306,-0.837662
9.58667,294.323,-0.837722
9.58833,294.339,-0.837781
9.59,294.356,-0.837831
9.59167,294.373,-0.837879
9.59333,294.389,-0.837929
9.595,294.405,-0.837983
9.59667,294.422,-0.838042
9.59833,294.439,-0.838102
9.6,294.455,-0.838162
9.60167,294.472,-0.83822
9.60333,294.489,-0.838279
9.605,294.505,-0.838336
9.60667,294.522,-0.838398
9.60833,294.539,-0.838457
9.61,294.555,-0.838512
9.61167,294.572,-0.838564
9.61333,294.589,-0.838607
9.615,294.606,-0.83865
9.61667,294.622,-0.838699
9.61833,294.638,-0.838746
9.62,294.655,-0.838799
9.62167,294.672,-0.838849
9.62333,294.689,-0.838905
9.625,294.706,-0.838965
9.62667,294.722,-0.839019
9.62833,294.739,-0.839076
9.63,294.756,-0.839141
9.63167,294.773,-0.839202
9.63333,294.789,-0.839263
9.635,294.806,-0.83932
9.63667,294.823,-0.839371
9.63833,294.839,-0.839414
9.64,294.856,-0.839465
9.64167,294.872,-0.83952
9.64333,294.889,-0.839578
9.645,294.906,-0.839634
9.64667,294.922,-0.8397
9.64833,294.939,-0.839765
9.65,294.956,-0.83983
9.65167,294.972,-0.839886
9.65333,294.989,-0.839933
9.655,295.006,-0.839971
9.65667,295.022,-0.839993
9.65833,295.039,-0.840011
9.66,295.055,-0.840029
9.66167,295.072,-0.840057
9.66333,295.09,-0.840081
9.665,295.106,-0.840108
9.66667,295.122,-0.840143
9.66833,295.139,-0.840181
9.67,295.155,-0.84023
9.67167,295.172,-0.840286
9.67333,295.189,-0.840348
9.675,295.206,-0.840412
9.67667,295.222,-0.840469
9.67833,295.238,-0.840535
9.68,295.255,-0.840601
9.68167,295.272,-0.840668
9.68333,295.289,-0.840721
9.685,295.305,-0.840767
9.68667,295.322,-0.840809
9.68833,295.339,-0.840852
9.69,295.355,-0.840901
9.69167,295.372,-0.840945
9.69333,295.389,-0.840983
9.695,295.405,-0.841022
9.69667,295.422,-0.841066
9.69833,295.439,-0.84111
9.7,295.456,-0.84116
9.70167,295.472,-0.841229
9.70333,295.489,-0.841296
9.705,295.505,-0.841364
9.70667,295.522,-0.841422
9.70833,295.538,-0.841477
9.71,295.555,-0.841535
9.71167,295.572,-0.841583
9.71333,295.589,-0.841621
9.715,295.605,-0.841658
9.71667,295.622,-0.841689
9.71833,295.639,-0.84172
9.72,295.655,-0.841754
9.72167,295.672,-0.841789
9.72333,295.689,-0.84182
9.725,295.705,-0.841844
9.72667,295.722,-0.841864
9.72833,295.738,-0.841885
9.73,295.755,-0.841907
9.73167,295.772,-0.84193
9.73333,295.788,-0.841954
9.735,295.805,-0.841976
9.73667,295.822,-0.842008
9.73833,295.838,-0.842046
9.74,295.855,-0.842086
9.74167,295.872,-0.842133
9.74333,295.888,-0.842179
9.745,295.905,-0.842218
9.74667,295.921,-0.842268
9.74833,295.938,-0.842315
9.75,295.955,-0.842362
9.75167,295.971,-0.842405
9.75333,295.988,-0.842447
9.755,296.005,-0.842496
9.75667,296.021,-0.842537
9.75833,296.038,-0.842581
9.76,296.055,-0.842642
9.76167,296.071,-0.842709
9.76333,296.088,-0.842771
9.765,296.105,-0.842833
9.76667,296.121,-0.842891
9.76833,296.138,-0.842944
9.77,296.154,-0.842993
9.77167,296.171,-0.843028
9.77333,296.188,-0.843061
9.775,296.204,-0.843087
9.77667,296.221,-0.843112
9.77833,296.238,-0.843138
9.78,296.254,-0.843178
9.78167,296.271,-0.843217
9.78333,296.288,-0.84325
9.785,296.305,-0.843295
9.78667,296.321,-0.84335
9.78833,296.338,-0.843416
9.79,296.354,-0.84348
9.79167,296.371,-0.843542
9.79333,296.388,-0.8436
9.795,296.405,-0.843653
9.79667,296.421,-0.843703
9.79833,296.438,-0.843757
9.8,296.455,-0.843809
9.80167,296.471,-0.843863
9.80333,296.488,-0.843927
9.805,296.505,-0.84399
9.80667,296.521,-0.844053
9.80833,296.538,-0.844121
9.81,296.555,-0.844189
9.81167,296.571,-0.844257
9.81333,296.588,-0.844314
9.815,296.604,-0.844368
9.81667,296.621,-0.844424
9.81833,296.638,-0.844477
9.82,296.654,-0.844519
9.82167,296.671,-0.844558
9.82333,296.688,-0.844598
9.825,296.705,-0.844637
9.82667,296.721,-0.844674
9.82833,296.738,-0.844721
9.83,296.754,-0.844771
9.83167,296.771,-0.844822
9.83333,296.788,-0.844868
9.835,296.804,-0.844916
9.83667,296.821,-0.844964
9.83833,296.838,-0.845009
9.84,296.854,-0.845045
9.84167,296.871,-0.845092
9.84333,296.888,-0.845142
9.845,296.904,-0.845191
9.84667,296.921,-0.845238
9.84833,296.938,-0.845292
9.85,296.954,-0.845348
9.85167,296.971,-0.845402
9.85333,296.988,-0.845459
9.855,297.005,-0.845514
9.85667,297.021,-0.84557
9.85833,297.038,-0.84562
9.86,297.055,-0.845674
9.86167,297.071,-0.845726
9.86333,297.088,-0.845779
9.865,297.104,-0.845819
9.86667,297.121,-0.84585
9.86833,297.138,-0.845885
9.87,297.155,-0.845922
9.87167,297.171,-0.845956
9.87333,297.188,-0.845982
9.875,297.205,-0.84601
9.87667,297.221,-0.846042
9.87833,297.238,-0.84608
9.88,297.254,-0.846127
9.88167,297.271,-0.846182
9.88333,297.287,-0.846242
9.885,297.304,-0.846311
9.88667,297.321,-0.846425
9.88833,297.337,-0.846544
9.89,297.354,-0.846636
9.89167,297.371,-0.846713
9.89333,297.388,-0.846776
9.895,297.404,-0.846833
9.89667,297.421,-0.846886
9.89833,297.438,-0.846929
9.9,297.454,-0.846965
9.90167,297.471,-0.847003
9.90333,297.488,-0.84704
9.905,297.505,-0.847082
9.90667,297.521,-0.84712
9.90833,297.537,-0.847162
9.91,297.554,-0.847215
9.91167,297.571,-0.847276
9.91333,297.587,-0.847342
9.915,297.604,-0.847415
9.91667,297.621,-0.847491
9.91833,297.637,-0.847553
9.92,297.654,-0.847604
9.92167,297.671,-0.847654
9.92333,297.687,-0.847701
9.925,297.704,-0.847742
9.92667,297.721,-0.847778
9.92833,297.738,-0.847814
9.93,297.754,-0.84784
9.93167,297.771,-0.847871
9.93333,297.787,-0.847904
9.935,297.804,-0.847944
9.93667,297.821,-0.847989
9.93833,297.837,-0.848044
9.94,297.854,-0.848104
9.94167,297.87,-0.848166
9.94333,297.887,-0.848218
9.945,297.904,-0.848271
9.94667,297.92,-0.848316
9.94833,297.937,-0.848353
9.95,297.954,-0.848384
9.95167,297.97,-0.84841
9.95333,297.987,-0.848444
9.955,298.003,-0.848484
9.95667,298.02,-0.848525
9.95833,298.037,-0.848573
9.96,298.053,-0.84863
9.96167,298.07,-0.848687
9.96333,298.087,-0.84874
9.965,298.103,-0.848784
9.96667,298.12,-0.848822
9.96833,298.137,-0.848857
9.97,298.153,-0.848896
9.97167,298.17,-0.848939
9.97333,298.187,-0.848981
9.975,298.204,-0.849019
9.97667,298.22,-0.849068
9.97833,298.237,-0.849115
9.98,298.254,-0.849169
9.98167,298.27,-0.849221
9.98333,298.287,-0.849267
9.985,298.303,-0.849309
9.98667,298.32,-0.849349
9.98833,298.337,-0.849386
9.99,298.353,-0.849423
9.99167,298.37,-0.849458
9.99333,298.387,-0.849491
9.995,298.403,-0.849522
9.99667,298.42,-0.849553
9.99833,298.436,-0.84959
10,298.453,-0.849623
10.0017,298.47,-0.849653
10.0033,298.487,-0.849681
10.005,298.503,-0.849705
10.0067,298.52,-0.849734
10.0083,298.536,-0.849767
10.01,298.553,-0.849805
10.0117,298.57,-0.849859
10.0133,298.586,-0.849921
10.015,298.603,-0.84998
10.0167,298.62,-0.850042
10.0183,298.637,-0.850136
10.02,298.653,-0.850268
10.0217,298.67,-0.850346
10.0233,298.687,-0.850414
10.025,298.703,-0.850477
10.0267,298.72,-0.850538
10.0283,298.736,-0.850593
10.03,298.753,-0.850644
10.0317,298.769,-0.850688
10.0333,298.786,-0.85073
10.035,298.803,-0.850772
10.0367,298.82,-0.850815
10.0383,298.836,-0.850859
10.04,298.853,-0.850895
10.0417,298.87,-0.850925
10.0433,298.886,-0.850957
10.045,298.902,-0.850989
10.0467,298.919,-0.851014
10.0483,298.936,-0.851039
10.05,298.953,-0.851068
10.0517,298.97,-0.851102
10.0533,298.986,-0.851142
10.055,299.003,-0.851176
10.0567,299.02,-0.851217
10.0583,299.036,-0.851259
10.06,299.053,-0.851304
10.0617,299.069,-0.851347
10.0633,299.086,-0.851394
10.065,299.103,-0.851442
10.0667,299.119,-0.851485
10.0683,299.136,-0.851523
10.07,299.153,-0.85156
10.0717,299.169,-0.851604
10.0733,299.186,-0.851654
10.075,299.203,-0.851705
10.0767,299.219,-0.851757
10.0783,299.236,-0.851804
10.08,299.253,-0.851852
10.0817,299.269,-0.851905
10.0833,299.286,-0.851967
10.085,299.303,-0.852067
10.0867,299.319,-0.852152
10.0883,299.336,-0.85225
10.09,299.353,-0.852348
10.0917,299.37,-0.852419
10.0933,299.386,-0.852488
10.095,299.402,-0.852542
10.0967,299.419,-0.852584
10.0983,299.436,-0.852613
10.1,299.452,-0.852629
10.1017,299.469,-0.852647
10.1033,299.486,-0.852664
10.105,299.502,-0.852682
10.1067,299.519,-0.852706
10.1083,299.536,-0.852741
10.11,299.553,-0.852781
10.1117,299.569,-0.852827
10.1133,299.586,-0.852872
10.115,299.602,-0.852916
10.1167,299.619,-0.852951
10.1183,299.635,-0.852984
10.12,299.652,-0.853005
10.1217,299.669,-0.853024
10.1233,299.686,-0.853046
10.125,299.702,-0.853062
10.1267,299.719,-0.853086
10.1283,299.736,-0.853116
10.13,299.752,-0.853151
10.1317,299.769,-0.853194
10.1333,299.786,-0.853235
10.135,299.802,-0.853279
10.1367,299.819,-0.853336
10.1383,299.836,-0.853399
10.14,299.852,-0.853458
10.1417,299.869,-0.853516
10.1433,299.885,-0.853571
10.145,299.902,-0.853624
10.1467,299.919,-0.853672
10.1483,299.935,-0.853717
10.15,299.952,-0.853765
10.1517,299.969,-0.853805
10.1533,299.986,-0.853846
10.155,300.002,-0.853884
10.1567,300.019,-0.853917
10.1583,300.036,-0.853948
10.16,300.052,-0.853971
10.1617,300.069,-0.85399
10.1633,300.086,-0.854014
10.165,300.102,-0.854037
10.1667,300.119,-0.854058
10.1683,300.135,-0.854084
10.17,300.152,-0.854116
10.1717,300.169,-0.854153
10.1733,300.185,-0.854196
10.175,300.202,-0.854235
10.1767,300.219,-0.854285
10.1783,300.235,-0.854335
10.18,300.252,-0.854386
10.1817,300.269,-0.854441
10.1833,300.285,-0.854498
10.185,300.302,-0.854546
10.1867,300.319,-0.854597
10.1883,300.335,-0.854641
10.19,300.352,-0.85468
10.1917,300.369,-0.854716
10.1933,300.385,-0.854761
10.195,300.402,-0.854796
10.1967,300.419,-0.854831
10.1983,300.435,-0.85487
10.2,300.452,-0.854912
10.2017,300.469,-0.854956
10.2033,300.485,-0.854999
10.205,300.502,-0.855038
10.2067,300.519,-0.855077
10.2083,300.535,-0.855118
10.21,300.552,-0.855164
10.2117,300.569,-0.855213
10.2133,300.586,-0.855269
10.215,300.602,-0.855319
10.2167,300.619,-0.855364
10.2183,300.635,-0.855403
10.22,300.652,-0.855432
10.2217,300.669,-0.855458
10.2233,300.685,-0.855483
10.225,300.702,-0.855505
10.2267,300.718,-0.855535
10.2283,300.735,-0.855575
10.23,300.752,-0.855621
10.2317,300.768,-0.855672
10.2333,300.785,-0.855729
10.235,300.801,-0.855785
10.2367,300.818,-0.855838
10.2383,300.835,-0.85588
10.24,300.851,-0.855924
10.2417,300.868,-0.855966
10.2433,300.885,-0.856004
10.245,300.901,-0.856048
10.2467,300.918,-0.85608
10.2483,300.935,-0.856115
10.25,300.951,-0.856157
10.2517,300.968,-0.856201
10.2533,300.985,-0.856246
10.255,301.002,-0.856293
10.2567,301.018,-0.856358
10.2583,301.035,-0.856488
10.26,301.052,-0.856643
10.2617,301.068,-0.856765
10.2633,301.085,-0.856839
10.265,301.102,-0.856933
10.2667,301.118,-0.856998
10.2683,301.135,-0.857051
10.27,301.151,-0.857092
10.2717,301.168,-0.857133
10.2733,301.184,-0.857159
10.275,301.201,-0.857179
10.2767,301.218,-0.857197
10.2783,301.235,-0.857216
10.28,301.251,-0.857225
10.2817,301.268,-0.857229
10.2833,301.284,-0.857241
10.285,301.301,-0.85725
10.2867,301.318,-0.85726
10.2883,301.334,-0.857281
10.29,301.351,-0.857312
10.2917,301.368,-0.857354
10.2933,301.385,-0.857404
10.295,301.401,-0.857453
10.2967,301.418,-0.857501
10.2983,301.434,-0.857549
10.3,301.451,-0.8576
10.3017,301.467,-0.857645
10.3033,301.484,-0.857686
10.305,301.501,-0.857725
10.3067,301.518,-0.857758
10.3083,301.535,-0.857794
10.31,301.551,-0.857823
10.3117,301.568,-0.857858
10.3133,301.584,-0.857903
10.315,301.601,-0.857941
10.3167,301.618,-0.857975
10.3183,301.634,-0.858006
10.32,301.651,-0.85804
10.3217,301.668,-0.858076
10.3233,301.684,-0.858116
10.325,301.701,-0.858159
10.3267,301.717,-0.858206
10.3283,301.734,-0.858251
10.33,301.751,-0.858286
10.3317,301.767,-0.858318
10.3333,301.784,-0.858349
10.335,301.801,-0.858375
10.3367,301.818,-0.858401
10.3383,301.834,-0.858427
10.34,301.851,-0.858454
10.3417,301.868,-0.858469
10.3433,301.884,-0.858493
10.345,301.901,-0.858515
10.3467,301.917,-0.858549
10.3483,301.934,-0.858581
10.35,301.95,-0.858604
10.3517,301.967,-0.858631
10.3533,301.984,-0.858654
10.355,302,-0.858679
10.3567,302.017,-0.858706
10.3583,302.034,-0.858732
10.36,302.05,-0.858764
10.3617,302.067,-0.858794
10.3633,302.084,-0.858834
10.365,302.1,-0.858886
10.3667,302.117,-0.858941
10.3683,302.134,-0.859012
10.37,302.15,-0.859081
10.3717,302.167,-0.859161
10.3733,302.184,-0.859232
10.375,302.2,-0.859289
10.3767,302.217,-0.859342
10.3783,302.233,-0.85939
10.38,302.25,-0.859438
10.3817,302.267,-0.859482
10.3833,302.284,-0.859527
10.385,302.301,-0.859571
10.3867,302.317,-0.85961
10.3883,302.334,-0.859645
10.39,302.351,-0.859678
10.3917,302.367,-0.859715
10.3933,302.384,-0.859739
10.395,302.401,-0.859758
10.3967,302.417,-0.859774
10.3983,302.434,-0.859796
10.4,302.451,-0.859823
10.4017,302.467,-0.859863
10.4033,302.484,-0.859904
10.405,302.501,-0.859939
10.4067,302.517,-0.859973
10.4083,302.534,-0.860006
10.41,302.551,-0.860044
10.4117,302.567,-0.860076
10.4133,302.584,-0.860095
10.415,302.6,-0.860105
10.4167,302.617,-0.860113
10.4183,302.634,-0.860125
10.42,302.651,-0.86014
10.4217,302.667,-0.860164
10.4233,302.684,-0.860193
10.425,302.7,-0.860248
10.4267,302.717,-0.860324
10.4283,302.734,-0.860475
10.43,302.75,-0.860681
10.4317,302.767,-0.860837
10.4333,302.784,-0.86097
10.435,302.8,-0.861088
10.4367,302.817,-0.861236
10.4383,302.834,-0.861305
10.44,302.85,-0.861364
10.4417,302.867,-0.861414
10.4433,302.883,-0.861455
10.445,302.9,-0.861493
10.4467,302.917,-0.861535
10.4483,302.934,-0.861571
10.45,302.95,-0.86161
10.4517,302.967,-0.861649
10.4533,302.983,-0.861674
10.455,303,-0.861697
10.4567,303.017,-0.861725
10.4583,303.033,-0.861751
10.46,303.05,-0.861782
10.4617,303.067,-0.86181
10.4633,303.083,-0.861836
10.465,303.099,-0.861867
10.4667,303.117,-0.861905
10.4683,303.134,-0.861952
10.47,303.15,-0.861993
10.4717,303.167,-0.862035
10.4733,303.184,-0.862078
10.475,303.2,-0.862115
10.4767,303.217,-0.862164
10.4783,303.233,-0.862215
10.48,303.25,-0.862261
10.4817,303.267,-0.862304
10.4833,303.283,-0.862341
10.485,303.3,-0.862386
10.4867,303.317,-0.862436
10.4883,303.333,-0.862477
10.49,303.35,-0.862519
10.4917,303.367,-0.862566
10.4933,303.383,-0.862616
10.495,303.4,-0.862665
10.4967,303.417,-0.86271
10.4983,303.433,-0.862743
10.5,303.45,-0.86277
10.5017,303.466,-0.862797
10.5033,303.483,-0.862819
10.505,303.5,-0.862839
10.5067,303.516,-0.86287
10.5083,303.533,-0.862903
10.51,303.55,-0.862939
10.5117,303.566,-0.862979
10.5133,303.583,-0.863022
10.515,303.6,-0.863064
10.5167,303.616,-0.863108
10.5183,303.633,-0.863161
10.52,303.649,-0.863226
10.5217,303.666,-0.863292
10.5233,303.683,-0.863361
10.525,303.699,-0.863432
10.5267,303.716,-0.863501
10.5283,303.732,-0.863561
10.53,303.749,-0.86362
10.5317,303.765,-0.863669
10.5333,303.782,-0.863716
10.535,303.799,-0.863764
10.5367,303.816,-0.863807
10.5383,303.832,-0.863844
10.54,303.849,-0.863889
10.5417,303.866,-0.863934
10.5433,303.883,-0.86398
10.545,303.899,-0.864016
10.5467,303.916,-0.864039
10.5483,303.932,-0.864061
10.55,303.949,-0.864077
10.5517,303.966,-0.864089
10.5533,303.982,-0.864115
10.555,303.999,-0.864138
10.5567,304.016,-0.864164
10.5583,304.032,-0.864193
10.56,304.049,-0.864234
10.5617,304.065,-0.864284
10.5633,304.082,-0.864332
10.565,304.099,-0.864379
10.5667,304.115,-0.864431
10.5683,304.132,-0.86448
10.57,304.149,-0.864527
10.5717,304.165,-0.864572
10.5733,304.182,-0.864615
10.575,304.199,-0.864653
10.5767,304.216,-0.864688
10.5783,304.233,-0.864723
10.58,304.249,-0.864762
10.5817,304.266,-0.864787
10.5833,304.283,-0.86481
10.585,304.299,-0.864826
10.5867,304.316,-0.86484
10.5883,304.332,-0.864854
10.59,304.349,-0.864867
10.5917,304.365,-0.864877
10.5933,304.382,-0.864891
10.595,304.398,-0.864912
10.5967,304.415,-0.86493
10.5983,304.432,-0.864962
10.6,304.448,-0.865001
10.6017,304.465,-0.865049
10.6033,304.482,-0.8651
10.605,304.498,-0.865155
10.6067,304.515,-0.865208
10.6083,304.532,-0.865261
10.61,304.548,-0.86531
10.6117,304.565,-0.865356
10.6133,304.582,-0.865402
10.615,304.598,-0.865448
10.6167,304.615,-0.865497
10.6183,304.631,-0.865557
10.62,304.648,-0.865614
10.6217,304.665,-0.86567
10.6233,304.682,-0.865719
10.625,304.698,-0.865767
10.6267,304.715,-0.865802
10.6283,304.732,-0.865839
10.63,304.749,-0.865862
10.6317,304.765,-0.865878
10.6333,304.781,-0.865889
10.635,304.798,-0.86591
10.6367,304.815,-0.865933
10.6383,304.831,-0.865963
10.64,304.848,-0.865996
10.6417,304.865,-0.866027
10.6433,304.881,-0.866073
10.645,304.898,-0.866118
10.6467,304.914,-0.86617
10.6483,304.931,-0.866221
10.65,304.947,-0.866279
10.6517,304.964,-0.866345
10.6533,304.981,-0.866412
10.655,304.998,-0.866481
10.6567,305.014,-0.866541
10.6583,305.031,-0.866603
10.66,305.048,-0.866663
10.6617,305.064,-0.866717
10.6633,305.081,-0.866758
10.665,305.098,-0.866789
10.6667,305.114,-0.866807
10.6683,305.131,-0.866822
10.67,305.148,-0.866831
10.6717,305.164,-0.866842
10.6733,305.181,-0.866858
10.675,305.197,-0.86688
10.6767,305.214,-0.866905
10.6783,305.231,-0.866934
10.68,305.248,-0.866957
10.6817,305.265,-0.866979
10.6833,305.281,-0.867001
10.685,305.298,-0.867022
10.6867,305.314,-0.867043
10.6883,305.331,-0.867063
10.69,305.347,-0.867092
10.6917,305.364,-0.867135
10.6933,305.381,-0.867186
10.695,305.397,-0.86724
10.6967,305.414,-0.867298
10.6983,305.43,-0.867351
10.7,305.447,-0.867405
10.7017,305.464,-0.867457
10.7033,305.48,-0.867506
10.705,305.497,-0.867545
10.7067,305.513,-0.867578
10.7083,305.53,-0.867613
10.71,305.547,-0.867645
10.7117,305.564,-0.867694
10.7133,305.581,-0.867746
10.715,305.597,-0.867797
10.7167,305.614,-0.867839
10.7183,305.631,-0.867881
10.72,305.647,-0.867924
10.7217,305.664,-0.867963
10.7233,305.681,-0.867994
10.725,305.697,-0.868024
10.7267,305.714,-0.868059
10.7283,305.73,-0.868091
10.73,305.746,-0.868129
10.7317,305.763,-0.868177
10.7333,305.78,-0.868222
10.735,305.796,-0.868274
10.7367,305.813,-0.868321
10.7383,305.829,-0.868374
10.74,305.847,-0.868418
10.7417,305.863,-0.868469
10.7433,305.88,-0.868524
10.745,305.897,-0.86858
10.7467,305.914,-0.868636
10.7483,305.93,-0.868689
10.75,305.947,-0.868732
10.7517,305.964,-0.86877
10.7533,305.98,-0.868808
10.755,305.996,-0.868843
10.7567,306.013,-0.868876
10.7583,306.03,-0.868902
10.76,306.046,-0.868932
10.7617,306.063,-0.868973
10.7633,306.08,-0.869026
10.765,306.096,-0.86909
10.7667,306.114,-0.869151
10.7683,306.13,-0.869218
10.77,306.147,-0.86929
10.7717,306.163,-0.86938
10.7733,306.18,-0.869449
10.775,306.197,-0.869514
10.7767,306.214,-0.869568
10.7783,306.23,-0.869623
10.78,306.246,-0.869676
10.7817,306.263,-0.86972
10.7833,306.28,-0.86975
10.785,306.296,-0.869774
10.7867,306.313,-0.869791
10.7883,306.329,-0.869805
10.79,306.346,-0.869819
10.7917,306.363,-0.86983
10.7933,306.379,-0.869839
10.795,306.396,-0.869845
10.7967,306.413,-0.869858
10.7983,306.43,-0.869878
10.8,306.447,-0.869895
10.8017,306.463,-0.869919
10.8033,306.48,-0.86995
10.805,306.496,-0.86998
10.8067,306.513,-0.870013
10.8083,306.529,-0.870058
10.81,306.546,-0.870112
10.8117,306.563,-0.87017
10.8133,306.579,-0.870233
10.815,306.596,-0.870303
10.8167,306.612,-0.87042
10.8183,306.629,-0.870492
10.82,306.646,-0.870558
10.8217,306.663,-0.870616
10.8233,306.68,-0.870669
10.825,306.697,-0.870716
10.8267,306.713,-0.870757
10.8283,306.729,-0.870785
10.83,306.746,-0.870803
10.8317,306.763,-0.870821
10.8333,306.779,-0.870846
10.835,306.796,-0.870868
10.8367,306.813,-0.870896
10.8383,306.829,-0.870918
10.84,306.846,-0.870943
10.8417,306.862,-0.870979
10.8433,306.879,-0.871029
10.845,306.896,-0.871085
10.8467,306.913,-0.871142
10.8483,306.929,-0.871199
10.85,306.946,-0.871257
10.8517,306.962,-0.871315
10.8533,306.979,-0.871372
10.855,306.996,-0.87142
10.8567,307.012,-0.871456
10.8583,307.029,-0.871489
10.86,307.046,-0.871517
10.8617,307.063,-0.871544
10.8633,307.079,-0.871574
10.865,307.096,-0.871595
10.8667,307.112,-0.871623
10.8683,307.129,-0.871648
10.87,307.146,-0.871676
10.8717,307.162,-0.87171
10.8733,307.179,-0.871746
10.875,307.195,-0.871779
10.8767,307.212,-0.87181
10.8783,307.229,-0.87185
10.88,307.245,-0.871893
10.8817,307.262,-0.871941
10.8833,307.279,-0.87198
10.885,307.295,-0.872023
10.8867,307.312,-0.872063
10.8883,307.329,-0.872099
10.89,307.345,-0.872139
10.8917,307.362,-0.872184
10.8933,307.379,-0.872233
10.895,307.395,-0.87228
10.8967,307.412,-0.872325
10.8983,307.428,-0.872378
10.9,307.445,-0.87244
10.9017,307.462,-0.872501
10.9033,307.479,-0.872568
10.905,307.496,-0.872651
10.9067,307.512,-0.872732
10.9083,307.529,-0.872848
10.91,307.545,-0.872931
10.9117,307.562,-0.872995
10.9133,307.579,-0.873049
10.915,307.595,-0.873088
10.9167,307.612,-0.873115
10.9183,307.629,-0.873137
10.92,307.645,-0.873153
10.9217,307.662,-0.873162
10.9233,307.678,-0.873176
10.925,307.695,-0.873194
10.9267,307.712,-0.873216
10.9283,307.729,-0.873252
10.93,307.745,-0.873298
10.9317,307.762,-0.873351
10.9333,307.779,-0.873404
10.935,307.795,-0.873453
10.9367,307.812,-0.873503
10.9383,307.828,-0.873549
10.94,307.845,-0.873589
10.9417,307.862,-0.873628
10.9433,307.878,-0.873669
10.945,307.895,-0.87371
10.9467,307.912,-0.873754
10.9483,307.928,-0.873793
10.95,307.945,-0.873837
10.9517,307.962,-0.873876
10.9533,307.978,-0.873919
10.955,307.995,-0.873964
10.9567,308.012,-0.874004
10.9583,308.028,-0.874053
10.96,308.045,-0.874109
10.9617,308.062,-0.874168
10.9633,308.078,-0.874232
10.965,308.095,-0.874291
10.9667,308.111,-0.874346
10.9683,308.128,-0.874402
10.97,308.145,-0.874458
10.9717,308.161,-0.874501
10.9733,308.178,-0.87454
10.975,308.195,-0.874571
10.9767,308.211,-0.874598
10.9783,308.228,-0.874616
10.98,308.245,-0.874633
10.9817,308.262,-0.874654
10.9833,308.278,-0.874682
10.985,308.295,-0.874708
10.9867,308.312,-0.874737
10.9883,308.328,-0.874775
10.99,308.345,-0.874815
10.9917,308.362,-0.874864
10.9933,308.378,-0.874922
10.995,308.395,-0.874981
10.9967,308.411,-0.875072
10.9983,308.428,-0.875173
11,308.445,-0.875261
11.0017,308.462,-0.875334
11.0033,308.478,-0.875394
11.005,308.495,-0.87545
11.0067,308.511,-0.875493
11.0083,308.528,-0.875523
11.01,308.545,-0.87555
11.0117,308.562,-0.875568
11.0133,308.578,-0.875584
11.015,308.594,-0.875593
11.0167,308.611,-0.875612
11.0183,308.628,-0.875641
11.02,308.645,-0.875687
11.0217,308.661,-0.875728
11.0233,308.678,-0.875772
11.025,308.694,-0.875828
11.0267,308.711,-0.875882
11.0283,308.728,-0.87593
11.03,308.745,-0.875984
11.0317,308.761,-0.876041
11.0333,308.778,-0.876095
11.035,308.795,-0.87615
11.0367,308.811,-0.876215
11.0383,308.828,-0.876281
11.04,308.844,-0.876344
11.0417,308.861,-0.876407
11.0433,308.878,-0.876464
11.045,308.895,-0.876518
11.0467,308.911,-0.876562
11.0483,308.928,-0.876594
11.05,308.944,-0.876623
11.0517,308.961,-0.876653
11.0533,308.978,-0.87668
11.055,308.995,-0.876706
11.0567,309.011,-0.876733
11.0583,309.028,-0.876762
11.06,309.044,-0.876792
11.0617,309.061,-0.876832
11.0633,309.078,-0.876877
11.065,309.095,-0.876935
11.0667,309.111,-0.877004
11.0683,309.128,-0.877075
11.07,309.145,-0.877174
11.0717,309.161,-0.877261
11.0733,309.178,-0.877337
11.075,309.195,-0.877421
11.0767,309.211,-0.877506
11.0783,309.228,-0.877584
11.08,309.244,-0.877649
11.0817,309.261,-0.877698
11.0833,309.277,-0.877736
11.085,309.294,-0.877758
11.0867,309.311,-0.877778
11.0883,309.328,-0.877797
11.09,309.344,-0.877814
11.0917,309.361,-0.877823
11.0933,309.377,-0.877836
11.095,309.394,-0.877852
11.0967,309.411,-0.877882
11.0983,309.427,-0.877918
11.1,309.444,-0.877955
11.1017,309.461,-0.877997
11.1033,309.477,-0.878038
11.105,309.494,-0.878084
11.1067,309.511,-0.87813
11.1083,309.527,-0.878186
11.11,309.544,-0.87824
11.1117,309.561,-0.878292
11.1133,309.577,-0.878345
11.115,309.594,-0.878397
11.1167,309.61,-0.878461
11.1183,309.627,-0.878523
11.12,309.644,-0.878584
11.1217,309.66,-0.878638
11.1233,309.677,-0.878696
11.125,309.693,-0.878755
11.1267,309.71,-0.878813
11.1283,309.727,-0.878862
11.13,309.743,-0.878899
11.1317,309.76,-0.878929
11.1333,309.777,-0.87896
11.135,309.794,-0.878997
11.1367,309.81,-0.879049
11.1383,309.827,-0.879101
11.14,309.844,-0.87916
11.1417,309.86,-0.879226
11.1433,309.877,-0.879293
11.145,309.894,-0.879361
11.1467,309.911,-0.879423
11.1483,309.927,-0.879484
11.15,309.944,-0.87953
11.1517,309.961,-0.879569
11.1533,309.977,-0.879609
11.155,309.994,-0.879642
11.1567,310.01,-0.879678
11.1583,310.027,-0.87972
11.16,310.044,-0.879766
11.1617,310.06,-0.879812
11.1633,310.077,-0.879857
11.165,310.093,-0.879907
11.1667,310.11,-0.879965
11.1683,310.127,-0.880022
11.17,310.144,-0.880089
11.1717,310.16,-0.880169
11.1733,310.177,-0.880245
11.175,310.194,-0.880314
11.1767,310.21,-0.880375
11.1783,310.227,-0.880424
11.18,310.244,-0.880463
11.1817,310.261,-0.880493
11.1833,310.277,-0.880518
11.185,310.294,-0.880547
11.1867,310.31,-0.880578
11.1883,310.327,-0.880604
11.19,310.343,-0.880632
11.1917,310.36,-0.880666
11.1933,310.376,-0.880707
11.195,310.393,-0.880745
11.1967,310.41,-0.880782
11.1983,310.426,-0.880822
11.2,310.443,-0.880868
11.2017,310.459,-0.880926
11.2033,310.475,-0.88099
11.205,310.492,-0.881083
11.2067,310.509,-0.881164
11.2083,310.526,-0.881227
11.21,310.543,-0.881293
11.2117,310.559,-0.881365
11.2133,310.576,-0.881436
11.215,310.593,-0.881503
11.2167,310.609,-0.881562
11.2183,310.626,-0.881609
11.22,310.643,-0.881651
11.2217,310.659,-0.88169
11.2233,310.676,-0.881736
11.225,310.692,-0.881781
11.2267,310.709,-0.881825
11.2283,310.726,-0.881864
11.23,310.742,-0.8819
11.2317,310.759,-0.881935
11.2333,310.776,-0.881964
11.235,310.792,-0.88199
11.2367,310.809,-0.882002
11.2383,310.825,-0.882018
11.24,310.842,-0.882043
11.2417,310.859,-0.882074
11.2433,310.875,-0.882113
11.245,310.892,-0.882158
11.2467,310.909,-0.882222
11.2483,310.925,-0.882297
11.25,310.942,-0.882385
11.2517,310.959,-0.882457
11.2533,310.975,-0.88253
11.255,310.992,-0.882601
11.2567,311.008,-0.882664
11.2583,311.025,-0.882722
11.26,311.042,-0.882763
11.2617,311.058,-0.882799
11.2633,311.075,-0.882842
11.265,311.092,-0.882893
11.2667,311.109,-0.88295
11.2683,311.126,-0.883014
11.27,311.142,-0.883073
11.2717,311.158,-0.88313
11.2733,311.175,-0.883184
11.275,311.192,-0.883223
11.2767,311.209,-0.883254
11.2783,311.225,-0.883271
11.28,311.242,-0.883285
11.2817,311.258,-0.883292
11.2833,311.275,-0.883299
11.285,311.292,-0.883319
11.2867,311.308,-0.883347
11.2883,311.325,-0.883384
11.29,311.342,-0.883435
11.2917,311.359,-0.883492
11.2933,311.375,-0.883546
11.295,311.392,-0.883597
11.2967,311.409,-0.883655
11.2983,311.425,-0.883716
11.3,311.442,-0.88377
11.3017,311.458,-0.883837
11.3033,311.475,-0.883901
11.305,311.492,-0.883963
11.3067,311.508,-0.884032
11.3083,311.525,-0.884105
11.31,311.542,-0.884178
11.3117,311.559,-0.884248
11.3133,311.575,-0.884318
11.315,311.592,-0.884376
11.3167,311.609,-0.884425
11.3183,311.625,-0.884472
11.32,311.642,-0.884517
11.3217,311.659,-0.884558
11.3233,311.675,-0.884599
11.325,311.692,-0.884651
11.3267,311.708,-0.884707
11.3283,311.725,-0.884769
11.33,311.742,-0.884835
11.3317,311.758,-0.884903
11.3333,311.775,-0.884969
11.335,311.791,-0.885032
11.3367,311.808,-0.8851
11.3383,311.825,-0.885164
11.34,311.842,-0.885218
11.3417,311.858,-0.885271
11.3433,311.875,-0.885317
11.345,311.892,-0.885366
11.3467,311.909,-0.885415
11.3483,311.925,-0.885456
11.35,311.942,-0.885495
11.3517,311.959,-0.88554
11.3533,311.975,-0.885586
11.355,311.992,-0.885637
11.3567,312.009,-0.885689
11.3583,312.025,-0.885738
11.36,312.041,-0.885787
11.3617,312.058,-0.885839
11.3633,312.075,-0.885883
11.365,312.092,-0.88593
11.3667,312.108,-0.885972
11.3683,312.125,-0.886015
11.37,312.142,-0.886056
11.3717,312.158,-0.886112
11.3733,312.175,-0.886175
11.375,312.192,-0.886239
11.3767,312.208,-0.886298
11.3783,312.225,-0.886345
11.38,312.241,-0.886391
11.3817,312.258,-0.886434
11.3833,312.275,-0.886478
11.385,312.292,-0.88652
11.3867,312.309,-0.886548
11.3883,312.325,-0.886581
11.39,312.342,-0.886623
11.3917,312.359,-0.886668
11.3933,312.375,-0.886721
11.395,312.392,-0.886768
11.3967,312.408,-0.886821
11.3983,312.425,-0.88687
11.4,312.441,-0.886923
11.4017,312.458,-0.886986
11.4033,312.475,-0.887055
11.405,312.491,-0.887123
11.4067,312.508,-0.887196
11.4083,312.525,-0.887274
11.41,312.542,-0.887349
11.4117,312.558,-0.887419
11.4133,312.575,-0.887486
11.415,312.592,-0.887555
11.4167,312.608,-0.887609
11.4183,312.625,-0.887655
11.42,312.641,-0.887694
11.4217,312.658,-0.887732
11.4233,312.675,-0.887771
11.425,312.691,-0.887813
11.4267,312.708,-0.887862
11.4283,312.725,-0.887916
11.43,312.741,-0.887968
11.4317,312.758,-0.888029
11.4333,312.775,-0.888093
11.435,312.792,-0.888152
11.4367,312.808,-0.888212
11.4383,312.824,-0.888267
11.44,312.842,-0.888319
11.4417,312.858,-0.888365
11.4433,312.875,-0.888401
11.445,312.891,-0.888448
11.4467,312.908,-0.888498
11.4483,312.924,-0.888548
11.45,312.941,-0.88859
11.4517,312.958,-0.888629
11.4533,312.975,-0.888673
11.455,312.991,-0.888724
11.4567,313.008,-0.888775
11.4583,313.025,-0.888825
11.46,313.041,-0.888874
11.4617,313.058,-0.888918
11.4633,313.075,-0.888962
11.465,313.091,-0.889016
11.4667,313.108,-0.889072
11.4683,313.125,-0.889124
11.47,313.141,-0.889178
11.4717,313.158,-0.889237
11.4733,313.174,-0.889297
11.475,313.191,-0.889355
11.4767,313.208,-0.889416
11.4783,313.225,-0.88947
11.48,313.241,-0.889522
11.4817,313.258,-0.889576
11.4833,313.275,-0.889634
11.485,313.291,-0.88969
11.4867,313.308,-0.889749
11.4883,313.325,-0.889808
11.49,313.341,-0.889868
11.4917,313.358,-0.88992
11.4933,313.374,-0.88997
11.495,313.391,-0.890022
11.4967,313.407,-0.89008
11.4983,313.424,-0.890136
11.5,313.441,-0.890195
11.5017,313.458,-0.890259
11.5033,313.474,-0.890325
11.505,313.491,-0.890392
11.5067,313.508,-0.89046
11.5083,313.524,-0.890518
11.51,313.541,-0.890573
11.5117,313.558,-0.890622
11.5133,313.574,-0.890674
11.515,313.591,-0.890725
11.5167,313.608,-0.890777
11.5183,313.625,-0.890829
11.52,313.641,-0.890876
11.5217,313.658,-0.890923
11.5233,313.674,-0.890985
11.525,313.691,-0.891049
11.5267,313.707,-0.891106
11.5283,313.724,-0.891157
11.53,313.741,-0.891196
11.5317,313.757,-0.891229
11.5333,313.774,-0.891262
11.535,313.791,-0.891304
11.5367,313.807,-0.891351
11.5383,313.823,-0.891404
11.54,313.84,-0.891459
11.5417,313.857,-0.89152
11.5433,313.874,-0.891592
11.545,313.89,-0.891704
11.5467,313.907,-0.89181
11.5483,313.924,-0.891897
11.55,313.94,-0.891971
11.5517,313.957,-0.89204
11.5533,313.974,-0.892103
11.555,313.99,-0.892163
11.5567,314.007,-0.892219
11.5583,314.024,-0.89227
11.56,314.04,-0.892321
11.5617,314.057,-0.892364
11.5633,314.073,-0.892411
11.565,314.09,-0.892463
11.5667,314.107,-0.892514
11.5683,314.124,-0.89257
11.57,314.14,-0.892629
11.5717,314.157,-0.892677
11.5733,314.173,-0.892717
11.575,314.19,-0.892759
11.5767,314.207,-0.892794
11.5783,314.224,-0.892832
11.58,314.241,-0.892864
11.5817,314.257,-0.892904
11.5833,314.273,-0.892953
11.585,314.29,-0.893004
11.5867,314.307,-0.893056
11.5883,314.324,-0.893117
11.59,314.34,-0.893173
11.5917,314.357,-0.893232
11.5933,314.373,-0.893275
11.595,314.39,-0.893315
11.5967,314.407,-0.893353
11.5983,314.423,-0.893395
11.6,314.44,-0.893446
11.6017,314.457,-0.893497
11.6033,314.473,-0.893554
11.605,314.49,-0.893609
11.6067,314.507,-0.893675
11.6083,314.524,-0.893736
11.61,314.54,-0.893798
11.6117,314.557,-0.893853
11.6133,314.573,-0.893909
11.615,314.59,-0.893965
11.6167,314.607,-0.89402
11.6183,314.623,-0.894068
11.62,314.64,-0.894112
11.6217,314.657,-0.894166
11.6233,314.673,-0.894222
11.625,314.69,-0.89428
11.6267,314.706,-0.894337
11.6283,314.723,-0.8944
11.63,314.739,-0.89446
11.6317,314.756,-0.894526
11.6333,314.773,-0.894594
11.635,314.79,-0.894665
11.6367,314.806,-0.894734
11.6383,314.823,-0.894802
11.64,314.84,-0.894869
11.6417,314.856,-0.894934
11.6433,314.873,-0.895004
11.645,314.889,-0.895081
11.6467,314.906,-0.895156
11.6483,314.923,-0.895233
11.65,314.939,-0.895306
11.6517,314.956,-0.895376
11.6533,314.973,-0.895443
11.655,314.989,-0.895506
11.6567,315.006,-0.895564
11.6583,315.022,-0.895611
11.66,315.039,-0.895651
11.6617,315.056,-0.89569
11.6633,315.073,-0.895734
11.665,315.089,-0.895776
11.6667,315.106,-0.895822
11.6683,315.122,-0.895869
11.67,315.139,-0.895928
11.6717,315.156,-0.895992
11.6733,315.172,-0.896056
11.675,315.189,-0.896118
11.6767,315.206,-0.896188
11.6783,315.222,-0.896257
11.68,315.239,-0.896324
11.6817,315.256,-0.896385
11.6833,315.272,-0.896452
11.685,315.289,-0.896504
11.6867,315.305,-0.896556
11.6883,315.322,-0.896603
11.69,315.339,-0.896651
11.6917,315.356,-0.896699
11.6933,315.372,-0.89676
11.695,315.389,-0.896822
11.6967,315.405,-0.896887
11.6983,315.422,-0.896958
11.7,315.439,-0.897029
11.7017,315.455,-0.897105
11.7033,315.472,-0.897177
11.705,315.489,-0.897237
11.7067,315.505,-0.897293
11.7083,315.522,-0.89735
11.71,315.539,-0.897419
11.7117,315.555,-0.897496
11.7133,315.572,-0.897573
11.715,315.589,-0.897658
11.7167,315.606,-0.89774
11.7183,315.622,-0.897815
11.72,315.639,-0.897884
11.7217,315.655,-0.897952
11.7233,315.672,-0.898006
11.725,315.689,-0.898044
11.7267,315.705,-0.898081
11.7283,315.722,-0.898124
11.73,315.738,-0.898165
11.7317,315.755,-0.898209
11.7333,315.772,-0.898265
11.735,315.789,-0.898333
11.7367,315.805,-0.898404
11.7383,315.822,-0.898477
11.74,315.838,-0.898551
11.7417,315.855,-0.898627
11.7433,315.872,-0.898706
11.745,315.889,-0.898791
11.7467,315.905,-0.898874
11.7483,315.922,-0.898978
11.75,315.938,-0.899061
11.7517,315.955,-0.89915
11.7533,315.972,-0.899235
11.755,315.988,-0.899314
11.7567,316.005,-0.899388
11.7583,316.021,-0.899463
11.76,316.038,-0.89953
11.7617,316.055,-0.899593
11.7633,316.071,-0.899652
11.765,316.088,-0.89972
11.7667,316.104,-0.899793
11.7683,316.121,-0.899854
11.77,316.138,-0.899915
11.7717,316.154,-0.899985
11.7733,316.171,-0.900055
11.775,316.188,-0.900125
11.7767,316.205,-0.900197
11.7783,316.221,-0.900268
11.78,316.238,-0.900344
11.7817,316.254,-0.900425
11.7833,316.271,-0.900503
11.785,316.288,-0.900577
11.7867,316.304,-0.900655
11.7883,316.321,-0.900742
11.79,316.338,-0.90083
11.7917,316.355,-0.900915
11.7933,316.371,-0.900999
11.795,316.388,-0.901075
11.7967,316.404,-0.901138
11.7983,316.421,-0.901203
11.8,316.438,-0.901274
11.8017,316.455,-0.901342
11.8033,316.471,-0.901401
11.805,316.488,-0.901451
11.8067,316.505,-0.901496
11.8083,316.521,-0.901547
11.81,316.538,-0.901592
11.8117,316.555,-0.901635
11.8133,316.571,-0.901683
11.815,316.588,-0.901729
11.8167,316.605,-0.901778
11.8183,316.621,-0.901839
11.82,316.638,-0.901912
11.8217,316.654,-0.901986
11.8233,316.671,-0.902064
11.825,316.688,-0.902147
11.8267,316.704,-0.902235
11.8283,316.721,-0.902321
11.83,316.738,-0.902402
11.8317,316.755,-0.902483
11.8333,316.771,-0.902559
11.835,316.788,-0.902626
11.8367,316.805,-0.902701
11.8383,316.821,-0.902768
11.84,316.837,-0.902829
11.8417,316.854,-0.902889
11.8433,316.871,-0.902947
11.845,316.887,-0.903006
11.8467,316.904,-0.903074
11.8483,316.92,-0.903154
11.85,316.937,-0.903236
11.8517,316.954,-0.903314
11.8533,316.971,-0.9034
11.855,316.988,-0.903537
11.8567,317.004,-0.903737
11.8583,317.021,-0.903875
11.86,317.037,-0.90401
11.8617,317.054,-0.904125
11.8633,317.071,-0.904247
11.865,317.088,-0.904346
11.8667,317.104,-0.904457
11.8683,317.12,-0.904549
11.87,317.137,-0.904624
11.8717,317.154,-0.9047
11.8733,317.171,-0.90477
11.875,317.187,-0.904841
11.8767,317.204,-0.904908
11.8783,317.221,-0.904963
11.88,317.237,-0.905013
11.8817,317.254,-0.905065
11.8833,317.271,-0.905116
11.885,317.287,-0.905178
11.8867,317.304,-0.90524
11.8883,317.321,-0.905304
11.89,317.337,-0.905377
11.8917,317.354,-0.905462
11.8933,317.37,-0.905548
11.895,317.387,-0.905637
11.8967,317.403,-0.905725
11.8983,317.42,-0.905807
11.9,317.437,-0.905894
11.9017,317.453,-0.90599
11.9033,317.47,-0.906084
11.905,317.487,-0.90618
11.9067,317.504,-0.90627
11.9083,317.52,-0.906358
11.91,317.537,-0.906452
11.9117,317.553,-0.906537
11.9133,317.57,-0.906621
11.915,317.587,-0.906696
11.9167,317.603,-0.906767
11.9183,317.62,-0.906838
11.92,317.637,-0.906909
11.9217,317.654,-0.906985
11.9233,317.67,-0.907062
11.925,317.687,-0.907137
11.9267,317.704,-0.907207
11.9283,317.72,-0.90727
11.93,317.737,-0.90734
11.9317,317.754,-0.907414
11.9333,317.77,-0.907481
11.935,317.787,-0.907554
11.9367,317.804,-0.907634
11.9383,317.82,-0.907718
11.94,317.837,-0.907799
11.9417,317.854,-0.907882
11.9433,317.871,-0.907968
11.945,317.887,-0.908048
11.9467,317.904,-0.908143
11.9483,317.92,-0.908241
11.95,317.937,-0.908333
11.9517,317.953,-0.908416
11.9533,317.97,-0.908497
11.955,317.987,-0.908577
11.9567,318.004,-0.908645
11.9583,318.02,-0.908711
11.96,318.037,-0.908776
11.9617,318.054,-0.908838
11.9633,318.07,-0.908907
11.965,318.087,-0.908987
11.9667,318.104,-0.909074
11.9683,318.12,-0.909166
11.97,318.137,-0.909249
11.9717,318.153,-0.909339
11.9733,318.17,-0.909435
11.975,318.187,-0.909519
11.9767,318.203,-0.909606
11.9783,318.22,-0.909683
11.98,318.237,-0.909756
11.9817,318.253,-0.909829
11.9833,318.27,-0.909906
11.985,318.286,-0.909992
11.9867,318.303,-0.910084
11.9883,318.32,-0.910176
11.99,318.337,-0.910271
11.9917,318.353,-0.91037
11.9933,318.37,-0.910469
11.995,318.386,-0.910567
11.9967,318.403,-0.910664
11.9983,318.42,-0.910759
12,318.437,-0.910851
12.0017,318.453,-0.910936
12.0033,318.47,-0.911022
12.005,318.486,-0.911112
12.0067,318.503,-0.911197
12.0083,318.52,-0.911283
12.01,318.536,-0.911359
12.0117,318.553,-0.911432
12.0133,318.57,-0.911504
12.015,318.586,-0.911576
12.0167,318.603,-0.911649
12.0183,318.62,-0.911727
12.02,318.636,-0.911801
12.0217,318.653,-0.911877
12.0233,318.669,-0.911963
12.025,318.686,-0.912058
12.0267,318.703,-0.912154
12.0283,318.719,-0.912243
12.03,318.736,-0.912332
12.0317,318.753,-0.912416
12.0333,318.769,-0.912503
12.035,318.786,-0.912592
12.0367,318.803,-0.912678
12.0383,318.82,-0.91275
12.04,318.836,-0.912819
12.0417,318.853,-0.912896
12.0433,318.869,-0.912983
12.045,318.886,-0.91307
12.0467,318.903,-0.913151
12.0483,318.919,-0.913231
12.05,318.936,-0.913311
12.0517,318.953,-0.913404
12.0533,318.969,-0.913493
12.055,318.985,-0.913588
12.0567,319.002,-0.913681
12.0583,319.019,-0.913779
12.06,319.035,-0.913881
12.0617,319.052,-0.913988
12.0633,319.069,-0.91409
12.065,319.085,-0.914193
12.0667,319.102,-0.914294
12.0683,319.119,-0.914391
12.07,319.136,-0.914486
12.0717,319.152,-0.914574
12.0733,319.169,-0.91466
12.075,319.185,-0.914751
12.0767,319.202,-0.91485
12.0783,319.218,-0.914952
12.08,319.235,-0.915051
12.0817,319.252,-0.915149
12.0833,319.269,-0.915244
12.085,319.285,-0.915332
12.0867,319.302,-0.915418
12.0883,319.319,-0.915501
12.09,319.335,-0.915587
12.0917,319.352,-0.915678
12.0933,319.368,-0.915774
12.095,319.385,-0.915874
12.0967,319.402,-0.915982
12.0983,319.418,-0.916088
12.1,319.435,-0.916199
12.1017,319.452,-0.916312
12.1033,319.469,-0.916424
12.105,319.485,-0.916524
12.1067,319.502,-0.916614
12.1083,319.518,-0.9167
12.11,319.535,-0.916782
12.1117,319.551,-0.916857
12.1133,319.569,-0.916941
12.115,319.585,-0.917036
12.1167,319.601,-0.917135
12.1183,319.618,-0.91724
12.12,319.635,-0.917387
12.1217,319.652,-0.917508
12.1233,319.668,-0.917644
12.125,319.685,-0.917754
12.1267,319.701,-0.917851
12.1283,319.718,-0.917941
12.13,319.734,-0.918028
12.1317,319.751,-0.918115
12.1333,319.768,-0.918196
12.135,319.785,-0.918282
12.1367,319.801,-0.918372
12.1383,319.818,-0.918465
12.14,319.834,-0.91856
12.1417,319.851,-0.918655
12.1433,319.868,-0.918753
12.145,319.884,-0.918845
12.1467,319.901,-0.918937
12.1483,319.917,-0.919023
12.15,319.934,-0.919113
12.1517,319.951,-0.919205
12.1533,319.967,-0.919299
12.155,319.984,-0.919401
12.1567,320.001,-0.919515
12.1583,320.017,-0.919689
12.16,320.034,-0.919836
12.1617,320.051,-0.920037
12.1633,320.068,-0.920196
12.165,320.084,-0.920306
12.1667,320.101,-0.920415
12.1683,320.117,-0.920526
12.17,320.134,-0.920633
12.1717,320.151,-0.920739
12.1733,320.167,-0.92084
12.175,320.184,-0.920943
12.1767,320.201,-0.921052
12.1783,320.218,-0.921162
12.18,320.234,-0.921274
12.1817,320.251,-0.921386
12.1833,320.268,-0.921498
12.185,320.284,-0.921615
12.1867,320.301,-0.921726
12.1883,320.317,-0.921837
12.19,320.334,-0.921949
12.1917,320.351,-0.922064
12.1933,320.367,-0.922178
12.195,320.384,-0.922298
12.1967,320.401,-0.922422
12.1983,320.417,-0.922546
12.2,320.434,-0.922669
12.2017,320.45,-0.922786
12.2033,320.467,-0.922903
12.205,320.484,-0.923008
12.2067,320.5,-0.923112
12.2083,320.517,-0.923216
12.21,320.534,-0.923323
12.2117,320.55,-0.923435
12.2133,320.567,-0.923551
12.215,320.584,-0.923679
12.2167,320.601,-0.923806
12.2183,320.617,-0.923935
12.22,320.634,-0.92406
12.2217,320.651,-0.924183
12.2233,320.668,-0.924305
12.225,320.684,-0.924428
12.2267,320.701,-0.924548
12.2283,320.717,-0.924663
12.23,320.734,-0.924772
12.2317,320.751,-0.924887
12.2333,320.767,-0.925
12.235,320.784,-0.92511
12.2367,320.801,-0.925212
12.2383,320.817,-0.925316
12.24,320.834,-0.925418
12.2417,320.85,-0.925519
12.2433,320.867,-0.925625
12.245,320.884,-0.925748
12.2467,320.9,-0.925874
12.2483,320.917,-0.926096
12.25,320.933,-0.92639
12.2517,320.95,-0.926714
12.2533,320.967,-0.927184
12.255,320.984,-0.927698
12.2567,321,-0.928125
12.2583,321.017,-0.928403
12.26,321.034,-0.928545
12.2617,321.05,-0.92867
12.2633,321.067,-0.928794
12.265,321.083,-0.928911
12.2667,321.1,-0.929027
12.2683,321.116,-0.929138
12.27,321.133,-0.929246
12.2717,321.15,-0.929353
12.2733,321.167,-0.929467
12.275,321.184,-0.92958
12.2767,321.2,-0.929697
12.2783,321.217,-0.929816
12.28,321.233,-0.929935
12.2817,321.25,-0.930055
12.2833,321.266,-0.93018
12.285,321.283,-0.930308
12.2867,321.299,-0.930432
12.2883,321.316,-0.930562
12.29,321.332,-0.930689
12.2917,321.349,-0.930817
12.2933,321.366,-0.93095
12.295,321.382,-0.931079
12.2967,321.399,-0.931201
12.2983,321.415,-0.931323
12.3,321.432,-0.931454
12.3017,321.449,-0.931583
12.3033,321.466,-0.931717
12.305,321.482,-0.931851
12.3067,321.499,-0.931987
12.3083,321.516,-0.932126
12.31,321.533,-0.932296
12.3117,321.549,-0.932562
12.3133,321.565,-0.932892
12.315,321.582,-0.933394
12.3167,321.599,-0.933982
12.3183,321.615,-0.934512
12.32,321.632,-0.9348
12.3217,321.648,-0.935032
12.3233,321.665,-0.935168
12.325,321.681,-0.935383
12.3267,321.698,-0.935492
12.3283,321.714,-0.935586
12.33,321.731,-0.935677
12.3317,321.748,-0.935773
12.3333,321.764,-0.935876
12.335,321.781,-0.935987
12.3367,321.798,-0.936102
12.3383,321.815,-0.936217
12.34,321.831,-0.936337
12.3417,321.848,-0.936465
12.3433,321.865,-0.936591
12.345,321.881,-0.936718
12.3467,321.898,-0.936843
12.3483,321.914,-0.936972
12.35,321.931,-0.937107
12.3517,321.948,-0.93724
12.3533,321.964,-0.937366
12.355,321.981,-0.93749
12.3567,321.998,-0.937617
12.3583,322.015,-0.937743
12.36,322.031,-0.937869
12.3617,322.048,-0.937997
12.3633,322.065,-0.938128
12.365,322.081,-0.938265
12.3667,322.098,-0.938403
12.3683,322.115,-0.93869
12.37,322.131,-0.938986
12.3717,322.148,-0.939304
12.3733,322.164,-0.939593
12.375,322.181,-0.939802
12.3767,322.197,-0.940036
12.3783,322.214,-0.940261
12.38,322.231,-0.940462
12.3817,322.248,-0.940699
12.3833,322.264,-0.94097
12.385,322.281,-0.941388
12.3867,322.297,-0.941813
12.3883,322.314,-0.942267
12.39,322.331,-0.942769
12.3917,322.347,-0.943267
12.3933,322.364,-0.943734
12.395,322.381,-0.943999
12.3967,322.398,-0.944311
12.3983,322.414,-0.944489
12.4,322.431,-0.944625
12.4017,322.448,-0.944758
12.4033,322.464,-0.944892
12.405,322.481,-0.945029
12.4067,322.498,-0.94516
12.4083,322.514,-0.945295
12.41,322.531,-0.945427
12.4117,322.547,-0.945561
12.4133,322.564,-0.945698
12.415,322.58,-0.94596
12.4167,322.597,-0.946331
12.4183,322.613,-0.946835
12.42,322.63,-0.947356
12.4217,322.647,-0.948063
12.4233,322.664,-0.948708
12.425,322.681,-0.94923
12.4267,322.697,-0.949699
12.4283,322.714,-0.950059
12.43,322.73,-0.950422
12.4317,322.747,-0.950683
12.4333,322.764,-0.950951
12.435,322.78,-0.951364
12.4367,322.797,-0.951955
12.4383,322.813,-0.952606
12.44,322.83,-0.953139
12.4417,322.847,-0.953642
12.4433,322.863,-0.954015
12.445,322.88,-0.954459
12.4467,322.897,-0.954827
12.4483,322.914,-0.955108
12.45,322.93,-0.955306
12.4517,322.947,-0.955476
12.4533,322.963,-0.955605
12.455,322.98,-0.955739
12.4567,322.996,-0.955928
12.4583,323.013,-0.956069
12.46,323.029,-0.95623
12.4617,323.046,-0.956497
12.4633,323.063,-0.956901
12.465,323.08,-0.95733
12.4667,323.096,-0.957808
12.4683,323.113,-0.958403
12.47,323.13,-0.958997
12.4717,323.146,-0.95945
12.4733,323.163,-0.959805
12.475,323.18,-0.960113
12.4767,323.196,-0.960396
12.4783,323.213,-0.960629
12.48,323.229,-0.960834
12.4817,323.246,-0.961084
12.4833,323.263,-0.961292
12.485,323.28,-0.961649
12.4867,323.296,-0.962134
12.4883,323.313,-0.962682
12.49,323.329,-0.963129
12.4917,323.346,-0.963398
12.4933,323.363,-0.963549
12.495,323.38,-0.963709
12.4967,323.396,-0.963837
12.4983,323.413,-0.963964
12.5,323.429,-0.964097
12.5017,323.446,-0.964234
12.5033,323.463,-0.964424
12.505,323.479,-0.964773
12.5067,323.496,-0.96531
12.5083,323.513,-0.96589
12.51,323.53,-0.966594
12.5117,323.546,-0.967268
12.5133,323.563,-0.968031
12.515,323.579,-0.968594
12.5167,323.596,-0.969037
12.5183,323.613,-0.969603
12.52,323.629,-0.970095
12.5217,323.646,-0.970504
12.5233,323.662,-0.970959
12.525,323.679,-0.971424
12.5267,323.696,-0.971859
12.5283,323.712,-0.972293
12.53,323.729,-0.97287
12.5317,323.746,-0.973403
12.5333,323.762,-0.973922
12.535,323.779,-0.974567
12.5367,323.795,-0.975087
12.5383,323.812,-0.975684
12.54,323.829,-0.976482
12.5417,323.845,-0.977428
12.5433,323.862,-0.978302
12.545,323.878,-0.979405
12.5467,323.895,-0.980546
12.5483,323.912,-0.981378
12.55,323.929,-0.982049
12.5517,323.946,-0.982546
12.5533,323.962,-0.982892
12.555,323.979,-0.983132
12.5567,323.995,-0.983293
12.5583,324.012,-0.983485
12.56,324.029,-0.983663
12.5617,324.045,-0.983853
12.5633,324.062,-0.984105
12.565,324.078,-0.984509
12.5667,324.095,-0.984982
12.5683,324.112,-0.985444
12.57,324.128,-0.98585
12.5717,324.145,-0.98614
12.5733,324.161,-0.986521
12.575,324.178,-0.986783
12.5767,324.194,-0.986989
12.5783,324.211,-0.987259
12.58,324.228,-0.987524
12.5817,324.244,-0.987885
12.5833,324.261,-0.988455
12.585,324.277,-0.989081
12.5867,324.294,-0.990029
12.5883,324.311,-0.99114
12.59,324.327,-0.992273
12.5917,324.344,-0.993405
12.5933,324.361,-0.994308
12.595,324.378,-0.995171
12.5967,324.394,-0.996039
12.5983,324.411,-0.996957
12.6,324.428,-0.997903
12.6017,324.444,-0.998598
12.6033,324.461,-0.999152
12.605,324.477,-0.999721
12.6067,324.494,-1.00032
12.6083,324.511,-1.00098
12.61,324.527,-1.00152
12.6117,324.544,-1.00226
12.6133,324.56,-1.00312
12.615,324.577,-1.00423
12.6167,324.594,-1.00535
12.6183,324.61,-1.00634
12.62,324.626,-1.00754
12.6217,324.643,-1.00884
12.6233,324.66,-1.00998
12.625,324.677,-1.01091
12.6267,324.693,-1.01163
12.6283,324.71,-1.01222
12.63,324.727,-1.01291
12.6317,324.743,-1.01342
12.6333,324.76,-1.01382
12.635,324.776,-1.01419
12.6367,324.793,-1.01457
12.6383,324.809,-1.01502
12.64,324.826,-1.01559
12.6417,324.842,-1.01636
12.6433,324.859,-1.01734
12.645,324.876,-1.01821
12.6467,324.892,-1.01891
12.6483,324.909,-1.01975
12.65,324.926,-1.02082
12.6517,324.943,-1.02143
12.6533,324.959,-1.02211
12.655,324.976,-1.02295
12.6567,324.992,-1.02405
12.6583,325.009,-1.02543
12.66,325.026,-1.02712
12.6617,325.042,-1.02898
12.6633,325.059,-1.03085
12.665,325.075,-1.0323
12.6667,325.092,-1.03358
12.6683,325.109,-1.0348
12.67,325.125,-1.03572
12.6717,325.142,-1.03674
12.6733,325.159,-1.03772
12.675,325.175,-1.03853
12.6767,325.192,-1.03939
12.6783,325.209,-1.04027
12.68,325.225,-1.04116
12.6817,325.242,-1.04199
12.6833,325.258,-1.04274
12.685,325.275,-1.04368
12.6867,325.291,-1.04458
12.6883,325.308,-1.04535
12.69,325.325,-1.04618
12.6917,325.342,-1.04708
12.6933,325.358,-1.04813
12.695,325.375,-1.04902
12.6967,325.391,-1.05005
12.6983,325.408,-1.05129
12.7,325.424,-1.05236
12.7017,325.441,-1.05342
12.7033,325.457,-1.05441
12.705,325.474,-1.05542
12.7067,325.491,-1.0565
12.7083,325.507,-1.05761
12.71,325.524,-1.05906
12.7117,325.541,-1.06079
12.7133,325.557,-1.0622
12.715,325.573,-1.06329
12.7167,325.59,-1.06431
12.7183,325.607,-1.06548
12.72,325.623,-1.06659
12.7217,325.64,-1.06754
12.7233,325.657,-1.0685
12.725,325.673,-1.06947
12.7267,325.69,-1.07058
12.7283,325.706,-1.07179
12.73,325.723,-1.07296
12.7317,325.739,-1.07405
12.7333,325.755,-1.07538
12.735,325.772,-1.0767
12.7367,325.788,-1.0783
12.7383,325.806,-1.07956
12.74,325.822,-1.08067
12.7417,325.838,-1.08154
12.7433,325.855,-1.08233
12.745,325.872,-1.08311
12.7467,325.888,-1.08388
12.7483,325.905,-1.0846
12.75,325.921,-1.08545
12.7517,325.938,-1.08658
12.7533,325.955,-1.08793
12.755,325.971,-1.08973
12.7567,325.988,-1.09195
12.7583,326.005,-1.0945
12.76,326.021,-1.09676
12.7617,326.037,-1.09905
12.7633,326.054,-1.10099
12.765,326.071,-1.1026
12.7667,326.088,-1.10409
12.7683,326.104,-1.10583
12.77,326.121,-1.10725
12.7717,326.137,-1.10848
12.7733,326.154,-1.10946
12.775,326.17,-1.11074
12.7767,326.187,-1.11179
12.7783,326.204,-1.11318
12.78,326.22,-1.11472
12.7817,326.237,-1.11587
12.7833,326.253,-1.11682
12.785,326.27,-1.11783
12.7867,326.287,-1.11898
12.7883,326.303,-1.12024
12.79,326.32,-1.12146
12.7917,326.336,-1.123
12.7933,326.353,-1.12516
12.795,326.369,-1.1271
12.7967,326.386,-1.12907
12.7983,326.403,-1.1312
12.8,326.42,-1.13274
12.8017,326.436,-1.13418
12.8033,326.453,-1.13545
12.805,326.469,-1.13664
12.8067,326.486,-1.13775
12.8083,326.502,-1.13925
12.81,326.519,-1.14104
12.8117,326.535,-1.14303
12.8133,326.552,-1.14477
12.815,326.568,-1.14633
12.8167,326.585,-1.14809
12.8183,326.602,-1.14947
12.82,326.618,-1.15135
12.8217,326.635,-1.15304
12.8233,326.651,-1.15532
12.825,326.668,-1.15745
12.8267,326.684,-1.16057
12.8283,326.701,-1.16452
12.83,326.717,-1.16793
12.8317,326.734,-1.17059
12.8333,326.751,-1.17294
12.835,326.767,-1.17452
12.8367,326.784,-1.176
12.8383,326.8,-1.17754
12.84,326.817,-1.17818
12.8417,326.833,-1.17877
12.8433,326.849,-1.17976
12.845,326.866,-1.18121
12.8467,326.883,-1.18328
12.8483,326.899,-1.18616
12.85,326.916,-1.18895
12.8517,326.932,-1.19106
12.8533,326.949,-1.19332
12.855,326.965,-1.19607
12.8567,326.982,-1.19922
12.8583,326.998,-1.20144
12.86,327.015,-1.2038
12.8617,327.032,-1.20585
12.8633,327.048,-1.20798
12.865,327.064,-1.20975
12.8667,327.082,-1.21227
12.8683,327.098,-1.21449
12.87,327.114,-1.21686
12.8717,327.131,-1.22001
12.8733,327.148,-1.22234
12.875,327.164,-1.22565
12.8767,327.18,-1.22823
12.8783,327.197,-1.23062
12.88,327.214,-1.23261
12.8817,327.23,-1.23451
12.8833,327.247,-1.23659
12.885,327.263,-1.2392
12.8867,327.279,-1.24117
12.8883,327.296,-1.24288
12.89,327.312,-1.24526
12.8917,327.329,-1.24658
12.8933,327.345,-1.24807
12.895,327.362,-1.24984
12.8967,327.379,-1.25154
12.8983,327.395,-1.25322
12.9,327.411,-1.25528
12.9017,327.427,-1.25819
12.9033,327.444,-1.26174
12.905,327.461,-1.26514
12.9067,327.477,-1.26978
12.9083,327.494,-1.27339
12.91,327.511,-1.27574
12.9117,327.527,-1.27966
12.9133,327.544,-1.28293
12.915,327.561,-1.28602
12.9167,327.577,-1.28866
12.9183,327.594,-1.29176
12.92,327.61,-1.29454
12.9217,327.627,-1.29652
12.9233,327.643,-1.29912
12.925,327.659,-1.30266
12.9267,327.676,-1.30536
12.9283,327.692,-1.30817
12.93,327.709,-1.31192
12.9317,327.725,-1.31554
12.9333,327.742,-1.31932
12.935,327.758,-1.32303
12.9367,327.775,-1.32528
12.9383,327.791,-1.32827
12.94,327.807,-1.33065
12.9417,327.824,-1.33378
12.9433,327.84,-1.33556
12.945,327.857,-1.33855
12.9467,327.873,-1.34204
12.9483,327.89,-1.34454
12.95,327.906,-1.34818
12.9517,327.923,-1.35152
12.9533,327.94,-1.35454
12.955,327.956,-1.3587
12.9567,327.973,-1.36138
12.9583,327.989,-1.36315
12.96,328.005,-1.36682
12.9617,328.022,-1.37044
12.9633,328.038,-1.37355
12.965,328.054,-1.37643
12.9667,328.071,-1.37829
12.9683,328.087,-1.38142
12.97,328.103,-1.38567
12.9717,328.12,-1.38985
12.9733,328.136,-1.39362
12.975,328.153,-1.39558
12.9767,328.169,-1.39776
12.9783,328.185,-1.40072
12.98,328.202,-1.40378
12.9817,328.219,-1.40607
12.9833,328.235,-1.41027
12.985,328.252,-1.41375
12.9867,328.268,-1.4181
12.9883,328.284,-1.42147
12.99,328.301,-1.42709
12.9917,328.318,-1.43052
12.9933,328.334,-1.4341
12.995,328.351,-1.4384
12.9967,328.367,-1.44199
12.9983,328.383,-1.44527
13,328.4,-1.44821
13.0017,328.416,-1.45079
13.0033,328.433,-1.45428
13.005,328.449,-1.4591
13.0067,328.465,-1.46145
13.0083,328.482,-1.46362
13.01,328.498,-1.46646
13.0117,328.514,-1.47075
13.0133,328.531,-1.47369
13.015,328.547,-1.47707
13.0167,328.564,-1.48089
13.0183,328.58,-1.48545
13.02,328.597,-1.48842
13.0217,328.613,-1.49357
13.0233,328.63,-1.49784
13.025,328.646,-1.50124
13.0267,328.662,-1.50353
13.0283,328.679,-1.50635
13.03,328.695,-1.50927
13.0317,328.711,-1.51335
13.0333,328.728,-1.51695
13.035,328.744,-1.51893
13.0367,328.76,-1.52279
13.0383,328.777,-1.52547
13.04,328.793,-1.52905
13.0417,328.81,-1.53198
13.0433,328.826,-1.53519
13.045,328.842,-1.53958
13.0467,328.859,-1.54306
13.0483,328.875,-1.54565
13.05,328.891,-1.54947
13.0517,328.908,-1.55182
13.0533,328.924,-1.55495
13.055,328.94,-1.55789
13.0567,328.957,-1.56006
13.0583,328.974,-1.56264
13.06,328.99,-1.56603
13.0617,329.007,-1.5674
13.0633,329.023,-1.56916
13.065,329.04,-1.57098
13.0667,329.056,-1.57454
13.0683,329.072,-1.57742
13.07,329.089,-1.57917
13.0717,329.105,-1.58223
13.0733,329.122,-1.58531
13.075,329.138,-1.58686
13.0767,329.155,-1.58976
13.0783,329.171,-1.59014
13.08,329.187,-1.5907
13.0817,329.204,-1.59127
13.0833,329.22,-1.59136
13.085,329.237,-1.59145
13.0867,329.253,-1.59253
13.0883,329.27,-1.59326
13.09,329.286,-1.59414
13.0917,329.303,-1.59612
13.0933,329.319,-1.59878
13.095,329.336,-1.60277
13.0967,329.352,-1.60839
13.0983,329.368,-1.61395
13.1,329.385,-1.61782
13.1017,329.401,-1.61984
13.1033,329.418,-1.62101
13.105,329.434,-1.62184
13.1067,329.451,-1.62201
13.1083,329.467,-1.62228
13.11,329.483,-1.62233
13.1117,329.5,-1.62185
13.1133,329.516,-1.62119
13.115,329.533,-1.62119
13.1167,329.549,-1.62157
13.1183,329.566,-1.62189
13.12,329.583,-1.62173
13.1217,329.599,-1.62122
13.1233,329.616,-1.6208
13.125,329.632,-1.6205
13.1267,329.649,-1.62037
13.1283,329.665,-1.62025
13.13,329.682,-1.62017
13.1317,329.698,-1.62006
13.1333,329.715,-1.61988
13.135,329.731,-1.61967
13.1367,329.748,-1.61949
13.1383,329.764,-1.61757
13.14,329.781,-1.61584
13.1417,329.798,-1.61444
13.1433,329.814,-1.61335
13.145,329.831,-1.6124
13.1467,329.847,-1.61149
13.1483,329.864,-1.61066
13.15,329.881,-1.60949
13.1517,329.897,-1.60789
13.1533,329.914,-1.60616
13.155,329.93,-1.60445
13.1567,329.947,-1.60262
13.1583,329.964,-1.60045
13.16,329.98,-1.59819
13.1617,329.997,-1.59617
13.1633,330.013,-1.59414
13.165,330.03,-1.59216
13.1667,330.047,-1.58988
13.1683,330.064,-1.58752
13.17,330.081,-1.58512
13.1717,330.097,-1.58267
13.1733,330.114,-1.57989
13.175,330.131,-1.57682
13.1767,330.147,-1.5725
13.1783,330.164,-1.56798
13.18,330.18,-1.56339
13.1817,330.197,-1.55839
13.1833,330.214,-1.55283
13.185,330.23,-1.5462
13.1867,330.247,-1.53993
13.1883,330.264,-1.53414
13.19,330.281,-1.52803
13.1917,330.298,-1.5213
13.1933,330.314,-1.51632
13.195,330.331,-1.51093
13.1967,330.348,-1.50737
13.1983,330.365,-1.50278
13.2,330.381,-1.49973
13.2017,330.398,-1.4948
13.2033,330.415,-1.49012
13.205,330.431,-1.48462
13.2067,330.448,-1.47986
13.2083,330.465,-1.47541
13.21,330.482,-1.47097
13.2117,330.499,-1.46507
13.2133,330.516,-1.4597
13.215,330.533,-1.45515
13.2167,330.55,-1.44985
13.2183,330.567,-1.44499
13.22,330.584,-1.43882
13.2217,330.6,-1.43307
13.2233,330.617,-1.42671
13.225,330.634,-1.4206
13.2267,330.651,-1.41374
13.2283,330.668,-1.40785
13.23,330.685,-1.40261
13.2317,330.702,-1.39814
13.2333,330.719,-1.39329
13.235,330.736,-1.38819
13.2367,330.753,-1.38245
13.2383,330.77,-1.37633
13.24,330.787,-1.37029
13.2417,330.804,-1.36434
13.2433,330.821,-1.35767
13.245,330.837,-1.35059
13.2467,330.854,-1.34335
13.2483,330.871,-1.33882
13.25,330.888,-1.33375
13.2517,330.905,-1.32685
13.2533,330.922,-1.32075
13.255,330.939,-1.31579
13.2567,330.955,-1.31014
13.2583,330.972,-1.30433
13.26,330.989,-1.30062
13.2617,331.007,-1.29661
13.2633,331.023,-1.29171
13.265,331.04,-1.28732
13.2667,331.057,-1.2816
13.2683,331.074,-1.27615
13.27,331.091,-1.26942
13.2717,331.109,-1.26389
13.2733,331.126,-1.25749
13.275,331.142,-1.25134
13.2767,331.159,-1.24435
13.2783,331.177,-1.2376
13.28,331.194,-1.23215
13.2817,331.211,-1.22782
13.2833,331.228,-1.22248
13.285,331.245,-1.21755
13.2867,331.262,-1.21231
13.2883,331.279,-1.20857
13.29,331.296,-1.20317
13.2917,331.312,-1.1978
13.2933,331.33,-1.19295
13.295,331.346,-1.1891
13.2967,331.363,-1.18524
13.2983,331.381,-1.18117
13.3,331.397,-1.17524
13.3017,331.415,-1.17046
13.3033,331.432,-1.16438
13.305,331.449,-1.15805
13.3067,331.466,-1.15299
13.3083,331.483,-1.14847
13.31,331.5,-1.14338
13.3117,331.517,-1.13919
13.3133,331.534,-1.13481
13.315,331.551,-1.13007
13.3167,331.568,-1.12652
13.3183,331.585,-1.12142
13.32,331.602,-1.11584
13.3217,331.619,-1.11043
13.3233,331.636,-1.10437
13.325,331.653,-1.09824
13.3267,331.67,-1.09363
13.3283,331.687,-1.08967
13.33,331.704,-1.08697
13.3317,331.721,-1.08404
13.3333,331.737,-1.08203
13.335,331.755,-1.07983
13.3367,331.772,-1.07733
13.3383,331.789,-1.07576
13.34,331.806,-1.07286
13.3417,331.823,-1.06968
13.3433,331.84,-1.06573
13.345,331.857,-1.05908
13.3467,331.874,-1.05467
13.3483,331.891,-1.05113
13.35,331.908,-1.0459
13.3517,331.925,-1.04257
13.3533,331.941,-1.03995
13.355,331.958,-1.03675
13.3567,331.975,-1.03423
13.3583,331.992,-1.03242
13.36,332.009,-1.0283
13.3617,332.026,-1.02607
13.3633,332.043,-1.0222
13.365,332.06,-1.01866
13.3667,332.077,-1.01541
13.3683,332.094,-1.0127
13.37,332.111,-1.01005
13.3717,332.128,-1.00657
13.3733,332.145,-1.0046
13.375,332.162,-1.00114
13.3767,332.179,-0.999101
13.3783,332.196,-0.998084
13.38,332.213,-0.996387
13.3817,332.23,-0.993805
13.3833,332.247,-0.991266
13.385,332.263,-0.987994
13.3867,332.28,-0.984421
13.3883,332.297,-0.98196
13.39,332.314,-0.979175
13.3917,332.331,-0.976359
13.3933,332.348,-0.973241
13.395,332.365,-0.970446
13.3967,332.382,-0.968211
13.3983,332.399,-0.966526
13.4,332.416,-0.964971
13.4017,332.433,-0.963718
13.4033,332.449,-0.961777
13.405,332.466,-0.95951
13.4067,332.483,-0.957236
13.4083,332.5,-0.953848
13.41,332.517,-0.952609
13.4117,332.534,-0.950892
13.4133,332.551,-0.948767
13.415,332.567,-0.947586
13.4167,332.584,-0.94582
13.4183,332.601,-0.944979
13.42,332.618,-0.943961
13.4217,332.635,-0.943332
13.4233,332.652,-0.94133
13.425,332.668,-0.938942
13.4267,332.685,-0.935997
13.4283,332.702,-0.933776
13.43,332.719,-0.930415
13.4317,332.736,-0.928393
13.4333,332.752,-0.926938
13.435,332.769,-0.926513
13.4367,332.786,-0.926575
13.4383,332.803,-0.926587
13.44,332.82,-0.926001
13.4417,332.837,-0.925603
13.4433,332.854,-0.924859
13.445,332.871,-0.923859
13.4467,332.887,-0.922612
13.4483,332.904,-0.921216
13.45,332.921,-0.919224
13.4517,332.938,-0.917702
13.4533,332.955,-0.915867
13.455,332.972,-0.914137
13.4567,332.989,-0.912145
13.4583,333.005,-0.909507
13.46,333.022,-0.907925
13.4617,333.039,-0.906781
13.4633,333.055,-0.905825
13.465,333.073,-0.905304
13.4667,333.089,-0.905045
13.4683,333.106,-0.90448
13.47,333.123,-0.903934
13.4717,333.14,-0.90326
13.4733,333.156,-0.902125
13.475,333.173,-0.900446
13.4767,333.19,-0.899027
13.4783,333.207,-0.897995
13.48,333.224,-0.896781
13.4817,333.24,-0.895821
13.4833,333.257,-0.895148
13.485,333.274,-0.894763
13.4867,333.291,-0.8945
13.4883,333.308,-0.894247
13.49,333.324,-0.894012
13.4917,333.341,-0.893604
13.4933,333.358,-0.892883
13.495,333.375,-0.891995
13.4967,333.392,-0.891096
13.4983,333.408,-0.890192
13.5,333.425,-0.889093
13.5017,333.441,-0.888066
13.5033,333.458,-0.887271
13.505,333.475,-0.886572
13.5067,333.492,-0.886007
13.5083,333.508,-0.885214
13.51,333.525,-0.884525
13.5117,333.542,-0.883872
13.5133,333.559,-0.883343
13.515,333.576,-0.882682
13.5167,333.592,-0.882031
13.5183,333.609,-0.881123
13.52,333.626,-0.880198
13.5217,333.643,-0.879477
13.5233,333.66,-0.878949
13.525,333.676,-0.878453
13.5267,333.693,-0.878199
13.5283,333.71,-0.878
13.53,333.726,-0.877913
13.5317,333.743,-0.877821
13.5333,333.76,-0.877712
13.535,333.776,-0.877691
13.5367,333.793,-0.877628
13.5383,333.81,-0.877569
13.54,333.826,-0.877477
13.5417,333.843,-0.877358
13.5433,333.86,-0.87704
13.545,333.876,-0.876645
13.5467,333.893,-0.875881
13.5483,333.91,-0.875047
13.55,333.927,-0.874111
13.5517,333.944,-0.87291
13.5533,333.96,-0.871748
13.555,333.977,-0.870868
13.5567,333.994,-0.870258
13.5583,334.01,-0.869806
13.56,334.027,-0.869363
13.5617,334.043,-0.869018
13.5633,334.06,-0.868699
13.565,334.077,-0.868157
13.5667,334.094,-0.86766
13.5683,334.111,-0.867263
13.57,334.127,-0.866902
13.5717,334.144,-0.866624
13.5733,334.161,-0.866366
13.575,334.177,-0.866158
13.5767,334.194,-0.866035
13.5783,334.211,-0.86594
13.58,334.227,-0.865802
13.5817,334.244,-0.86571
13.5833,334.261,-0.865576
13.585,334.278,-0.865438
13.5867,334.294,-0.865289
13.5883,334.311,-0.865135
13.59,334.328,-0.865021
13.5917,334.344,-0.864892
13.5933,334.361,-0.864805
13.595,334.378,-0.864692
13.5967,334.394,-0.864591
13.5983,334.411,-0.86447
13.6,334.428,-0.864372
13.6017,334.445,-0.864272
13.6033,334.461,-0.864214
13.605,334.478,-0.864171
13.6067,334.495,-0.864119
13.6083,334.511,-0.864054
13.61,334.528,-0.864007
13.6117,334.545,-0.863971
13.6133,334.561,-0.863908
13.615,334.578,-0.863807
13.6167,334.595,-0.863695
13.6183,334.611,-0.863507
13.62,334.628,-0.863233
13.6217,334.645,-0.862828
13.6233,334.661,-0.862406
13.625,334.678,-0.862146
13.6267,334.695,-0.861867
13.6283,334.711,-0.861648
13.63,334.728,-0.86151
13.6317,334.745,-0.861423
13.6333,334.762,-0.861058
13.635,334.778,-0.860804
13.6367,334.795,-0.860525
13.6383,334.812,-0.860477
13.64,334.828,-0.860425
13.6417,334.845,-0.860375
13.6433,334.862,-0.860159
13.645,334.879,-0.860047
13.6467,334.895,-0.860001
13.6483,334.912,-0.85995
13.65,334.929,-0.859898
13.6517,334.945,-0.859843
13.6533,334.963,-0.859792
13.655,334.979,-0.859741
13.6567,334.996,-0.859693
13.6583,335.012,-0.859635
13.66,335.029,-0.859574
13.6617,335.046,-0.859512
13.6633,335.062,-0.859453
13.665,335.079,-0.859391
13.6667,335.096,-0.859326
13.6683,335.113,-0.859255
13.67,335.129,-0.859186
13.6717,335.146,-0.8591
13.6733,335.163,-0.858963
13.675,335.179,-0.858767
13.6767,335.196,-0.858582
13.6783,335.213,-0.858436
13.68,335.229,-0.858271
13.6817,335.246,-0.858084
13.6833,335.263,-0.857926
13.685,335.28,-0.857806
13.6867,335.296,-0.857712
13.6883,335.313,-0.857636
13.69,335.33,-0.857446
13.6917,335.346,-0.857365
13.6933,335.363,-0.857313
13.695,335.379,-0.85725
13.6967,335.396,-0.857153
13.6983,335.413,-0.857049
13.7,335.429,-0.856989
13.7017,335.446,-0.856922
13.7033,335.463,-0.856856
13.705,335.479,-0.856784
13.7067,335.496,-0.856715
13.7083,335.513,-0.856651
13.71,335.53,-0.856599
13.7117,335.546,-0.856542
13.7133,335.563,-0.856497
13.715,335.58,-0.856448
13.7167,335.597,-0.856402
13.7183,335.613,-0.856354
13.72,335.63,-0.856308
13.7217,335.646,-0.856261
13.7233,335.663,-0.856214
13.725,335.679,-0.856156
13.7267,335.696,-0.856091
13.7283,335.713,-0.856019
13.73,335.73,-0.855952
13.7317,335.746,-0.855881
13.7333,335.763,-0.855809
13.735,335.78,-0.855736
13.7367,335.796,-0.855659
13.7383,335.813,-0.855586
13.74,335.83,-0.855517
13.7417,335.846,-0.85545
13.7433,335.863,-0.855387
13.745,335.88,-0.85533
13.7467,335.896,-0.855282
13.7483,335.913,-0.855245
13.75,335.93,-0.855214
13.7517,335.946,-0.855181
13.7533,335.963,-0.855149
13.755,335.98,-0.855111
13.7567,335.996,-0.855074
13.7583,336.013,-0.855032
13.76,336.03,-0.854975
13.7617,336.046,-0.854899
13.7633,336.063,-0.854821
13.765,336.08,-0.854698
13.7667,336.096,-0.854558
13.7683,336.113,-0.854323
13.77,336.13,-0.854156
13.7717,336.146,-0.854072
13.7733,336.163,-0.853998
13.775,336.179,-0.853939
13.7767,336.196,-0.853897
13.7783,336.213,-0.853856
13.78,336.229,-0.853822
13.7817,336.246,-0.853785
13.7833,336.263,-0.853742
13.785,336.279,-0.85369
13.7867,336.296,-0.853631
13.7883,336.313,-0.853571
13.79,336.33,-0.853511
13.7917,336.346,-0.853447
13.7933,336.363,-0.853386
13.795,336.38,-0.853328
13.7967,336.397,-0.853271
13.7983,336.413,-0.853217
13.8,336.43,-0.853172
13.8017,336.446,-0.853133
13.8033,336.463,-0.853086
13.805,336.48,-0.853042
13.8067,336.496,-0.853001
13.8083,336.513,-0.852961
13.81,336.53,-0.852919
13.8117,336.546,-0.852885
13.8133,336.563,-0.852856
13.815,336.579,-0.852815
13.8167,336.596,-0.852761
13.8183,336.613,-0.852701
13.82,336.63,-0.852633
13.8217,336.646,-0.852563
13.8233,336.663,-0.852492
13.825,336.679,-0.852418
13.8267,336.696,-0.852348
13.8283,336.712,-0.852282
13.83,336.729,-0.852235
13.8317,336.746,-0.852201
13.8333,336.763,-0.852174
13.835,336.779,-0.852148
13.8367,336.796,-0.852121
13.8383,336.813,-0.852102
13.84,336.829,-0.852077
13.8417,336.846,-0.852043
13.8433,336.863,-0.851992
13.845,336.88,-0.85192
13.8467,336.896,-0.851845
13.8483,336.913,-0.851773
13.85,336.929,-0.851697
13.8517,336.946,-0.851617
13.8533,336.963,-0.851548
13.855,336.979,-0.851484
13.8567,336.996,-0.851435
13.8583,337.012,-0.851391
13.86,337.029,-0.851349
13.8617,337.046,-0.851311
13.8633,337.062,-0.851272
13.865,337.079,-0.851235
13.8667,337.096,-0.851196
13.8683,337.112,-0.851159
13.87,337.129,-0.851118
13.8717,337.146,-0.851079
13.8733,337.162,-0.851045
13.875,337.179,-0.851011
13.8767,337.196,-0.85097
13.8783,337.212,-0.850925
13.88,337.229,-0.850875
13.8817,337.245,-0.850828
13.8833,337.262,-0.850783
13.885,337.279,-0.850735
13.8867,337.295,-0.850697
13.8883,337.312,-0.850657
13.89,337.328,-0.850633
13.8917,337.345,-0.850606
13.8933,337.362,-0.850574
13.895,337.379,-0.850546
13.8967,337.395,-0.850516
13.8983,337.412,-0.850484
13.9,337.429,-0.850461
13.9017,337.446,-0.850434
13.9033,337.462,-0.850397
13.905,337.479,-0.850368
13.9067,337.495,-0.850336
13.9083,337.512,-0.850299
13.91,337.529,-0.850264
13.9117,337.545,-0.850233
13.9133,337.562,-0.850202
13.915,337.579,-0.850167
13.9167,337.595,-0.850138
13.9183,337.612,-0.850122
13.92,337.628,-0.850107
13.9217,337.645,-0.850081
13.9233,337.662,-0.850056
13.925,337.678,-0.850032
13.9267,337.695,-0.850004
13.9283,337.712,-0.849968
13.93,337.728,-0.849931
13.9317,337.745,-0.849898
13.9333,337.762,-0.849859
13.935,337.779,-0.849819
13.9367,337.795,-0.849785
13.9383,337.812,-0.849753
13.94,337.828,-0.849724
13.9417,337.845,-0.849702
13.9433,337.862,-0.849682
13.945,337.878,-0.849677
13.9467,337.895,-0.849669
13.9483,337.912,-0.849663
13.95,337.928,-0.849653
13.9517,337.945,-0.849637
13.9533,337.962,-0.849618
13.955,337.978,-0.849596
13.9567,337.995,-0.849572
13.9583,338.011,-0.849543
13.96,338.028,-0.849525
13.9617,338.045,-0.849513
13.9633,338.061,-0.849513
13.965,338.078,-0.84951
13.9667,338.095,-0.84951
13.9683,338.111,-0.849511
13.97,338.128,-0.849511
13.9717,338.145,-0.849506
13.9733,338.162,-0.849495
13.975,338.178,-0.849472
13.9767,338.195,-0.849438
13.9783,338.211,-0.849395
13.98,338.228,-0.849352
13.9817,338.245,-0.849304
13.9833,338.262,-0.849251
13.985,338.278,-0.849198
13.9867,338.295,-0.849138
13.9883,338.311,-0.849094
13.99,338.328,-0.849054
13.9917,338.344,-0.849018
13.9933,338.361,-0.848999
13.995,338.378,-0.848987
13.9967,338.395,-0.848986
13.9983,338.411,-0.848979
14,338.427,-0.848974
14.0017,338.445,-0.848972
14.0033,338.461,-0.848966
14.005,338.478,-0.848953
14.0067,338.494,-0.848937
14.0083,338.511,-0.848916
14.01,338.528,-0.848892
14.0117,338.544,-0.848875
14.0133,338.561,-0.848862
14.015,338.578,-0.848853
14.0167,338.594,-0.848853
14.0183,338.611,-0.848861
14.02,338.628,-0.848869
14.0217,338.645,-0.848869
14.0233,338.661,-0.848866
14.025,338.678,-0.848857
14.0267,338.694,-0.848842
14.0283,338.711,-0.848823
14.03,338.728,-0.848808
14.0317,338.744,-0.848786
14.0333,338.761,-0.848766
14.035,338.777,-0.848747
14.0367,338.794,-0.84873
14.0383,338.811,-0.848716
14.04,338.827,-0.848701
14.0417,338.844,-0.848685
14.0433,338.861,-0.848672
14.045,338.877,-0.848656
14.0467,338.894,-0.848629
14.0483,338.911,-0.84861
14.05,338.927,-0.848594
14.0517,338.944,-0.848577
14.0533,338.961,-0.848564
14.055,338.977,-0.848552
14.0567,338.994,-0.84854
14.0583,339.01,-0.848524
14.06,339.027,-0.848507
14.0617,339.044,-0.848484
14.0633,339.061,-0.84846
14.065,339.077,-0.848427
14.0667,339.094,-0.848394
14.0683,339.111,-0.848366
14.07,339.127,-0.848345
14.0717,339.144,-0.848334
14.0733,339.16,-0.848324
14.075,339.177,-0.848321
14.0767,339.194,-0.848317
14.0783,339.21,-0.848329
14.08,339.227,-0.848343
14.0817,339.244,-0.848356
14.0833,339.26,-0.848369
14.085,339.277,-0.848378
14.0867,339.294,-0.848377
14.0883,339.31,-0.848383
14.09,339.327,-0.848386
14.0917,339.344,-0.848378
14.0933,339.36,-0.848367
14.095,339.377,-0.848355
14.0967,339.393,-0.848341
14.0983,339.41,-0.848336
14.1,339.427,-0.848333
14.1017,339.444,-0.84833
14.1033,339.46,-0.848332
14.105,339.477,-0.84834
14.1067,339.493,-0.848358
14.1083,339.51,-0.848384
14.11,339.527,-0.848402
14.1117,339.544,-0.848419
14.1133,339.56,-0.848426
14.115,339.577,-0.848421
14.1167,339.594,-0.848402
14.1183,339.611,-0.848373
14.12,339.627,-0.848336
14.1217,339.643,-0.848307
14.1233,339.66,-0.848282
14.125,339.677,-0.848259
14.1267,339.693,-0.84825
14.1283,339.71,-0.848249
14.13,339.727,-0.84826
14.1317,339.743,-0.848271
14.1333,339.76,-0.848288
14.135,339.776,-0.848303
14.1367,339.793,-0.848312
14.1383,339.81,-0.848315
14.14,339.827,-0.848325
14.1417,339.844,-0.848326
14.1433,339.86,-0.848323
14.145,339.877,-0.848323
14.1467,339.893,-0.848318
14.1483,339.91,-0.848319
14.15,339.926,-0.848318
14.1517,339.943,-0.848321
14.1533,339.96,-0.848331
14.155,339.976,-0.848342
14.1567,339.993,-0.848354
14.1583,340.01,-0.848376
14.16,340.027,-0.848397
14.1617,340.044,-0.848416
14.1633,340.06,-0.848433
14.165,340.077,-0.848435
14.1667,340.093,-0.848436
14.1683,340.11,-0.84843
14.17,340.126,-0.848421
14.1717,340.143,-0.848411
14.1733,340.16,-0.848403
14.175,340.177,-0.848397
14.1767,340.193,-0.848395
14.1783,340.21,-0.848409
14.18,340.227,-0.84842
14.1817,340.243,-0.848427
14.1833,340.26,-0.848429
14.185,340.277,-0.848421
14.1867,340.293,-0.848412
14.1883,340.31,-0.848408
14.19,340.326,-0.848408
14.1917,340.342,-0.84841
14.1933,340.359,-0.84841
14.195,340.376,-0.848422
14.1967,340.392,-0.848441
14.1983,340.409,-0.848469
14.2,340.426,-0.848499
14.2017,340.442,-0.848531
14.2033,340.459,-0.848562
14.205,340.476,-0.848594
14.2067,340.493,-0.848612
14.2083,340.51,-0.848624
14.21,340.526,-0.848628
14.2117,340.543,-0.848622
14.2133,340.56,-0.848612
14.215,340.576,-0.848598
14.2167,340.593,-0.848584
14.2183,340.609,-0.848571
14.22,340.626,-0.848564
14.2217,340.642,-0.848567
14.2233,340.659,-0.848563
14.225,340.676,-0.848565
14.2267,340.692,-0.848568
14.2283,340.709,-0.84858
14.23,340.725,-0.848601
14.2317,340.742,-0.84863
14.2333,340.759,-0.848659
14.235,340.776,-0.848691
14.2367,340.793,-0.848725
14.2383,340.809,-0.848757
14.24,340.826,-0.848783
14.2417,340.842,-0.848798
14.2433,340.859,-0.8488
14.245,340.876,-0.848795
14.2467,340.893,-0.848788
14.2483,340.91,-0.848777
14.25,340.926,-0.848768
14.2517,340.943,-0.848769
14.2533,340.96,-0.848771
14.255,340.976,-0.848776
14.2567,340.993,-0.848785
14.2583,341.009,-0.848789
14.26,341.026,-0.848791
14.2617,341.043,-0.84878
14.2633,341.059,-0.848774
14.265,341.076,-0.848759
14.2667,341.092,-0.848747
14.2683,341.109,-0.848738
14.27,341.126,-0.848734
14.2717,341.142,-0.848732
14.2733,341.159,-0.848732
14.275,341.175,-0.848733
14.2767,341.192,-0.84874
14.2783,341.209,-0.848755
14.28,341.225,-0.848771
14.2817,341.242,-0.84879
14.2833,341.259,-0.848819
14.285,341.276,-0.848849
14.2867,341.292,-0.848878
14.2883,341.309,-0.848901
14.29,341.326,-0.848915
14.2917,341.342,-0.848929
14.2933,341.359,-0.848934
14.295,341.376,-0.848932
14.2967,341.392,-0.848925
14.2983,341.409,-0.848925
14.3,341.425,-0.84893
14.3017,341.442,-0.848935
14.3033,341.458,-0.848953
14.305,341.475,-0.848972
14.3067,341.492,-0.848994
14.3083,341.508,-0.849024
14.31,341.525,-0.849055
14.3117,341.541,-0.849076
14.3133,341.558,-0.849092
14.315,341.575,-0.849104
14.3167,341.591,-0.849101
14.3183,341.608,-0.849087
14.32,341.625,-0.849069
14.3217,341.641,-0.849032
14.3233,341.658,-0.849009
14.325,341.675,-0.848989
14.3267,341.691,-0.848974
14.3283,341.708,-0.848963
14.33,341.725,-0.848962
14.3317,341.741,-0.848969
14.3333,341.758,-0.848984
14.335,341.774,-0.848988
14.3367,341.791,-0.849003
14.3383,341.808,-0.849017
14.34,341.824,-0.849035
14.3417,341.841,-0.84905
14.3433,341.857,-0.849059
14.345,341.874,-0.849059
14.3467,341.89,-0.849058
14.3483,341.907,-0.849061
14.35,341.924,-0.849063
14.3517,341.941,-0.84907
14.3533,341.957,-0.849074
14.355,341.974,-0.849078
14.3567,341.991,-0.849091
14.3583,342.007,-0.849109
14.36,342.024,-0.849133
14.3617,342.04,-0.849161
14.3633,342.057,-0.849184
14.365,342.074,-0.849211
14.3667,342.091,-0.849232
14.3683,342.107,-0.849247
14.37,342.124,-0.849267
14.3717,342.141,-0.849286
14.3733,342.157,-0.849297
14.375,342.174,-0.849307
14.3767,342.19,-0.849322
14.3783,342.207,-0.849344
14.38,342.224,-0.849365
14.3817,342.24,-0.849389
14.3833,342.257,-0.849407
14.385,342.274,-0.849428
14.3867,342.291,-0.849453
14.3883,342.307,-0.849474
14.39,342.324,-0.849496
14.3917,342.341,-0.849515
14.3933,342.358,-0.849528
14.395,342.374,-0.849538
14.3967,342.391,-0.849545
14.3983,342.408,-0.849549
14.4,342.424,-0.849548
14.4017,342.44,-0.849546
14.4033,342.457,-0.849547
14.405,342.474,-0.849546
14.4067,342.491,-0.849545
14.4083,342.507,-0.849552
14.41,342.523,-0.849558
14.4117,342.54,-0.849563
14.4133,342.557,-0.849563
14.415,342.574,-0.84957
14.4167,342.59,-0.849584
14.4183,342.607,-0.849598
14.42,342.623,-0.849611
14.4217,342.64,-0.84963
14.4233,342.657,-0.849664
14.425,342.674,-0.849693
14.4267,342.691,-0.849723
14.4283,342.707,-0.849749
14.43,342.723,-0.849771
14.4317,342.74,-0.849794
14.4333,342.757,-0.849825
14.435,342.773,-0.84986
14.4367,342.79,-0.849888
14.4383,342.807,-0.849917
14.44,342.823,-0.849941
14.4417,342.84,-0.849974
14.4433,342.857,-0.850006
14.445,342.873,-0.850038
14.4467,342.89,-0.850069
14.4483,342.907,-0.850102
14.45,342.923,-0.850129
14.4517,342.94,-0.850158
14.4533,342.956,-0.850188
14.455,342.973,-0.850206
14.4567,342.99,-0.850221
14.4583,343.007,-0.850213
14.46,343.023,-0.850199
14.4617,343.04,-0.850188
14.4633,343.056,-0.850174
14.465,343.073,-0.850163
14.4667,343.09,-0.850165
14.4683,343.107,-0.850175
14.47,343.123,-0.850186
14.4717,343.14,-0.850206
14.4733,343.156,-0.85023
14.475,343.173,-0.850257
14.4767,343.19,-0.850285
14.4783,343.206,-0.850306
14.48,343.223,-0.850324
14.4817,343.24,-0.850345
14.4833,343.256,-0.850368
14.485,343.273,-0.850387
14.4867,343.29,-0.85041
14.4883,343.307,-0.850435
14.49,343.323,-0.850465
14.4917,343.34,-0.850494
14.4933,343.356,-0.850519
14.495,343.373,-0.85054
14.4967,343.389,-0.850565
14.4983,343.406,-0.850587
14.5,343.423,-0.850609
14.5017,343.439,-0.850635
14.5033,343.456,-0.850656
14.505,343.473,-0.850674
14.5067,343.489,-0.850687
14.5083,343.506,-0.850691
14.51,343.523,-0.850699
14.5117,343.539,-0.850695
14.5133,343.556,-0.85069
14.515,343.573,-0.85069
14.5167,343.589,-0.850685
14.5183,343.606,-0.850682
14.52,343.622,-0.850687
14.5217,343.639,-0.850697
14.5233,343.656,-0.850705
14.525,343.672,-0.850715
14.5267,343.689,-0.850727
14.5283,343.706,-0.850738
14.53,343.722,-0.850748
14.5317,343.739,-0.850777
14.5333,343.756,-0.850815
14.535,343.772,-0.850867
14.5367,343.789,-0.850911
14.5383,343.806,-0.850997
14.54,343.822,-0.851061
14.5417,343.839,-0.851108
14.5433,343.856,-0.851151
14.545,343.873,-0.851183
14.5467,343.889,-0.851203
14.5483,343.906,-0.851221
14.55,343.923,-0.851239
14.5517,343.939,-0.851254
14.5533,343.956,-0.851273
14.555,343.972,-0.851288
14.5567,343.989,-0.851305
14.5583,344.005,-0.851325
14.56,344.022,-0.851346
14.5617,344.039,-0.851365
14.5633,344.055,-0.85139
14.565,344.072,-0.85142
14.5667,344.089,-0.851443
14.5683,344.105,-0.851468
14.57,344.122,-0.851486
14.5717,344.139,-0.8515
14.5733,344.156,-0.851515
14.575,344.172,-0.851535
14.5767,344.189,-0.851555
14.5783,344.205,-0.851578
14.58,344.222,-0.851595
14.5817,344.239,-0.851616
14.5833,344.256,-0.851642
14.585,344.272,-0.851667
14.5867,344.289,-0.851695
14.5883,344.305,-0.851721
14.59,344.322,-0.851743
14.5917,344.339,-0.851765
14.5933,344.355,-0.851791
14.595,344.372,-0.851817
14.5967,344.389,-0.851835
14.5983,344.405,-0.851849
14.6,344.422,-0.851864
14.6017,344.439,-0.851879
14.6033,344.456,-0.851896
14.605,344.472,-0.851909
14.6067,344.489,-0.851929
14.6083,344.506,-0.851957
14.61,344.522,-0.851985
14.6117,344.539,-0.852013
14.6133,344.555,-0.85204
14.615,344.572,-0.852073
14.6167,344.589,-0.852108
14.6183,344.605,-0.852147
14.62,344.622,-0.852188
14.6217,344.639,-0.852222
14.6233,344.655,-0.852253
14.625,344.672,-0.852278
14.6267,344.688,-0.8523
14.6283,344.705,-0.852314
14.63,344.722,-0.852329
14.6317,344.738,-0.852332
14.6333,344.755,-0.852339
14.635,344.772,-0.852353
14.6367,344.788,-0.85237
14.6383,344.805,-0.852403
14.64,344.822,-0.852446
14.6417,344.839,-0.852493
14.6433,344.855,-0.852538
14.645,344.872,-0.852582
14.6467,344.889,-0.852624
14.6483,344.905,-0.852663
14.65,344.922,-0.852697
14.6517,344.938,-0.852728
14.6533,344.955,-0.852769
14.655,344.972,-0.852803
14.6567,344.988,-0.852834
14.6583,345.005,-0.852859
14.66,345.022,-0.852884
14.6617,345.038,-0.852921
14.6633,345.055,-0.852962
14.665,345.072,-0.853004
14.6667,345.088,-0.853047
14.6683,345.105,-0.853079
14.67,345.122,-0.853112
14.6717,345.139,-0.853143
14.6733,345.155,-0.853168
14.675,345.172,-0.853196
14.6767,345.189,-0.853227
14.6783,345.206,-0.853254
14.68,345.222,-0.853287
14.6817,345.238,-0.853315
14.6833,345.255,-0.853342
14.685,345.272,-0.853371
14.6867,345.289,-0.8534
14.6883,345.305,-0.853427
14.69,345.322,-0.853449
14.6917,345.339,-0.853468
14.6933,345.355,-0.853484
14.695,345.372,-0.853499
14.6967,345.389,-0.853511
14.6983,345.405,-0.853527
14.7,345.422,-0.853545
14.7017,345.439,-0.853567
14.7033,345.455,-0.853591
14.705,345.472,-0.853616
14.7067,345.489,-0.853641
14.7083,345.505,-0.853666
14.71,345.522,-0.853689
14.7117,345.539,-0.853706
14.7133,345.555,-0.853726
14.715,345.572,-0.853747
14.7167,345.589,-0.853778
14.7183,345.605,-0.85381
14.72,345.622,-0.853846
14.7217,345.639,-0.853881
14.7233,345.656,-0.853915
14.725,345.672,-0.853954
14.7267,345.689,-0.853997
14.7283,345.706,-0.854038
14.73,345.722,-0.854085
14.7317,345.739,-0.854132
14.7333,345.756,-0.854188
14.735,345.772,-0.854238
14.7367,345.789,-0.854288
14.7383,345.805,-0.854339
14.74,345.822,-0.854396
14.7417,345.839,-0.854443
14.7433,345.855,-0.854488
14.745,345.873,-0.854527
14.7467,345.889,-0.854563
14.7483,345.906,-0.854595
14.75,345.922,-0.854626
14.7517,345.939,-0.854657
14.7533,345.955,-0.854681
14.755,345.972,-0.854694
14.7567,345.989,-0.854712
14.7583,346.006,-0.854734
14.76,346.022,-0.854758
14.7617,346.039,-0.854785
14.7633,346.056,-0.85481
14.765,346.072,-0.854826
14.7667,346.089,-0.85485
14.7683,346.106,-0.854878
14.77,346.122,-0.854904
14.7717,346.139,-0.854933
14.7733,346.156,-0.854964
14.775,346.172,-0.855001
14.7767,346.189,-0.85505
14.7783,346.205,-0.855107
14.78,346.222,-0.855157
14.7817,346.239,-0.855201
14.7833,346.255,-0.855241
14.785,346.272,-0.855273
14.7867,346.289,-0.855294
14.7883,346.305,-0.855311
14.79,346.322,-0.855328
14.7917,346.339,-0.855341
14.7933,346.356,-0.855361
14.795,346.372,-0.855384
14.7967,346.389,-0.855406
14.7983,346.405,-0.855428
14.8,346.422,-0.855458
14.8017,346.438,-0.855504
14.8033,346.456,-0.855557
14.805,346.472,-0.855607
14.8067,346.489,-0.85565
14.8083,346.505,-0.855688
14.81,346.522,-0.85572
14.8117,346.539,-0.855746
14.8133,346.555,-0.855758
14.815,346.572,-0.855777
14.8167,346.589,-0.855793
14.8183,346.605,-0.855808
14.82,346.622,-0.855824
14.8217,346.639,-0.855844
14.8233,346.656,-0.855871
14.825,346.672,-0.8559
14.8267,346.689,-0.855935
14.8283,346.706,-0.855975
14.83,346.722,-0.856022
14.8317,346.739,-0.856074
14.8333,346.756,-0.856122
14.835,346.772,-0.856172
14.8367,346.789,-0.856219
14.8383,346.806,-0.856262
14.84,346.822,-0.856307
14.8417,346.839,-0.85634
14.8433,346.856,-0.856369
14.845,346.872,-0.856401
14.8467,346.889,-0.856431
14.8483,346.906,-0.856468
14.85,346.922,-0.856498
14.8517,346.939,-0.856526
14.8533,346.956,-0.856553
14.855,346.972,-0.856583
14.8567,346.989,-0.856608
14.8583,347.006,-0.856638
14.86,347.022,-0.856668
14.8617,347.039,-0.856693
14.8633,347.056,-0.856716
14.865,347.072,-0.856744
14.8667,347.089,-0.85678
14.8683,347.105,-0.856816
14.87,347.122,-0.856855
14.8717,347.139,-0.856902
14.8733,347.155,-0.856955
14.875,347.172,-0.857011
14.8767,347.189,-0.857061
14.8783,347.205,-0.857111
14.88,347.222,-0.857152
14.8817,347.239,-0.857191
14.8833,347.256,-0.857221
14.885,347.272,-0.857235
14.8867,347.289,-0.857247
14.8883,347.305,-0.857265
14.89,347.322,-0.857281
14.8917,347.339,-0.8573
14.8933,347.355,-0.857323
14.895,347.372,-0.857359
14.8967,347.389,-0.857391
14.8983,347.405,-0.857436
14.9,347.422,-0.857482
14.9017,347.439,-0.857529
14.9033,347.456,-0.857572
14.905,347.472,-0.857613
14.9067,347.489,-0.857646
14.9083,347.506,-0.857676
14.91,347.522,-0.857707
14.9117,347.539,-0.85774
14.9133,347.556,-0.857772
14.915,347.572,-0.857802
14.9167,347.589,-0.857829
14.9183,347.606,-0.857863
14.92,347.623,-0.857906
14.9217,347.639,-0.857951
14.9233,347.656,-0.858002
14.925,347.672,-0.858044
14.9267,347.689,-0.858085
14.9283,347.706,-0.858122
14.93,347.723,-0.858159
14.9317,347.739,-0.858193
14.9333,347.756,-0.858223
14.935,347.773,-0.858254
14.9367,347.789,-0.858284
14.9383,347.806,-0.858314
14.94,347.823,-0.85834
14.9417,347.839,-0.858373
14.9433,347.856,-0.858407
14.945,347.872,-0.858442
14.9467,347.889,-0.858478
14.9483,347.906,-0.858513
14.95,347.922,-0.858551
14.9517,347.939,-0.858589
14.9533,347.956,-0.858633
14.955,347.973,-0.858679
14.9567,347.989,-0.858726
14.9583,348.006,-0.858766
14.96,348.023,-0.858801
14.9617,348.04,-0.858844
14.9633,348.056,-0.858886
14.965,348.073,-0.858924
14.9667,348.09,-0.858961
14.9683,348.106,-0.858989
14.97,348.123,-0.859019
14.9717,348.14,-0.85905
14.9733,348.156,-0.859088
14.975,348.173,-0.859123
14.9767,348.19,-0.85915
14.9783,348.206,-0.859185
14.98,348.223,-0.859226
14.9817,348.24,-0.859266
14.9833,348.256,-0.859307
14.985,348.273,-0.859352
14.9867,348.289,-0.859389
14.9883,348.306,-0.859433
14.99,348.323,-0.859473
14.9917,348.339,-0.859519
14.9933,348.356,-0.859562
14.995,348.372,-0.859594
14.9967,348.389,-0.859625
14.9983,348.406,-0.859656
15,348.423,-0.859692
15.0017,348.439,-0.85973
15.0033,348.456,-0.859763
15.005,348.473,-0.859795
15.0067,348.49,-0.859828
15.0083,348.506,-0.859866
15.01,348.523,-0.859904
15.0117,348.54,-0.859931
15.0133,348.557,-0.859951
15.015,348.573,-0.859967
15.0167,348.59,-0.859984
15.0183,348.606,-0.860007
15.02,348.623,-0.860024
15.0217,348.64,-0.860041
15.0233,348.657,-0.86006
15.025,348.673,-0.860078
15.0267,348.69,-0.860103
15.0283,348.706,-0.86013
15.03,348.723,-0.860159
15.0317,348.74,-0.860175
15.0333,348.756,-0.860197
15.035,348.773,-0.860222
15.0367,348.79,-0.860253
15.0383,348.806,-0.860284
15.04,348.822,-0.860308
15.0417,348.839,-0.860328
15.0433,348.856,-0.860351
15.045,348.872,-0.860385
15.0467,348.889,-0.860424
15.0483,348.906,-0.860461
15.05,348.923,-0.860492
15.0517,348.939,-0.860516
15.0533,348.956,-0.860543
15.055,348.973,-0.860567
15.0567,348.99,-0.860592
15.0583,349.006,-0.860612
15.06,349.023,-0.860633
15.0617,349.04,-0.860662
15.0633,349.056,-0.860697
15.065,349.072,-0.860743
15.0667,349.089,-0.860792
15.0683,349.106,-0.860836
15.07,349.123,-0.860872
15.0717,349.139,-0.86091
15.0733,349.156,-0.86095
15.075,349.172,-0.860986
15.0767,349.189,-0.861019
15.0783,349.206,-0.861049
15.08,349.222,-0.861075
15.0817,349.239,-0.861103
15.0833,349.256,-0.861124
15.085,349.273,-0.861143
15.0867,349.289,-0.861145
15.0883,349.306,-0.861143
15.09,349.323,-0.861134
15.0917,349.339,-0.861122
15.0933,349.356,-0.86112
15.095,349.373,-0.861137
15.0967,349.389,-0.861158
15.0983,349.406,-0.8612
15.1,349.423,-0.861278
15.1017,349.44,-0.861425
15.1033,349.456,-0.86159
15.105,349.473,-0.861732
15.1067,349.49,-0.861809
15.1083,349.507,-0.861858
15.11,349.523,-0.861887
15.1117,349.54,-0.861893
15.1133,349.556,-0.861892
15.115,349.573,-0.86189
15.1167,349.589,-0.861887
15.1183,349.606,-0.861888
15.12,349.623,-0.861901
15.1217,349.639,-0.86192
15.1233,349.656,-0.861945
15.125,349.672,-0.861979
15.1267,349.69,-0.862018
15.1283,349.706,-0.862048
15.13,349.723,-0.862077
15.1317,349.74,-0.862105
15.1333,349.756,-0.862135
15.135,349.773,-0.862164
15.1367,349.789,-0.862194
15.1383,349.806,-0.862222
15.14,349.823,-0.862256
15.1417,349.84,-0.862288
15.1433,349.856,-0.862313
15.145,349.873,-0.862338
15.1467,349.889,-0.862361
15.1483,349.906,-0.86238
15.15,349.923,-0.862401
15.1517,349.939,-0.86243
15.1533,349.956,-0.862464
15.155,349.972,-0.862505
15.1567,349.989,-0.862548
15.1583,350.006,-0.862598
15.16,350.023,-0.862641
15.1617,350.039,-0.862672
15.1633,350.056,-0.862695
15.165,350.072,-0.862708
15.1667,350.089,-0.862712
15.1683,350.105,-0.862721
15.17,350.122,-0.862738
15.1717,350.139,-0.862751
15.1733,350.156,-0.86278
15.175,350.172,-0.862816
15.1767,350.189,-0.86286
15.1783,350.206,-0.862906
15.18,350.223,-0.862947
15.1817,350.239,-0.862991
15.1833,350.256,-0.863033
15.185,350.272,-0.863075
15.1867,350.289,-0.863119
15.1883,350.306,-0.863162
15.19,350.322,-0.863194
15.1917,350.339,-0.863222
15.1933,350.355,-0.863253
15.195,350.372,-0.863288
15.1967,350.389,-0.863321
15.1983,350.406,-0.863349
15.2,350.422,-0.863378
15.2017,350.439,-0.863415
15.2033,350.456,-0.863463
15.205,350.472,-0.863517
15.2067,350.489,-0.863566
15.2083,350.506,-0.86361
15.21,350.522,-0.863649
15.2117,350.539,-0.863688
15.2133,350.556,-0.863723
15.215,350.572,-0.86375
15.2167,350.589,-0.863763
15.2183,350.606,-0.863774
15.22,350.622,-0.863776
15.2217,350.639,-0.86378
15.2233,350.655,-0.863784
15.225,350.672,-0.863784
15.2267,350.689,-0.863787
15.2283,350.705,-0.863789
15.23,350.722,-0.863781
15.2317,350.739,-0.863783
15.2333,350.756,-0.863793
15.235,350.772,-0.86381
15.2367,350.789,-0.863832
15.2383,350.806,-0.863859
15.24,350.822,-0.863904
15.2417,350.839,-0.863956
15.2433,350.856,-0.864057
15.245,350.873,-0.86415
15.2467,350.889,-0.864208
15.2483,350.906,-0.864258
15.25,350.922,-0.864302
15.2517,350.939,-0.86435
15.2533,350.956,-0.864391
15.255,350.972,-0.864422
15.2567,350.989,-0.864449
15.2583,351.005,-0.864477
15.26,351.022,-0.864507
15.2617,351.039,-0.864534
15.2633,351.055,-0.864554
15.265,351.072,-0.864573
15.2667,351.089,-0.864601
15.2683,351.105,-0.864638
15.27,351.122,-0.864684
15.2717,351.139,-0.864732
15.2733,351.155,-0.864785
15.275,351.172,-0.864844
15.2767,351.188,-0.8649
15.2783,351.205,-0.864979
15.28,351.222,-0.865042
15.2817,351.238,-0.865103
15.2833,351.255,-0.865153
15.285,351.272,-0.865192
15.2867,351.289,-0.865234
15.2883,351.305,-0.865265
15.29,351.322,-0.865291
15.2917,351.339,-0.865319
15.2933,351.355,-0.865342
15.295,351.372,-0.865358
15.2967,351.389,-0.865371
15.2983,351.406,-0.865383
15.3,351.422,-0.865387
15.3017,351.439,-0.865388
15.3033,351.456,-0.865386
15.305,351.472,-0.865389
15.3067,351.489,-0.865394
15.3083,351.505,-0.865405
15.31,351.522,-0.865424
15.3117,351.539,-0.865455
15.3133,351.556,-0.865485
15.315,351.572,-0.865523
15.3167,351.589,-0.865566
15.3183,351.606,-0.86561
15.32,351.622,-0.865656
15.3217,351.639,-0.865704
15.3233,351.655,-0.865746
15.325,351.672,-0.865787
15.3267,351.688,-0.865812
15.3283,351.705,-0.865826
15.33,351.722,-0.865841
15.3317,351.738,-0.865842
15.3333,351.755,-0.865852
15.335,351.771,-0.865871
15.3367,351.788,-0.8659
15.3383,351.805,-0.865935
15.34,351.822,-0.865982
15.3417,351.839,-0.866035
15.3433,351.855,-0.866092
15.345,351.872,-0.866169
15.3467,351.888,-0.866229
15.3483,351.905,-0.866281
15.35,351.921,-0.866333
15.3517,351.938,-0.866379
15.3533,351.955,-0.866422
15.355,351.972,-0.866462
15.3567,351.988,-0.866503
15.3583,352.005,-0.866545
15.36,352.022,-0.866586
15.3617,352.039,-0.866619
15.3633,352.056,-0.866638
15.365,352.072,-0.866653
15.3667,352.089,-0.866671
15.3683,352.105,-0.866693
15.37,352.122,-0.866718
15.3717,352.138,-0.866736
15.3733,352.155,-0.866758
15.375,352.172,-0.866785
15.3767,352.189,-0.866806
15.3783,352.206,-0.866831
15.38,352.222,-0.866859
15.3817,352.239,-0.866889
15.3833,352.256,-0.866917
15.385,352.272,-0.866941
15.3867,352.289,-0.866962
15.3883,352.305,-0.866982
15.39,352.322,-0.867003
15.3917,352.338,-0.867023
15.3933,352.355,-0.867047
15.395,352.372,-0.867069
15.3967,352.388,-0.867086
15.3983,352.405,-0.867096
15.4,352.421,-0.867109
15.4017,352.438,-0.867118
15.4033,352.455,-0.867128
15.405,352.471,-0.867132
15.4067,352.488,-0.867157
15.4083,352.504,-0.867191
15.41,352.521,-0.867235
15.4117,352.538,-0.867287
15.4133,352.555,-0.867379
15.415,352.572,-0.867448
15.4167,352.588,-0.867503
15.4183,352.605,-0.867554
15.42,352.622,-0.867589
15.4217,352.638,-0.867605
15.4233,352.655,-0.867608
15.425,352.672,-0.867602
15.4267,352.688,-0.867596
15.4283,352.705,-0.86759
15.43,352.722,-0.867586
15.4317,352.738,-0.867598
15.4333,352.755,-0.867621
15.435,352.772,-0.867647
15.4367,352.788,-0.867686
15.4383,352.805,-0.867721
15.44,352.822,-0.867753
15.4417,352.838,-0.867791
15.4433,352.855,-0.86783
15.445,352.871,-0.867866
15.4467,352.888,-0.867909
15.4483,352.905,-0.867957
15.45,352.922,-0.867998
15.4517,352.938,-0.868037
15.4533,352.955,-0.868079
15.455,352.971,-0.868124
15.4567,352.988,-0.868166
15.4583,353.005,-0.868198
15.46,353.022,-0.868226
15.4617,353.038,-0.868252
15.4633,353.055,-0.868278
15.465,353.071,-0.868304
15.4667,353.088,-0.868326
15.4683,353.105,-0.868347
15.47,353.121,-0.868361
15.4717,353.138,-0.868385
15.4733,353.155,-0.868408
15.475,353.172,-0.868436
15.4767,353.188,-0.86847
15.4783,353.205,-0.86851
15.48,353.221,-0.868551
15.4817,353.238,-0.868599
15.4833,353.255,-0.868652
15.485,353.271,-0.868703
15.4867,353.288,-0.868747
15.4883,353.305,-0.868793
15.49,353.322,-0.868836
15.4917,353.338,-0.868879
15.4933,353.355,-0.868915
15.495,353.371,-0.868953
15.4967,353.388,-0.868999
15.4983,353.404,-0.869042
15.5,353.421,-0.86909
15.5017,353.438,-0.869138
15.5033,353.454,-0.869177
15.505,353.471,-0.869203
15.5067,353.488,-0.869226
15.5083,353.505,-0.869238
15.51,353.521,-0.869259
15.5117,353.538,-0.869262
15.5133,353.554,-0.869256
15.515,353.571,-0.869251
15.5167,353.588,-0.869249
15.5183,353.604,-0.869249
15.52,353.621,-0.869261
15.5217,353.637,-0.869288
15.5233,353.654,-0.869321
15.525,353.671,-0.869366
15.5267,353.688,-0.869412
15.5283,353.704,-0.869459
15.53,353.721,-0.869496
15.5317,353.738,-0.869523
15.5333,353.755,-0.869549
15.535,353.771,-0.869572
15.5367,353.788,-0.869598
15.5383,353.804,-0.869627
15.54,353.821,-0.869662
15.5417,353.838,-0.869694
15.5433,353.854,-0.869729
15.545,353.871,-0.869765
15.5467,353.888,-0.869794
15.5483,353.904,-0.86982
15.55,353.921,-0.869834
15.5517,353.938,-0.869858
15.5533,353.954,-0.869889
15.555,353.971,-0.869911
15.5567,353.988,-0.869926
15.5583,354.004,-0.869948
15.56,354.021,-0.869977
15.5617,354.038,-0.870006
15.5633,354.054,-0.870042
15.565,354.07,-0.87008
15.5667,354.087,-0.870122
15.5683,354.104,-0.870162
15.57,354.121,-0.870201
15.5717,354.137,-0.870241
15.5733,354.154,-0.870281
15.575,354.171,-0.870314
15.5767,354.188,-0.870352
15.5783,354.204,-0.870389
15.58,354.221,-0.870422
15.5817,354.238,-0.870456
15.5833,354.254,-0.870493
15.585,354.271,-0.870532
15.5867,354.288,-0.870564
15.5883,354.305,-0.870594
15.59,354.321,-0.870626
15.5917,354.337,-0.870655
15.5933,354.354,-0.870693
15.595,354.371,-0.870732
15.5967,354.388,-0.870766
15.5983,354.404,-0.870792
15.6,354.421,-0.870808
15.6017,354.438,-0.870824
15.6033,354.454,-0.870836
15.605,354.471,-0.870841
15.6067,354.487,-0.870847
15.6083,354.504,-0.870862
15.61,354.521,-0.870887
15.6117,354.537,-0.870921
15.6133,354.554,-0.870968
15.615,354.57,-0.871025
15.6167,354.587,-0.871095
15.6183,354.604,-0.871183
15.62,354.62,-0.871269
15.6217,354.637,-0.871326
15.6233,354.654,-0.871372
15.625,354.67,-0.871407
15.6267,354.687,-0.871436
15.6283,354.704,-0.871451
15.63,354.721,-0.871449
15.6317,354.737,-0.871438
15.6333,354.754,-0.871427
15.635,354.771,-0.871423
15.6367,354.787,-0.871416
15.6383,354.803,-0.871412
15.64,354.82,-0.871415
15.6417,354.837,-0.871428
15.6433,354.854,-0.871454
15.645,354.87,-0.871483
15.6467,354.887,-0.871521
15.6483,354.904,-0.871559
15.65,354.92,-0.871602
15.6517,354.937,-0.871649
15.6533,354.954,-0.871692
15.655,354.971,-0.871729
15.6567,354.987,-0.871762
15.6583,355.004,-0.871791
15.66,355.021,-0.871823
15.6617,355.037,-0.87186
15.6633,355.054,-0.871902
15.665,355.07,-0.871949
15.6667,355.087,-0.871996
15.6683,355.104,-0.87204
15.67,355.121,-0.872081
15.6717,355.137,-0.872119
15.6733,355.154,-0.872145
15.675,355.171,-0.872162
15.6767,355.187,-0.872169
15.6783,355.204,-0.872176
15.68,355.221,-0.872191
15.6817,355.237,-0.872208
15.6833,355.254,-0.872223
15.685,355.271,-0.872244
15.6867,355.287,-0.872277
15.6883,355.304,-0.87231
15.69,355.321,-0.872344
15.6917,355.337,-0.872385
15.6933,355.354,-0.872423
15.695,355.371,-0.872455
15.6967,355.387,-0.872487
15.6983,355.404,-0.872517
15.7,355.421,-0.872546
15.7017,355.437,-0.872573
15.7033,355.454,-0.872596
15.705,355.47,-0.872612
15.7067,355.487,-0.872629
15.7083,355.504,-0.872643
15.71,355.52,-0.872659
15.7117,355.537,-0.872675
15.7133,355.553,-0.872687
15.715,355.57,-0.872688
15.7167,355.587,-0.872689
15.7183,355.604,-0.872695
15.72,355.62,-0.872705
15.7217,355.637,-0.872721
15.7233,355.653,-0.872747
15.725,355.67,-0.872771
15.7267,355.687,-0.8728
15.7283,355.704,-0.872828
15.73,355.72,-0.872869
15.7317,355.737,-0.872914
15.7333,355.753,-0.872958
15.735,355.77,-0.873006
15.7367,355.787,-0.873059
15.7383,355.803,-0.873106
15.74,355.82,-0.873153
15.7417,355.837,-0.873194
15.7433,355.854,-0.873222
15.745,355.87,-0.873253
15.7467,355.887,-0.87328
15.7483,355.904,-0.873305
15.75,355.92,-0.873326
15.7517,355.937,-0.873333
15.7533,355.953,-0.873338
15.755,355.97,-0.873349
15.7567,355.987,-0.873365
15.7583,356.004,-0.873383
15.76,356.02,-0.873405
15.7617,356.037,-0.873432
15.7633,356.054,-0.873464
15.765,356.071,-0.873497
15.7667,356.087,-0.873536
15.7683,356.104,-0.87358
15.77,356.121,-0.87362
15.7717,356.138,-0.873653
15.7733,356.154,-0.873685
15.775,356.171,-0.873713
15.7767,356.188,-0.873745
15.7783,356.204,-0.873778
15.78,356.22,-0.873802
15.7817,356.237,-0.873816
15.7833,356.253,-0.873829
15.785,356.27,-0.87384
15.7867,356.287,-0.873856
15.7883,356.304,-0.873873
15.79,356.321,-0.873887
15.7917,356.337,-0.873892
15.7933,356.354,-0.873889
15.795,356.37,-0.873887
15.7967,356.387,-0.873892
15.7983,356.403,-0.873906
15.8,356.42,-0.873923
15.8017,356.437,-0.873944
15.8033,356.453,-0.873971
15.805,356.47,-0.873997
15.8067,356.486,-0.874026
15.8083,356.503,-0.874062
15.81,356.52,-0.8741
15.8117,356.536,-0.874137
15.8133,356.553,-0.874176
15.815,356.57,-0.874218
15.8167,356.586,-0.874263
15.8183,356.603,-0.874308
15.82,356.62,-0.874346
15.8217,356.636,-0.874382
15.8233,356.653,-0.87442
15.825,356.669,-0.874452
15.8267,356.686,-0.874478
15.8283,356.703,-0.874508
15.83,356.719,-0.874535
15.8317,356.736,-0.874561
15.8333,356.753,-0.874587
15.835,356.769,-0.874611
15.8367,356.786,-0.874643
15.8383,356.803,-0.87468
15.84,356.819,-0.874708
15.8417,356.836,-0.87475
15.8433,356.852,-0.874791
15.845,356.869,-0.874825
15.8467,356.886,-0.874867
15.8483,356.902,-0.874908
15.85,356.919,-0.874953
15.8517,356.936,-0.874989
15.8533,356.952,-0.875018
15.855,356.969,-0.875037
15.8567,356.986,-0.87505
15.8583,357.002,-0.875065
15.86,357.019,-0.875095
15.8617,357.035,-0.875123
15.8633,357.052,-0.875147
15.865,357.069,-0.875167
15.8667,357.085,-0.875183
15.8683,357.102,-0.875209
15.87,357.119,-0.875237
15.8717,357.135,-0.875255
15.8733,357.152,-0.875269
15.875,357.168,-0.87528
15.8767,357.185,-0.875291
15.8783,357.202,-0.875313
15.88,357.219,-0.875334
15.8817,357.235,-0.875361
15.8833,357.252,-0.875384
15.885,357.268,-0.875416
15.8867,357.285,-0.875447
15.8883,357.302,-0.875478
15.89,357.318,-0.875501
15.8917,357.335,-0.875518
15.8933,357.352,-0.875528
15.895,357.369,-0.875531
15.8967,357.385,-0.875524
15.8983,357.402,-0.875511
15.9,357.418,-0.875507
15.9017,357.435,-0.875504
15.9033,357.452,-0.875507
15.905,357.468,-0.875508
15.9067,357.485,-0.87552
15.9083,357.502,-0.875548
15.91,357.518,-0.875583
15.9117,357.535,-0.875607
15.9133,357.551,-0.875635
15.915,357.568,-0.875662
15.9167,357.584,-0.875692
15.9183,357.601,-0.875727
15.92,357.617,-0.875756
15.9217,357.634,-0.87579
15.9233,357.651,-0.875822
15.925,357.668,-0.875859
15.9267,357.685,-0.875898
15.9283,357.701,-0.87594
15.93,357.718,-0.875982
15.9317,357.735,-0.87602
15.9333,357.751,-0.87605
15.935,357.768,-0.876072
15.9367,357.785,-0.876092
15.9383,357.801,-0.876107
15.94,357.818,-0.876115
15.9417,357.835,-0.876125
15.9433,357.851,-0.876135
15.945,357.867,-0.876151
15.9467,357.884,-0.876167
15.9483,357.901,-0.876183
15.95,357.917,-0.876203
15.9517,357.934,-0.876222
15.9533,357.95,-0.876242
15.955,357.967,-0.87627
15.9567,357.984,-0.876299
15.9583,358,-0.87633
15.96,358.017,-0.876366
15.9617,358.034,-0.876404
15.9633,358.051,-0.876441
15.965,358.067,-0.876486
15.9667,358.084,-0.876525
15.9683,358.101,-0.876568
15.97,358.117,-0.876615
15.9717,358.134,-0.876658
15.9733,358.15,-0.876695
15.975,358.167,-0.876732
15.9767,358.184,-0.876771
15.9783,358.201,-0.876813
15.98,358.217,-0.876846
15.9817,358.234,-0.876881
15.9833,358.251,-0.876911
15.985,358.267,-0.87693
15.9867,358.284,-0.876943
15.9883,358.301,-0.876948
15.99,358.317,-0.876964
15.9917,358.334,-0.87698
15.9933,358.35,-0.876999
15.995,358.367,-0.877023
15.9967,358.383,-0.877046
15.9983,358.4,-0.877066
16,358.417,-0.877096
16.0017,358.433,-0.877132
16.0033,358.45,-0.877174
16.005,358.467,-0.877214
16.0067,358.484,-0.877243
16.0083,358.5,-0.877279
16.01,358.517,-0.87732
16.0117,358.534,-0.877361
16.0133,358.55,-0.8774
16.015,358.567,-0.877436
16.0167,358.584,-0.877476
16.0183,358.6,-0.877516
16.02,358.617,-0.877554
16.0217,358.634,-0.877596
16.0233,358.65,-0.877628
16.025,358.667,-0.877655
16.0267,358.683,-0.877667
16.0283,358.7,-0.877676
16.03,358.717,-0.877677
16.0317,358.733,-0.877681
16.0333,358.75,-0.877686
16.035,358.766,-0.877693
16.0367,358.783,-0.877709
16.0383,358.8,-0.877726
16.04,358.817,-0.877756
16.0417,358.834,-0.877788
16.0433,358.85,-0.877828
16.045,358.867,-0.877874
16.0467,358.883,-0.87793
16.0483,358.9,-0.877983
16.05,358.917,-0.878032
16.0517,358.933,-0.878083
16.0533,358.95,-0.878134
16.055,358.966,-0.87818
16.0567,358.983,-0.878216
16.0583,359,-0.878243
16.06,359.016,-0.878263
16.0617,359.033,-0.878269
16.0633,359.049,-0.878262
16.065,359.066,-0.878251
16.0667,359.083,-0.878238
16.0683,359.1,-0.878229
16.07,359.116,-0.878225
16.0717,359.133,-0.878232
16.0733,359.149,-0.878252
16.075,359.166,-0.878277
16.0767,359.182,-0.878306
16.0783,359.199,-0.87834
16.08,359.216,-0.878379
16.0817,359.232,-0.878426
16.0833,359.249,-0.878478
16.085,359.266,-0.878518
16.0867,359.282,-0.878557
16.0883,359.299,-0.878593
16.09,359.316,-0.878624
16.0917,359.333,-0.878646
16.0933,359.349,-0.878651
16.095,359.366,-0.878654
16.0967,359.382,-0.878662
16.0983,359.399,-0.878659
16.1,359.415,-0.878666
16.1017,359.432,-0.878674
16.1033,359.449,-0.878685
16.105,359.465,-0.878701
16.1067,359.482,-0.878728
16.1083,359.499,-0.878757
16.11,359.515,-0.878787
16.1117,359.531,-0.878812
16.1133,359.549,-0.878839
16.115,359.565,-0.878871
16.1167,359.582,-0.878915
16.1183,359.599,-0.878965
16.12,359.616,-0.879018
16.1217,359.632,-0.879066
16.1233,359.649,-0.879103
16.125,359.666,-0.879138
16.1267,359.682,-0.879166
16.1283,359.699,-0.879183
16.13,359.715,-0.879194
16.1317,359.732,-0.879195
16.1333,359.749,-0.879195
16.135,359.765,-0.879203
16.1367,359.782,-0.879211
16.1383,359.798,-0.879222
16.14,359.815,-0.879235
16.1417,359.832,-0.879253
16.1433,359.848,-0.879262
16.145,359.865,-0.879282
16.1467,359.881,-0.879304
16.1483,359.898,-0.87933
16.15,359.915,-0.879349
16.1517,359.932,-0.879367
16.1533,359.948,-0.879393
16.155,359.965,-0.879424
16.1567,359.981,-0.879453
16.1583,359.998,-0.879482
16.16,360.015,-0.87951
16.1617,360.032,-0.879541
16.1633,360.049,-0.879574
16.165,360.065,-0.879611
16.1667,360.082,-0.879643
16.1683,360.098,-0.879663
16.17,360.115,-0.879683
16.1717,360.132,-0.879709
16.1733,360.148,-0.879736
16.175,360.165,-0.879765
16.1767,360.181,-0.879787
16.1783,360.198,-0.879809
16.18,360.215,-0.879824
16.1817,360.231,-0.879843
16.1833,360.248,-0.879863
16.185,360.265,-0.879872
16.1867,360.282,-0.879875
16.1883,360.298,-0.879878
16.19,360.315,-0.879885
16.1917,360.331,-0.8799
16.1933,360.348,-0.879922
16.195,360.364,-0.879951
16.1967,360.381,-0.879986
16.1983,360.398,-0.880022
16.2,360.415,-0.880068
16.2017,360.431,-0.880113
16.2033,360.448,-0.880153
16.205,360.465,-0.880186
16.2067,360.481,-0.88021
16.2083,360.498,-0.880227
16.21,360.515,-0.880239
16.2117,360.531,-0.880248
16.2133,360.548,-0.880261
16.215,360.565,-0.880284
16.2167,360.581,-0.880311
16.2183,360.598,-0.880339
16.22,360.614,-0.88037
16.2217,360.631,-0.880396
16.2233,360.648,-0.880435
16.225,360.664,-0.88047
16.2267,360.681,-0.880498
16.2283,360.697,-0.880513
16.23,360.714,-0.880514
16.2317,360.731,-0.880508
16.2333,360.748,-0.880494
16.235,360.764,-0.880483
16.2367,360.781,-0.880476
16.2383,360.797,-0.880484
16.24,360.814,-0.880503
16.2417,360.831,-0.880518
16.2433,360.847,-0.880544
16.245,360.864,-0.880583
16.2467,360.881,-0.880615
16.2483,360.897,-0.880653
16.25,360.914,-0.880682
16.2517,360.93,-0.88071
16.2533,360.947,-0.880744
16.255,360.964,-0.88078
16.2567,360.981,-0.880818
16.2583,360.997,-0.880857
16.26,361.014,-0.880893
16.2617,361.031,-0.880925
16.2633,361.047,-0.880957
16.265,361.064,-0.880993
16.2667,361.081,-0.881029
16.2683,361.097,-0.88106
16.27,361.114,-0.881096
16.2717,361.13,-0.88113
16.2733,361.147,-0.881165
16.275,361.164,-0.8812
16.2767,361.181,-0.881229
16.2783,361.197,-0.881252
16.28,361.214,-0.881267
16.2817,361.231,-0.881274
16.2833,361.247,-0.881281
16.285,361.264,-0.881292
16.2867,361.28,-0.881299
16.2883,361.297,-0.881303
16.29,361.314,-0.88131
16.2917,361.33,-0.88133
16.2933,361.347,-0.881351
16.295,361.364,-0.881376
16.2967,361.38,-0.881403
16.2983,361.397,-0.88143
16.3,361.414,-0.881459
16.3017,361.43,-0.881482
16.3033,361.447,-0.881501
16.305,361.464,-0.881521
16.3067,361.481,-0.881542
16.3083,361.497,-0.881552
16.31,361.514,-0.881559
16.3117,361.531,-0.881571
16.3133,361.547,-0.881589
16.315,361.564,-0.881611
16.3167,361.58,-0.881631
16.3183,361.597,-0.881659
16.32,361.613,-0.88169
16.3217,361.63,-0.881724
16.3233,361.647,-0.881759
16.325,361.663,-0.881798
16.3267,361.68,-0.881843
16.3283,361.696,-0.881886
16.33,361.713,-0.881931
16.3317,361.73,-0.881973
16.3333,361.747,-0.88201
16.335,361.763,-0.882047
16.3367,361.78,-0.882081
16.3383,361.796,-0.882109
16.34,361.813,-0.882139
16.3417,361.83,-0.882163
16.3433,361.847,-0.882183
16.345,361.863,-0.882207
16.3467,361.88,-0.882232
16.3483,361.896,-0.882259
16.35,361.913,-0.88228
16.3517,361.93,-0.882301
16.3533,361.946,-0.882316
16.355,361.963,-0.882337
16.3567,361.979,-0.882358
16.3583,361.996,-0.88238
16.36,362.013,-0.882405
16.3617,362.03,-0.88243
16.3633,362.047,-0.882448
16.365,362.063,-0.882469
16.3667,362.08,-0.882493
16.3683,362.096,-0.882519
16.37,362.113,-0.882543
16.3717,362.129,-0.882567
16.3733,362.146,-0.882584
16.375,362.163,-0.882601
16.3767,362.18,-0.882612
16.3783,362.196,-0.88263
16.38,362.213,-0.88265
16.3817,362.23,-0.882654
16.3833,362.246,-0.882664
16.385,362.263,-0.882669
16.3867,362.279,-0.882665
16.3883,362.296,-0.882663
16.39,362.312,-0.882663
16.3917,362.329,-0.882673
16.3933,362.346,-0.882688
16.395,362.363,-0.882706
16.3967,362.38,-0.882724
16.3983,362.396,-0.882745
16.4,362.413,-0.882764
16.4017,362.429,-0.882787
16.4033,362.446,-0.882814
16.405,362.463,-0.882836
16.4067,362.48,-0.882853
16.4083,362.496,-0.882872
16.41,362.513,-0.882899
16.4117,362.53,-0.882929
16.4133,362.546,-0.882962
16.415,362.563,-0.883
16.4167,362.579,-0.883034
16.4183,362.596,-0.883071
16.42,362.613,-0.883111
16.4217,362.63,-0.883145
16.4233,362.646,-0.883169
16.425,362.663,-0.883182
16.4267,362.679,-0.883191
16.4283,362.696,-0.883203
16.43,362.712,-0.883208
16.4317,362.729,-0.883203
16.4333,362.746,-0.883204
16.435,362.762,-0.883212
16.4367,362.779,-0.883232
16.4383,362.795,-0.883263
16.44,362.812,-0.883299
16.4417,362.828,-0.88334
16.4433,362.845,-0.883387
16.445,362.862,-0.883436
16.4467,362.879,-0.883494
16.4483,362.896,-0.883548
16.45,362.912,-0.883604
16.4517,362.929,-0.883658
16.4533,362.945,-0.883702
16.455,362.962,-0.883734
16.4567,362.978,-0.883748
16.4583,362.995,-0.883752
16.46,363.012,-0.883756
16.4617,363.029,-0.883745
16.4633,363.046,-0.883709
16.465,363.062,-0.883671
16.4667,363.079,-0.883654
16.4683,363.096,-0.883643
16.47,363.112,-0.883639
16.4717,363.129,-0.883642
16.4733,363.145,-0.883649
16.475,363.162,-0.883659
16.4767,363.179,-0.88367
16.4783,363.195,-0.883687
16.48,363.212,-0.883698
16.4817,363.228,-0.883709
16.4833,363.245,-0.883717
16.485,363.262,-0.883723
16.4867,363.279,-0.883733
16.4883,363.295,-0.883747
16.49,363.312,-0.883766
16.4917,363.328,-0.883781
16.4933,363.345,-0.883806
16.495,363.362,-0.883833
16.4967,363.378,-0.883851
16.4983,363.395,-0.88387
16.5,363.412,-0.883888
16.5017,363.429,-0.883913
16.5033,363.445,-0.883945
16.505,363.462,-0.883983
16.5067,363.478,-0.884027
16.5083,363.495,-0.884085
16.51,363.512,-0.884129
16.5117,363.528,-0.884161
16.5133,363.545,-0.88419
16.515,363.562,-0.884219
16.5167,363.578,-0.884246
16.5183,363.595,-0.884281
16.52,363.612,-0.884323
16.5217,363.629,-0.88436
16.5233,363.645,-0.884389
16.525,363.662,-0.884417
16.5267,363.678,-0.884443
16.5283,363.695,-0.88447
16.53,363.712,-0.884498
16.5317,363.729,-0.884525
16.5333,363.745,-0.884553
16.535,363.762,-0.884571
16.5367,363.778,-0.884581
16.5383,363.795,-0.884585
16.54,363.812,-0.884581
16.5417,363.828,-0.884578
16.5433,363.845,-0.884566
16.545,363.862,-0.884567
16.5467,363.878,-0.884573
16.5483,363.895,-0.884579
16.55,363.912,-0.884596
16.5517,363.928,-0.884622
16.5533,363.945,-0.884654
16.555,363.962,-0.884693
16.5567,363.978,-0.884733
16.5583,363.995,-0.884774
16.56,364.012,-0.884815
16.5617,364.029,-0.884865
16.5633,364.045,-0.884919
16.565,364.062,-0.884969
16.5667,364.079,-0.885019
16.5683,364.095,-0.885073
16.57,364.112,-0.885118
16.5717,364.128,-0.885152
16.5733,364.145,-0.885187
16.575,364.161,-0.885216
16.5767,364.178,-0.885237
16.5783,364.195,-0.885263
16.58,364.211,-0.885288
16.5817,364.228,-0.885306
16.5833,364.245,-0.885316
16.585,364.262,-0.885319
16.5867,364.278,-0.885325
16.5883,364.295,-0.885334
16.59,364.312,-0.885342
16.5917,364.328,-0.885355
16.5933,364.345,-0.885371
16.595,364.362,-0.885384
16.5967,364.378,-0.885394
16.5983,364.395,-0.885398
16.6,364.412,-0.885393
16.6017,364.429,-0.885382
16.6033,364.445,-0.885363
16.605,364.462,-0.885343
16.6067,364.478,-0.885315
16.6083,364.495,-0.885289
16.61,364.511,-0.885283
16.6117,364.528,-0.8853
16.6133,364.545,-0.885329
16.615,364.561,-0.885371
16.6167,364.578,-0.885415
16.6183,364.595,-0.885465
16.62,364.611,-0.885544
16.6217,364.628,-0.885622
16.6233,364.645,-0.885682
16.625,364.661,-0.88573
16.6267,364.678,-0.885766
16.6283,364.695,-0.885798
16.63,364.711,-0.885824
16.6317,364.728,-0.88585
16.6333,364.745,-0.885876
16.635,364.761,-0.885899
16.6367,364.778,-0.885926
16.6383,364.794,-0.885963
16.64,364.811,-0.885996
16.6417,364.828,-0.886019
16.6433,364.845,-0.88604
16.645,364.861,-0.886066
16.6467,364.878,-0.886092
16.6483,364.895,-0.886111
16.65,364.911,-0.886129
16.6517,364.928,-0.886144
16.6533,364.945,-0.886162
16.655,364.961,-0.886178
16.6567,364.978,-0.886193
16.6583,364.995,-0.886213
16.66,365.011,-0.886234
16.6617,365.028,-0.886258
16.6633,365.044,-0.886285
16.665,365.061,-0.886314
16.6667,365.078,-0.886343
16.6683,365.094,-0.886367
16.67,365.111,-0.886378
16.6717,365.128,-0.886381
16.6733,365.145,-0.886379
16.675,365.161,-0.88637
16.6767,365.178,-0.886355
16.6783,365.194,-0.886345
16.68,365.211,-0.886339
16.6817,365.228,-0.88633
16.6833,365.244,-0.886319
16.685,365.261,-0.886307
16.6867,365.278,-0.886299
16.6883,365.295,-0.886293
16.69,365.311,-0.886286
16.6917,365.328,-0.886279
16.6933,365.345,-0.886275
16.695,365.361,-0.886279
16.6967,365.378,-0.88629
16.6983,365.394,-0.88631
16.7,365.411,-0.886334
16.7017,365.428,-0.886366
16.7033,365.444,-0.886391
16.705,365.461,-0.886419
16.7067,365.478,-0.886451
16.7083,365.494,-0.886485
16.71,365.511,-0.886518
16.7117,365.528,-0.886545
16.7133,365.544,-0.886569
16.715,365.561,-0.886595
16.7167,365.577,-0.886622
16.7183,365.595,-0.886646
16.72,365.611,-0.886667
16.7217,365.628,-0.88669
16.7233,365.644,-0.88671
16.725,365.661,-0.886732
16.7267,365.677,-0.886756
16.7283,365.694,-0.886776
16.73,365.711,-0.886798
16.7317,365.728,-0.88683
16.7333,365.744,-0.886854
16.735,365.761,-0.886867
16.7367,365.778,-0.886877
16.7383,365.794,-0.886886
16.74,365.811,-0.886899
16.7417,365.827,-0.886907
16.7433,365.844,-0.886918
16.745,365.86,-0.886935
16.7467,365.877,-0.886952
16.7483,365.894,-0.886971
16.75,365.91,-0.886995
16.7517,365.927,-0.887015
16.7533,365.944,-0.887034
16.755,365.96,-0.887057
16.7567,365.977,-0.887083
16.7583,365.994,-0.887113
16.76,366.01,-0.887136
16.7617,366.027,-0.887156
16.7633,366.044,-0.887163
16.765,366.06,-0.887167
16.7667,366.077,-0.887178
16.7683,366.093,-0.887177
16.77,366.11,-0.887169
16.7717,366.126,-0.887158
16.7733,366.143,-0.887147
16.775,366.16,-0.887142
16.7767,366.176,-0.887149
16.7783,366.192,-0.887168
16.78,366.209,-0.887191
16.7817,366.226,-0.887214
16.7833,366.243,-0.887238
16.785,366.259,-0.887267
16.7867,366.276,-0.887285
16.7883,366.292,-0.887283
16.79,366.309,-0.887282
16.7917,366.326,-0.887283
16.7933,366.342,-0.887285
16.795,366.359,-0.887284
16.7967,366.376,-0.887281
16.7983,366.392,-0.887282
16.8,366.409,-0.887292
16.8017,366.426,-0.887301
16.8033,366.442,-0.887316
16.805,366.459,-0.887336
16.8067,366.476,-0.887356
16.8083,366.493,-0.887376
16.81,366.509,-0.887396
16.8117,366.526,-0.887421
16.8133,366.543,-0.887445
16.815,366.56,-0.88747
16.8167,366.576,-0.88749
16.8183,366.593,-0.887511
16.82,366.61,-0.887539
16.8217,366.626,-0.887554
16.8233,366.643,-0.887571
16.825,366.659,-0.887586
16.8267,366.676,-0.887595
16.8283,366.692,-0.887606
16.83,366.709,-0.887624
16.8317,366.726,-0.887635
16.8333,366.742,-0.887657
16.835,366.759,-0.887682
16.8367,366.776,-0.88771
16.8383,366.793,-0.88774
16.84,366.809,-0.887774
16.8417,366.826,-0.887807
16.8433,366.843,-0.887831
16.845,366.859,-0.887851
16.8467,366.876,-0.88786
16.8483,366.893,-0.887881
16.85,366.91,-0.887898
16.8517,366.926,-0.887921
16.8533,366.943,-0.88795
16.855,366.96,-0.887986
16.8567,366.976,-0.88802
16.8583,366.993,-0.888051
16.86,367.01,-0.888078
16.8617,367.026,-0.888098
16.8633,367.043,-0.88812
16.865,367.06,-0.88813
16.8667,367.076,-0.888136
16.8683,367.093,-0.888142
16.87,367.11,-0.888147
16.8717,367.126,-0.888153
16.8733,367.143,-0.888161
16.875,367.159,-0.888166
16.8767,367.176,-0.888171
16.8783,367.193,-0.888182
16.88,367.21,-0.888198
16.8817,367.226,-0.888221
16.8833,367.243,-0.888245
16.885,367.259,-0.888282
16.8867,367.276,-0.888321
16.8883,367.293,-0.888359
16.89,367.309,-0.888394
16.8917,367.326,-0.888427
16.8933,367.343,-0.888449
16.895,367.359,-0.888463
16.8967,367.376,-0.888485
16.8983,367.392,-0.888498
16.9,367.409,-0.88851
16.9017,367.426,-0.888516
16.9033,367.442,-0.888534
16.905,367.459,-0.888546
16.9067,367.476,-0.888555
16.9083,367.492,-0.888565
16.91,367.509,-0.888578
16.9117,367.525,-0.888588
16.9133,367.542,-0.888602
16.915,367.559,-0.888603
16.9167,367.576,-0.8886
16.9183,367.592,-0.888595
16.92,367.609,-0.888592
16.9217,367.625,-0.888587
16.9233,367.642,-0.88858
16.925,367.659,-0.888575
16.9267,367.676,-0.888571
16.9283,367.692,-0.888578
16.93,367.708,-0.888596
16.9317,367.725,-0.888623
16.9333,367.742,-0.888655
16.935,367.758,-0.888688
16.9367,367.775,-0.888714
16.9383,367.792,-0.888734
16.94,367.808,-0.888747
16.9417,367.825,-0.888757
16.9433,367.842,-0.888769
16.945,367.858,-0.888777
16.9467,367.876,-0.888783
16.9483,367.892,-0.888786
16.95,367.908,-0.888795
16.9517,367.925,-0.888798
16.9533,367.942,-0.888803
16.955,367.958,-0.888806
16.9567,367.975,-0.888809
16.9583,367.991,-0.88881
16.96,368.008,-0.888813
16.9617,368.025,-0.888823
16.9633,368.041,-0.888833
16.965,368.058,-0.888847
16.9667,368.075,-0.888861
16.9683,368.092,-0.888879
16.97,368.108,-0.888895
16.9717,368.125,-0.888912
16.9733,368.142,-0.888924
16.975,368.159,-0.888932
16.9767,368.175,-0.888946
16.9783,368.192,-0.888961
16.98,368.208,-0.888975
16.9817,368.225,-0.888985
16.9833,368.242,-0.889002
16.985,368.258,-0.889023
16.9867,368.275,-0.889048
16.9883,368.292,-0.889079
16.99,368.309,-0.889102
16.9917,368.326,-0.889119
16.9933,368.342,-0.889137
16.995,368.359,-0.889154
16.9967,368.376,-0.889165
16.9983,368.392,-0.88918
17,368.409,-0.889199
17.0017,368.425,-0.889224
17.0033,368.442,-0.889264
17.005,368.459,-0.889305
17.0067,368.475,-0.88934
17.0083,368.492,-0.889368
17.01,368.509,-0.889393
17.0117,368.525,-0.889419
17.0133,368.542,-0.889446
17.015,368.559,-0.88946
17.0167,368.576,-0.889475
17.0183,368.592,-0.889496
17.02,368.609,-0.889519
17.0217,368.625,-0.889546
17.0233,368.642,-0.889585
17.025,368.659,-0.889626
17.0267,368.676,-0.889661
17.0283,368.692,-0.88969
17.03,368.709,-0.889725
17.0317,368.725,-0.889759
17.0333,368.742,-0.889788
17.035,368.759,-0.88981
17.0367,368.776,-0.889827
17.0383,368.792,-0.88984
17.04,368.809,-0.889848
17.0417,368.826,-0.889864
17.0433,368.842,-0.889881
17.045,368.859,-0.889901
17.0467,368.876,-0.889918
17.0483,368.892,-0.889934
17.05,368.909,-0.889956
17.0517,368.925,-0.889978
17.0533,368.942,-0.88999
17.055,368.959,-0.890008
17.0567,368.975,-0.890022
17.0583,368.992,-0.890036
17.06,369.008,-0.890049
17.0617,369.025,-0.890065
17.0633,369.042,-0.890078
17.065,369.059,-0.890095
17.0667,369.075,-0.89011
17.0683,369.092,-0.890126
17.07,369.109,-0.890144
17.0717,369.125,-0.89015
17.0733,369.142,-0.890154
17.075,369.159,-0.890152
17.0767,369.175,-0.890148
17.0783,369.192,-0.890146
17.08,369.209,-0.890144
17.0817,369.225,-0.890142
17.0833,369.242,-0.890148
17.085,369.259,-0.890163
17.0867,369.275,-0.890188
17.0883,369.292,-0.890218
17.09,369.308,-0.890254
17.0917,369.325,-0.890294
17.0933,369.342,-0.89033
17.095,369.359,-0.890358
17.0967,369.375,-0.890386
17.0983,369.391,-0.890402
17.1,369.408,-0.890419
17.1017,369.425,-0.890428
17.1033,369.442,-0.890435
17.105,369.458,-0.890427
17.1067,369.475,-0.89041
17.1083,369.492,-0.890387
17.11,369.508,-0.890356
17.1117,369.525,-0.890328
17.1133,369.542,-0.890303
17.115,369.558,-0.89029
17.1167,369.575,-0.890286
17.1183,369.591,-0.890306
17.12,369.608,-0.890334
17.1217,369.625,-0.890368
17.1233,369.641,-0.890408
17.125,369.658,-0.890448
17.1267,369.675,-0.890487
17.1283,369.691,-0.890521
17.13,369.708,-0.890551
17.1317,369.724,-0.890569
17.1333,369.741,-0.890572
17.135,369.758,-0.890559
17.1367,369.775,-0.890543
17.1383,369.791,-0.890536
17.14,369.808,-0.890535
17.1417,369.824,-0.890542
17.1433,369.841,-0.890545
17.145,369.858,-0.89055
17.1467,369.875,-0.890557
17.1483,369.891,-0.89057
17.15,369.908,-0.890582
17.1517,369.924,-0.890584
17.1533,369.941,-0.890583
17.155,369.958,-0.890577
17.1567,369.974,-0.890574
17.1583,369.991,-0.890576
17.16,370.008,-0.890589
17.1617,370.024,-0.890609
17.1633,370.041,-0.890626
17.165,370.057,-0.890649
17.1667,370.074,-0.890673
17.1683,370.09,-0.890692
17.17,370.107,-0.890715
17.1717,370.124,-0.890727
17.1733,370.141,-0.89074
17.175,370.157,-0.89075
17.1767,370.174,-0.890758
17.1783,370.19,-0.890769
17.18,370.207,-0.890776
17.1817,370.224,-0.890783
17.1833,370.24,-0.89079
17.185,370.257,-0.890801
17.1867,370.273,-0.890812
17.1883,370.29,-0.890835
17.19,370.307,-0.890851
17.1917,370.324,-0.890865
17.1933,370.34,-0.890875
17.195,370.357,-0.890882
17.1967,370.374,-0.890894
17.1983,370.39,-0.890904
17.2,370.407,-0.89092
17.2017,370.423,-0.890942
17.2033,370.44,-0.890966
17.205,370.457,-0.890987
17.2067,370.473,-0.891006
17.2083,370.49,-0.891023
17.21,370.507,-0.891032
17.2117,370.524,-0.891023
17.2133,370.54,-0.89101
17.215,370.557,-0.890991
17.2167,370.573,-0.890971
17.2183,370.59,-0.890955
17.22,370.607,-0.890944
17.2217,370.623,-0.890942
17.2233,370.64,-0.890947
17.225,370.657,-0.890962
17.2267,370.673,-0.890981
17.2283,370.69,-0.891004
17.23,370.707,-0.891022
17.2317,370.723,-0.891045
17.2333,370.74,-0.891065
17.235,370.757,-0.891076
17.2367,370.774,-0.89108
17.2383,370.79,-0.89109
17.24,370.807,-0.891099
17.2417,370.823,-0.89111
17.2433,370.84,-0.891122
17.245,370.857,-0.891138
17.2467,370.873,-0.891156
17.2483,370.89,-0.891165
17.25,370.907,-0.891179
17.2517,370.923,-0.891198
17.2533,370.94,-0.891217
17.255,370.957,-0.891214
17.2567,370.974,-0.891211
17.2583,370.99,-0.891207
17.26,371.007,-0.891204
17.2617,371.023,-0.891205
17.2633,371.04,-0.891203
17.265,371.057,-0.891204
17.2667,371.074,-0.891206
17.2683,371.09,-0.891214
17.27,371.107,-0.891227
17.2717,371.123,-0.891246
17.2733,371.14,-0.891268
17.275,371.157,-0.891285
17.2767,371.174,-0.891312
17.2783,371.19,-0.891348
17.28,371.207,-0.89139
17.2817,371.223,-0.891425
17.2833,371.24,-0.891461
17.285,371.257,-0.891489
17.2867,371.273,-0.891516
17.2883,371.29,-0.891544
17.29,371.306,-0.891568
17.2917,371.323,-0.891581
17.2933,371.339,-0.89158
17.295,371.356,-0.891571
17.2967,371.373,-0.891562
17.2983,371.389,-0.891554
17.3,371.406,-0.891547
17.3017,371.423,-0.891534
17.3033,371.44,-0.891522
17.305,371.456,-0.891512
17.3067,371.473,-0.891507
17.3083,371.49,-0.891519
17.31,371.506,-0.891522
17.3117,371.523,-0.891535
17.3133,371.54,-0.891547
17.315,371.556,-0.891567
17.3167,371.573,-0.891601
17.3183,371.59,-0.891643
17.32,371.606,-0.891687
17.3217,371.623,-0.891723
17.3233,371.64,-0.89176
17.325,371.656,-0.891799
17.3267,371.672,-0.891834
17.3283,371.689,-0.891869
17.33,371.706,-0.891898
17.3317,371.723,-0.89192
17.3333,371.739,-0.891936
17.335,371.756,-0.891936
17.3367,371.773,-0.891934
17.3383,371.789,-0.891939
17.34,371.806,-0.891944
17.3417,371.823,-0.89194
17.3433,371.839,-0.891938
17.345,371.856,-0.891937
17.3467,371.872,-0.891942
17.3483,371.889,-0.891952
17.35,371.906,-0.891969
17.3517,371.922,-0.891983
17.3533,371.939,-0.891992
17.355,371.956,-0.892002
17.3567,371.972,-0.892017
17.3583,371.989,-0.892031
17.36,372.005,-0.892042
17.3617,372.022,-0.892049
17.3633,372.039,-0.89205
17.365,372.056,-0.892046
17.3667,372.072,-0.892038
17.3683,372.089,-0.892029
17.37,372.106,-0.892027
17.3717,372.122,-0.892026
17.3733,372.139,-0.892026
17.375,372.155,-0.892035
17.3767,372.172,-0.892044
17.3783,372.189,-0.892056
17.38,372.206,-0.892066
17.3817,372.222,-0.892082
17.3833,372.239,-0.892105
17.385,372.256,-0.892133
17.3867,372.272,-0.892153
17.3883,372.289,-0.892178
17.39,372.306,-0.892208
17.3917,372.323,-0.892232
17.3933,372.339,-0.892257
17.395,372.356,-0.892278
17.3967,372.372,-0.892298
17.3983,372.389,-0.892308
17.4,372.406,-0.892319
17.4017,372.423,-0.892329
17.4033,372.439,-0.892337
17.405,372.456,-0.892344
17.4067,372.472,-0.892342
17.4083,372.489,-0.892341
17.41,372.505,-0.892348
17.4117,372.522,-0.892366
17.4133,372.539,-0.892376
17.415,372.555,-0.892385
17.4167,372.572,-0.892395
17.4183,372.589,-0.892414
17.42,372.605,-0.892442
17.4217,372.622,-0.892467
17.4233,372.638,-0.892496
17.425,372.655,-0.892516
17.4267,372.672,-0.892522
17.4283,372.688,-0.892531
17.43,372.705,-0.892537
17.4317,372.722,-0.892537
17.4333,372.738,-0.892535
17.435,372.755,-0.892527
17.4367,372.772,-0.892506
17.4383,372.788,-0.892481
17.44,372.805,-0.892453
17.4417,372.822,-0.892423
17.4433,372.839,-0.892394
17.445,372.855,-0.892365
17.4467,372.872,-0.892343
17.4483,372.889,-0.892324
17.45,372.905,-0.892313
17.4517,372.922,-0.892314
17.4533,372.938,-0.892324
17.455,372.955,-0.892325
17.4567,372.971,-0.892321
17.4583,372.988,-0.892317
17.46,373.005,-0.89232
17.4617,373.021,-0.892319
17.4633,373.039,-0.892317
17.465,373.055,-0.892321
17.4667,373.072,-0.892321
17.4683,373.088,-0.892325
17.47,373.105,-0.892343
17.4717,373.121,-0.892366
17.4733,373.138,-0.892389
17.475,373.155,-0.892408
17.4767,373.171,-0.892438
17.4783,373.188,-0.892469
17.48,373.205,-0.892501
17.4817,373.221,-0.892533
17.4833,373.238,-0.892559
17.485,373.255,-0.892586
17.4867,373.272,-0.892604
17.4883,373.288,-0.892622
17.49,373.305,-0.892628
17.4917,373.321,-0.892631
17.4933,373.338,-0.892633
17.495,373.354,-0.892637
17.4967,373.371,-0.892636
17.4983,373.388,-0.89263
17.5,373.404,-0.89262
17.5017,373.421,-0.892609
17.5033,373.437,-0.892594
17.505,373.454,-0.892575
