Ramp 10.00 °C/min to 375.00 °C,,
Time,Temperature,Heat Flow (Normalized)
min,°C,W/g
5.005,249.861,-0.212198
5.00667,249.861,-0.212198
5.00833,249.861,-0.212198
5.01,249.861,-0.21219
5.01167,249.861,-0.21218
5.01333,249.861,-0.212177
5.015,249.86,-0.212186
5.01667,249.861,-0.212196
5.01833,249.861,-0.212213
5.02,249.861,-0.212233
5.02167,249.861,-0.212254
5.02333,249.861,-0.212277
5.025,249.862,-0.212305
5.02667,249.862,-0.212338
5.02833,249.863,-0.21237
5.03,249.863,-0.212403
5.03167,249.864,-0.212432
5.03333,249.864,-0.212468
5.035,249.865,-0.212509
5.03667,249.866,-0.212568
5.03833,249.866,-0.212681
5.04,249.867,-0.212822
5.04167,249.869,-0.212938
5.04333,249.87,-0.213001
5.045,249.871,-0.213065
5.04667,249.873,-0.213144
5.04833,249.874,-0.213196
5.05,249.876,-0.213233
5.05167,249.877,-0.213261
5.05333,249.879,-0.21328
5.055,249.881,-0.213297
5.05667,249.883,-0.213306
5.05833,249.885,-0.213309
5.06,249.887,-0.213297
5.06167,249.89,-0.213251
5.06333,249.893,-0.213157
5.065,249.896,-0.213057
5.06667,249.898,-0.212922
5.06833,249.901,-0.212683
5.07,249.905,-0.212284
5.07167,249.908,-0.211594
5.07333,249.912,-0.210901
5.075,249.916,-0.210161
5.07667,249.92,-0.209269
5.07833,249.924,-0.208227
5.08,249.928,-0.20724
5.08167,249.933,-0.206344
5.08333,249.937,-0.205556
5.085,249.942,-0.204928
5.08667,249.947,-0.204482
5.08833,249.952,-0.204223
5.09,249.958,-0.204079
5.09167,249.964,-0.204034
5.09333,249.97,-0.20401
5.095,249.975,-0.204023
5.09667,249.982,-0.204053
5.09833,249.988,-0.204125
5.1,249.995,-0.204381
5.10167,250.002,-0.205005
5.10333,250.009,-0.206212
5.105,250.016,-0.208166
5.10667,250.024,-0.211158
5.10833,250.031,-0.21519
5.11,250.039,-0.220251
5.11167,250.047,-0.227461
5.11333,250.055,-0.236855
5.115,250.063,-0.246802
5.11667,250.072,-0.25774
5.11833,250.081,-0.267771
5.12,250.09,-0.276564
5.12167,250.098,-0.283374
5.12333,250.107,-0.291696
5.125,250.117,-0.299434
5.12667,250.127,-0.306163
5.12833,250.136,-0.314578
5.13,250.146,-0.32244
5.13167,250.156,-0.330412
5.13333,250.166,-0.336966
5.135,250.176,-0.34468
5.13667,250.187,-0.351717
5.13833,250.197,-0.358705
5.14,250.208,-0.36715
5.14167,250.219,-0.376079
5.14333,250.23,-0.38406
5.145,250.241,-0.39202
5.14667,250.252,-0.400664
5.14833,250.263,-0.409656
5.15,250.275,-0.417894
5.15167,250.286,-0.425601
5.15333,250.298,-0.434728
5.155,250.31,-0.443422
5.15667,250.321,-0.450965
5.15833,250.333,-0.458318
5.16,250.345,-0.466
5.16167,250.358,-0.472572
5.16333,250.37,-0.479591
5.165,250.382,-0.486767
5.16667,250.394,-0.493329
5.16833,250.407,-0.499002
5.17,250.419,-0.505349
5.17167,250.432,-0.511247
5.17333,250.444,-0.517964
5.175,250.457,-0.524598
5.17667,250.47,-0.530927
5.17833,250.483,-0.538832
5.18,250.496,-0.545573
5.18167,250.51,-0.552106
5.18333,250.523,-0.558339
5.185,250.536,-0.563852
5.18667,250.549,-0.569724
5.18833,250.563,-0.575121
5.19,250.576,-0.579279
5.19167,250.59,-0.582564
5.19333,250.603,-0.586688
5.195,250.617,-0.59149
5.19667,250.631,-0.598124
5.19833,250.645,-0.603518
5.2,250.658,-0.608783
5.20167,250.672,-0.613942
5.20333,250.686,-0.618948
5.205,250.7,-0.622482
5.20667,250.714,-0.625739
5.20833,250.728,-0.62903
5.21,250.742,-0.633004
5.21167,250.757,-0.636251
5.21333,250.771,-0.640782
5.215,250.785,-0.64576
5.21667,250.8,-0.648846
5.21833,250.814,-0.652876
5.22,250.829,-0.657755
5.22167,250.843,-0.661244
5.22333,250.858,-0.664441
5.225,250.872,-0.667546
5.22667,250.887,-0.669855
5.22833,250.901,-0.672893
5.23,250.916,-0.675505
5.23167,250.931,-0.67846
5.23333,250.945,-0.681737
5.235,250.96,-0.683909
5.23667,250.975,-0.686182
5.23833,250.99,-0.688884
5.24,251.005,-0.693058
5.24167,251.019,-0.69508
5.24333,251.034,-0.697356
5.245,251.049,-0.699516
5.24667,251.064,-0.701214
5.24833,251.079,-0.703713
5.25,251.094,-0.706903
5.25167,251.11,-0.710009
5.25333,251.125,-0.712659
5.255,251.14,-0.715686
5.25667,251.155,-0.718063
5.25833,251.171,-0.721173
5.26,251.186,-0.724516
5.26167,251.201,-0.727773
5.26333,251.217,-0.730329
5.265,251.232,-0.732389
5.26667,251.247,-0.734635
5.26833,251.262,-0.737274
5.27,251.278,-0.738528
5.27167,251.293,-0.740066
5.27333,251.309,-0.741535
5.275,251.324,-0.742346
5.27667,251.34,-0.744541
5.27833,251.355,-0.746006
5.28,251.371,-0.748109
5.28167,251.386,-0.749828
5.28333,251.402,-0.751494
5.285,251.417,-0.751574
5.28667,251.433,-0.752689
5.28833,251.448,-0.75513
5.29,251.464,-0.757182
5.29167,251.48,-0.75792
5.29333,251.495,-0.758965
5.295,251.511,-0.760277
5.29667,251.527,-0.761237
5.29833,251.542,-0.762787
5.3,251.558,-0.764778
5.30167,251.574,-0.766085
5.30333,251.589,-0.767415
5.305,251.605,-0.769649
5.30667,251.621,-0.771255
5.30833,251.637,-0.772456
5.31,251.653,-0.773444
5.31167,251.669,-0.77458
5.31333,251.685,-0.775841
5.315,251.7,-0.776232
5.31667,251.716,-0.776642
5.31833,251.732,-0.777599
5.32,251.748,-0.778123
5.32167,251.764,-0.779073
5.32333,251.78,-0.780005
5.325,251.796,-0.781416
5.32667,251.812,-0.78255
5.32833,251.827,-0.784124
5.33,251.843,-0.785633
5.33167,251.86,-0.786807
5.33333,251.875,-0.787521
5.335,251.892,-0.78781
5.33667,251.907,-0.788149
5.33833,251.923,-0.789056
5.34,251.939,-0.79041
5.34167,251.955,-0.791778
5.34333,251.971,-0.793117
5.345,251.987,-0.794361
5.34667,252.003,-0.795753
5.34833,252.019,-0.796783
5.35,252.035,-0.798056
5.35167,252.052,-0.799148
5.35333,252.068,-0.800021
5.355,252.083,-0.800496
5.35667,252.099,-0.800813
5.35833,252.115,-0.80129
5.36,252.132,-0.801768
5.36167,252.148,-0.802365
5.36333,252.164,-0.802633
5.365,252.18,-0.802834
5.36667,252.196,-0.803039
5.36833,252.213,-0.803465
5.37,252.229,-0.804033
5.37167,252.245,-0.804435
5.37333,252.261,-0.804903
5.375,252.277,-0.805478
5.37667,252.293,-0.806243
5.37833,252.309,-0.806983
5.38,252.325,-0.807593
5.38167,252.342,-0.808063
5.38333,252.358,-0.808574
5.385,252.374,-0.80908
5.38667,252.39,-0.809899
5.38833,252.407,-0.810596
5.39,252.423,-0.811153
5.39167,252.439,-0.811525
5.39333,252.455,-0.81179
5.395,252.471,-0.812071
5.39667,252.487,-0.812279
5.39833,252.503,-0.812421
5.4,252.519,-0.812601
5.40167,252.536,-0.812785
5.40333,252.552,-0.812982
5.405,252.568,-0.813119
5.40667,252.585,-0.813288
5.40833,252.601,-0.813466
5.41,252.617,-0.813615
5.41167,252.634,-0.813748
5.41333,252.65,-0.813958
5.415,252.666,-0.814248
5.41667,252.683,-0.814669
5.41833,252.699,-0.815363
5.42,252.715,-0.816089
5.42167,252.731,-0.816973
5.42333,252.748,-0.817836
5.425,252.764,-0.818662
5.42667,252.78,-0.819378
5.42833,252.796,-0.820025
5.43,252.812,-0.820426
5.43167,252.829,-0.820666
5.43333,252.845,-0.820866
5.435,252.861,-0.821037
5.43667,252.878,-0.821187
5.43833,252.894,-0.821325
5.44,252.91,-0.821501
5.44167,252.927,-0.821706
5.44333,252.943,-0.821909
5.445,252.959,-0.822145
5.44667,252.976,-0.822444
5.44833,252.992,-0.82266
5.45,253.008,-0.822869
5.45167,253.025,-0.823047
5.45333,253.041,-0.823204
5.455,253.057,-0.823359
5.45667,253.073,-0.823512
5.45833,253.09,-0.823712
5.46,253.106,-0.823989
5.46167,253.123,-0.824319
5.46333,253.139,-0.824787
5.465,253.155,-0.825478
5.46667,253.172,-0.826173
5.46833,253.188,-0.826739
5.47,253.204,-0.827111
5.47167,253.22,-0.827375
5.47333,253.237,-0.82762
5.475,253.253,-0.827728
5.47667,253.27,-0.827836
5.47833,253.286,-0.827927
5.48,253.302,-0.828074
5.48167,253.319,-0.828168
5.48333,253.335,-0.828301
5.485,253.351,-0.828439
5.48667,253.368,-0.828663
5.48833,253.384,-0.828943
5.49,253.4,-0.82915
5.49167,253.417,-0.829375
5.49333,253.433,-0.829561
5.495,253.449,-0.829785
5.49667,253.466,-0.829959
5.49833,253.482,-0.83007
5.5,253.499,-0.830157
5.50167,253.515,-0.830243
5.50333,253.531,-0.83037
5.505,253.548,-0.830502
5.50667,253.564,-0.830703
5.50833,253.58,-0.830852
5.51,253.597,-0.831055
5.51167,253.613,-0.831217
5.51333,253.629,-0.831448
5.515,253.646,-0.831586
5.51667,253.662,-0.83176
5.51833,253.678,-0.831893
5.52,253.694,-0.831969
5.52167,253.711,-0.832043
5.52333,253.728,-0.832123
5.525,253.744,-0.832195
5.52667,253.76,-0.832268
5.52833,253.776,-0.832341
5.53,253.793,-0.832419
5.53167,253.809,-0.832546
5.53333,253.826,-0.832637
5.535,253.842,-0.832794
5.53667,253.858,-0.832915
5.53833,253.875,-0.833008
5.54,253.891,-0.833191
5.54167,253.908,-0.833483
5.54333,253.924,-0.833677
5.545,253.94,-0.833866
5.54667,253.957,-0.834053
5.54833,253.973,-0.834241
5.55,253.99,-0.834421
5.55167,254.006,-0.834541
5.55333,254.022,-0.834634
5.555,254.039,-0.834721
5.55667,254.055,-0.834954
5.55833,254.072,-0.835057
5.56,254.088,-0.835169
5.56167,254.104,-0.835296
5.56333,254.121,-0.835437
5.565,254.137,-0.835523
5.56667,254.154,-0.835645
5.56833,254.17,-0.835719
5.57,254.187,-0.835799
5.57167,254.203,-0.835891
5.57333,254.22,-0.836031
5.575,254.236,-0.836132
5.57667,254.252,-0.836227
5.57833,254.269,-0.836413
5.58,254.285,-0.836668
5.58167,254.302,-0.836979
5.58333,254.318,-0.837356
5.585,254.334,-0.837728
5.58667,254.351,-0.838142
5.58833,254.367,-0.838516
5.59,254.383,-0.838884
5.59167,254.4,-0.839143
5.59333,254.417,-0.839271
5.595,254.433,-0.839362
5.59667,254.45,-0.839451
5.59833,254.466,-0.839649
5.6,254.482,-0.839737
5.60167,254.499,-0.839826
5.60333,254.515,-0.839919
5.605,254.532,-0.840012
5.60667,254.548,-0.840105
5.60833,254.564,-0.840229
5.61,254.581,-0.840353
5.61167,254.597,-0.840512
5.61333,254.614,-0.840617
5.615,254.63,-0.840776
5.61667,254.646,-0.840875
5.61833,254.663,-0.840976
5.62,254.679,-0.841076
5.62167,254.696,-0.841178
5.62333,254.713,-0.841281
5.625,254.729,-0.84139
5.62667,254.745,-0.84152
5.62833,254.762,-0.841621
5.63,254.778,-0.841721
5.63167,254.795,-0.841822
5.63333,254.811,-0.841927
5.635,254.827,-0.842036
5.63667,254.844,-0.842124
5.63833,254.86,-0.842219
5.64,254.876,-0.842325
5.64167,254.893,-0.842425
5.64333,254.909,-0.84254
5.645,254.926,-0.842659
5.64667,254.942,-0.842796
5.64833,254.958,-0.842974
5.65,254.975,-0.84324
5.65167,254.992,-0.843395
5.65333,255.008,-0.843525
5.655,255.025,-0.843672
5.65667,255.042,-0.843817
5.65833,255.058,-0.843933
5.66,255.075,-0.844084
5.66167,255.091,-0.844181
5.66333,255.108,-0.844275
5.665,255.124,-0.844371
5.66667,255.141,-0.844474
5.66833,255.157,-0.844579
5.67,255.173,-0.844678
5.67167,255.189,-0.844785
5.67333,255.205,-0.844893
5.675,255.222,-0.845004
5.67667,255.239,-0.845108
5.67833,255.255,-0.845205
5.68,255.272,-0.845294
5.68167,255.288,-0.845382
5.68333,255.305,-0.845473
5.685,255.321,-0.845559
5.68667,255.338,-0.845662
5.68833,255.354,-0.845772
5.69,255.371,-0.845888
5.69167,255.387,-0.846004
5.69333,255.404,-0.846154
5.695,255.42,-0.846279
5.69667,255.437,-0.8464
5.69833,255.453,-0.846522
5.7,255.469,-0.846636
5.70167,255.486,-0.84675
5.70333,255.502,-0.846859
5.705,255.519,-0.846972
5.70667,255.535,-0.847091
5.70833,255.552,-0.84724
5.71,255.568,-0.847421
5.71167,255.585,-0.847643
5.71333,255.601,-0.847794
5.715,255.618,-0.847939
5.71667,255.634,-0.848065
5.71833,255.651,-0.848182
5.72,255.667,-0.848288
5.72167,255.683,-0.848388
5.72333,255.7,-0.848485
5.725,255.716,-0.848586
5.72667,255.733,-0.848692
5.72833,255.75,-0.848795
5.73,255.766,-0.848897
5.73167,255.783,-0.849013
5.73333,255.799,-0.849139
5.735,255.816,-0.849266
5.73667,255.832,-0.849391
5.73833,255.848,-0.849519
5.74,255.865,-0.849645
5.74167,255.882,-0.849767
5.74333,255.898,-0.849887
5.745,255.915,-0.85
5.74667,255.931,-0.850115
5.74833,255.948,-0.850231
5.75,255.964,-0.850349
5.75167,255.98,-0.850474
5.75333,255.997,-0.850598
5.755,256.013,-0.85073
5.75667,256.03,-0.850864
5.75833,256.046,-0.851053
5.76,256.063,-0.851186
5.76167,256.079,-0.851316
5.76333,256.096,-0.85144
5.765,256.112,-0.851567
5.76667,256.129,-0.851692
5.76833,256.145,-0.851816
5.77,256.162,-0.851932
5.77167,256.179,-0.852041
5.77333,256.195,-0.852147
5.775,256.212,-0.852252
5.77667,256.228,-0.852361
5.77833,256.245,-0.852469
5.78,256.261,-0.852583
5.78167,256.278,-0.852693
5.78333,256.294,-0.852809
5.785,256.311,-0.852928
5.78667,256.328,-0.85305
5.78833,256.344,-0.853168
5.79,256.361,-0.85329
5.79167,256.377,-0.853409
5.79333,256.394,-0.853536
5.795,256.41,-0.853665
5.79667,256.426,-0.853792
5.79833,256.443,-0.853918
5.8,256.459,-0.854043
5.80167,256.476,-0.854169
5.80333,256.492,-0.854299
5.805,256.509,-0.854421
5.80667,256.525,-0.854538
5.80833,256.542,-0.854654
5.81,256.558,-0.854765
5.81167,256.575,-0.854875
5.81333,256.591,-0.854992
5.815,256.608,-0.855097
5.81667,256.625,-0.855205
5.81833,256.641,-0.855316
5.82,256.658,-0.855426
5.82167,256.674,-0.855539
5.82333,256.69,-0.855643
5.825,256.707,-0.855743
5.82667,256.723,-0.855846
5.82833,256.74,-0.855949
5.83,256.757,-0.856053
5.83167,256.773,-0.856155
5.83333,256.789,-0.856256
5.835,256.806,-0.856365
5.83667,256.822,-0.856477
5.83833,256.839,-0.856601
5.84,256.856,-0.856828
5.84167,256.872,-0.85722
5.84333,256.889,-0.857545
5.845,256.905,-0.857813
5.84667,256.922,-0.858002
5.84833,256.938,-0.858133
5.85,256.955,-0.858261
5.85167,256.971,-0.858379
5.85333,256.988,-0.858487
5.855,257.005,-0.858591
5.85667,257.021,-0.858685
5.85833,257.038,-0.858781
5.86,257.054,-0.858878
5.86167,257.071,-0.858969
5.86333,257.087,-0.859071
5.865,257.104,-0.859169
5.86667,257.121,-0.859265
5.86833,257.137,-0.859365
5.87,257.153,-0.859468
5.87167,257.17,-0.859567
5.87333,257.186,-0.859665
5.875,257.203,-0.859755
5.87667,257.22,-0.859842
5.87833,257.236,-0.85993
5.88,257.252,-0.860008
5.88167,257.269,-0.860096
5.88333,257.286,-0.860196
5.885,257.303,-0.86029
5.88667,257.319,-0.860397
5.88833,257.335,-0.86051
5.89,257.352,-0.860639
5.89167,257.369,-0.86076
5.89333,257.386,-0.860901
5.895,257.402,-0.861138
5.89667,257.419,-0.861294
5.89833,257.435,-0.861415
5.9,257.451,-0.861527
5.90167,257.468,-0.86164
5.90333,257.485,-0.861748
5.905,257.501,-0.86186
5.90667,257.518,-0.861974
5.90833,257.534,-0.862078
5.91,257.551,-0.862171
5.91167,257.568,-0.862273
5.91333,257.584,-0.862376
5.915,257.601,-0.862472
5.91667,257.617,-0.862559
5.91833,257.634,-0.86264
5.92,257.651,-0.862729
5.92167,257.667,-0.862827
5.92333,257.683,-0.862939
5.925,257.7,-0.863051
5.92667,257.716,-0.863168
5.92833,257.733,-0.863284
5.93,257.749,-0.863398
5.93167,257.766,-0.863511
5.93333,257.783,-0.863629
5.935,257.8,-0.863747
5.93667,257.816,-0.863857
5.93833,257.833,-0.863964
5.94,257.849,-0.864067
5.94167,257.866,-0.864174
5.94333,257.882,-0.864274
5.945,257.899,-0.86438
5.94667,257.915,-0.86449
5.94833,257.932,-0.864597
5.95,257.949,-0.864705
5.95167,257.965,-0.864814
5.95333,257.982,-0.86492
5.955,257.999,-0.86502
5.95667,258.015,-0.865106
5.95833,258.031,-0.865191
5.96,258.048,-0.865276
5.96167,258.065,-0.865354
5.96333,258.081,-0.865437
5.965,258.098,-0.865526
5.96667,258.114,-0.865612
5.96833,258.131,-0.865697
5.97,258.147,-0.865782
5.97167,258.164,-0.865879
5.97333,258.181,-0.865983
5.975,258.197,-0.866092
5.97667,258.213,-0.866205
5.97833,258.23,-0.866318
5.98,258.247,-0.866436
5.98167,258.264,-0.866583
5.98333,258.28,-0.866727
5.985,258.297,-0.866843
5.98667,258.314,-0.86695
5.98833,258.33,-0.867045
5.99,258.347,-0.867134
5.99167,258.363,-0.867221
5.99333,258.38,-0.86731
5.995,258.397,-0.867402
5.99667,258.413,-0.867489
5.99833,258.43,-0.867582
6,258.446,-0.867676
6.00167,258.463,-0.867774
6.00333,258.479,-0.867873
6.005,258.496,-0.867968
6.00667,258.512,-0.868068
6.00833,258.529,-0.868169
6.01,258.546,-0.868281
6.01167,258.562,-0.868397
6.01333,258.578,-0.868509
6.015,258.595,-0.868615
6.01667,258.612,-0.868715
6.01833,258.629,-0.868814
6.02,258.645,-0.868915
6.02167,258.662,-0.869017
6.02333,258.678,-0.869112
6.025,258.695,-0.869204
6.02667,258.711,-0.869296
6.02833,258.728,-0.869384
6.03,258.745,-0.869468
6.03167,258.761,-0.869551
6.03333,258.778,-0.869632
6.035,258.795,-0.869713
6.03667,258.811,-0.869785
6.03833,258.828,-0.869857
6.04,258.845,-0.869942
6.04167,258.861,-0.870036
6.04333,258.878,-0.870133
6.045,258.895,-0.870228
6.04667,258.911,-0.870328
6.04833,258.927,-0.870427
6.05,258.944,-0.870519
6.05167,258.961,-0.870613
6.05333,258.977,-0.870701
6.055,258.994,-0.870785
6.05667,259.01,-0.870869
6.05833,259.027,-0.870956
6.06,259.043,-0.871039
6.06167,259.06,-0.871128
6.06333,259.077,-0.871209
6.065,259.093,-0.871283
6.06667,259.11,-0.871353
6.06833,259.126,-0.871427
6.07,259.143,-0.871505
6.07167,259.159,-0.871593
6.07333,259.176,-0.871681
6.075,259.192,-0.871773
6.07667,259.21,-0.871866
6.07833,259.226,-0.87196
6.08,259.242,-0.872057
6.08167,259.259,-0.872151
6.08333,259.276,-0.872239
6.085,259.292,-0.872326
6.08667,259.309,-0.872411
6.08833,259.325,-0.872497
6.09,259.342,-0.872581
6.09167,259.358,-0.87267
6.09333,259.375,-0.872767
6.095,259.392,-0.872876
6.09667,259.408,-0.872997
6.09833,259.425,-0.873106
6.1,259.441,-0.87321
6.10167,259.458,-0.873308
6.10333,259.475,-0.873397
6.105,259.491,-0.873472
6.10667,259.508,-0.873545
6.10833,259.525,-0.873612
6.11,259.541,-0.873678
6.11167,259.558,-0.873743
6.11333,259.575,-0.873817
6.115,259.591,-0.873894
6.11667,259.608,-0.873979
6.11833,259.624,-0.874068
6.12,259.641,-0.874156
6.12167,259.657,-0.87425
6.12333,259.674,-0.87434
6.125,259.691,-0.87443
6.12667,259.707,-0.874519
6.12833,259.724,-0.874608
6.13,259.741,-0.874694
6.13167,259.757,-0.874775
6.13333,259.774,-0.874849
6.135,259.791,-0.874925
6.13667,259.807,-0.875001
6.13833,259.824,-0.875071
6.14,259.84,-0.87513
6.14167,259.857,-0.87519
6.14333,259.874,-0.875259
6.145,259.89,-0.875325
6.14667,259.907,-0.875392
6.14833,259.923,-0.87547
6.15,259.94,-0.87555
6.15167,259.956,-0.875635
6.15333,259.973,-0.875719
6.155,259.99,-0.875812
6.15667,260.006,-0.875906
6.15833,260.023,-0.875999
6.16,260.039,-0.876094
6.16167,260.056,-0.876193
6.16333,260.073,-0.876293
6.165,260.089,-0.876393
6.16667,260.106,-0.876492
6.16833,260.123,-0.876588
6.17,260.139,-0.876678
6.17167,260.156,-0.876758
6.17333,260.172,-0.876844
6.175,260.189,-0.876923
6.17667,260.205,-0.876998
6.17833,260.222,-0.877064
6.18,260.238,-0.877118
6.18167,260.255,-0.87717
6.18333,260.272,-0.877217
6.185,260.288,-0.877271
6.18667,260.305,-0.877336
6.18833,260.322,-0.877396
6.19,260.338,-0.877458
6.19167,260.355,-0.877533
6.19333,260.371,-0.877618
6.195,260.388,-0.87771
6.19667,260.404,-0.877802
6.19833,260.421,-0.877893
6.2,260.438,-0.87798
6.20167,260.454,-0.878056
6.20333,260.471,-0.878122
6.205,260.488,-0.878194
6.20667,260.504,-0.878259
6.20833,260.521,-0.878317
6.21,260.537,-0.878371
6.21167,260.554,-0.878423
6.21333,260.57,-0.878472
6.215,260.587,-0.878529
6.21667,260.604,-0.878587
6.21833,260.62,-0.878649
6.22,260.637,-0.878707
6.22167,260.653,-0.878766
6.22333,260.67,-0.878822
6.225,260.686,-0.878885
6.22667,260.703,-0.878947
6.22833,260.72,-0.879006
6.23,260.736,-0.879067
6.23167,260.753,-0.87913
6.23333,260.77,-0.879188
6.235,260.786,-0.879242
6.23667,260.803,-0.879292
6.23833,260.819,-0.879342
6.24,260.836,-0.879393
6.24167,260.852,-0.879447
6.24333,260.869,-0.879505
6.245,260.886,-0.879567
6.24667,260.902,-0.879629
6.24833,260.919,-0.879704
6.25,260.936,-0.879786
6.25167,260.953,-0.879866
6.25333,260.969,-0.879948
6.255,260.986,-0.880017
6.25667,261.002,-0.880085
6.25833,261.019,-0.880148
6.26,261.036,-0.880203
6.26167,261.052,-0.880263
6.26333,261.069,-0.880314
6.265,261.085,-0.880368
6.26667,261.102,-0.880425
6.26833,261.118,-0.880476
6.27,261.135,-0.880538
6.27167,261.152,-0.880608
6.27333,261.169,-0.880681
6.275,261.186,-0.880745
6.27667,261.202,-0.880815
6.27833,261.218,-0.880881
6.28,261.235,-0.88094
6.28167,261.252,-0.880988
6.28333,261.269,-0.88103
6.285,261.285,-0.881069
6.28667,261.302,-0.881107
6.28833,261.319,-0.881145
6.29,261.335,-0.881198
6.29167,261.352,-0.881252
6.29333,261.368,-0.881314
6.295,261.385,-0.881389
6.29667,261.402,-0.881468
6.29833,261.418,-0.881573
6.3,261.435,-0.881717
6.30167,261.451,-0.881843
6.30333,261.468,-0.881947
6.305,261.485,-0.882026
6.30667,261.502,-0.882094
6.30833,261.518,-0.882155
6.31,261.535,-0.882207
6.31167,261.551,-0.882256
6.31333,261.568,-0.882306
6.315,261.584,-0.882355
6.31667,261.601,-0.882401
6.31833,261.617,-0.882455
6.32,261.634,-0.882512
6.32167,261.651,-0.882573
6.32333,261.667,-0.882635
6.325,261.684,-0.882695
6.32667,261.701,-0.882752
6.32833,261.717,-0.882805
6.33,261.734,-0.882865
6.33167,261.751,-0.882927
6.33333,261.768,-0.882999
6.335,261.784,-0.883063
6.33667,261.8,-0.883128
6.33833,261.817,-0.883198
6.34,261.833,-0.88327
6.34167,261.85,-0.883346
6.34333,261.867,-0.883421
6.345,261.884,-0.883489
6.34667,261.9,-0.883539
6.34833,261.917,-0.883587
6.35,261.933,-0.883624
6.35167,261.95,-0.883653
6.35333,261.966,-0.883681
6.355,261.983,-0.883706
6.35667,262,-0.883729
6.35833,262.016,-0.883775
6.36,262.033,-0.883824
6.36167,262.049,-0.883879
6.36333,262.066,-0.883946
6.365,262.083,-0.884015
6.36667,262.099,-0.884097
6.36833,262.116,-0.884198
6.37,262.132,-0.884279
6.37167,262.149,-0.884368
6.37333,262.165,-0.884452
6.375,262.182,-0.884529
6.37667,262.199,-0.8846
6.37833,262.215,-0.884661
6.38,262.232,-0.884721
6.38167,262.249,-0.884772
6.38333,262.265,-0.884813
6.385,262.282,-0.884849
6.38667,262.299,-0.884884
6.38833,262.315,-0.884904
6.39,262.332,-0.884917
6.39167,262.349,-0.884929
6.39333,262.365,-0.88494
6.395,262.382,-0.884959
6.39667,262.398,-0.884979
6.39833,262.415,-0.885011
6.4,262.432,-0.885059
6.40167,262.448,-0.885111
6.40333,262.465,-0.88517
6.405,262.481,-0.885232
6.40667,262.498,-0.885299
6.40833,262.515,-0.885372
6.41,262.532,-0.885443
6.41167,262.548,-0.885514
6.41333,262.565,-0.885584
6.415,262.581,-0.885653
6.41667,262.598,-0.885717
6.41833,262.614,-0.885779
6.42,262.631,-0.885842
6.42167,262.648,-0.88591
6.42333,262.664,-0.885968
6.425,262.681,-0.88602
6.42667,262.697,-0.886063
6.42833,262.714,-0.8861
6.43,262.731,-0.886131
6.43167,262.748,-0.886163
6.43333,262.764,-0.886199
6.435,262.781,-0.886233
6.43667,262.797,-0.886274
6.43833,262.814,-0.886319
6.44,262.831,-0.88637
6.44167,262.847,-0.886416
6.44333,262.863,-0.886471
6.445,262.88,-0.886528
6.44667,262.897,-0.886587
6.44833,262.914,-0.886643
6.45,262.93,-0.886697
6.45167,262.947,-0.886749
6.45333,262.964,-0.886792
6.455,262.98,-0.886839
6.45667,262.997,-0.886881
6.45833,263.013,-0.886915
6.46,263.03,-0.886948
6.46167,263.047,-0.886982
6.46333,263.063,-0.88702
6.465,263.08,-0.887068
6.46667,263.096,-0.887122
6.46833,263.113,-0.887176
6.47,263.13,-0.887237
6.47167,263.146,-0.8873
6.47333,263.162,-0.887361
6.475,263.179,-0.887411
6.47667,263.196,-0.887459
6.47833,263.213,-0.887499
6.48,263.229,-0.887528
6.48167,263.246,-0.887559
6.48333,263.262,-0.887593
6.485,263.279,-0.887634
6.48667,263.296,-0.887673
6.48833,263.312,-0.88771
6.49,263.329,-0.887747
6.49167,263.345,-0.887784
6.49333,263.362,-0.887826
6.495,263.378,-0.887869
6.49667,263.395,-0.887908
6.49833,263.412,-0.887952
6.5,263.428,-0.888004
6.50167,263.445,-0.88806
6.50333,263.461,-0.888117
6.505,263.479,-0.888175
6.50667,263.495,-0.888235
6.50833,263.512,-0.888291
6.51,263.529,-0.888343
6.51167,263.545,-0.888391
6.51333,263.562,-0.888437
6.515,263.578,-0.888475
6.51667,263.595,-0.888514
6.51833,263.611,-0.888552
6.52,263.628,-0.888595
6.52167,263.644,-0.88863
6.52333,263.661,-0.888672
6.525,263.678,-0.888717
6.52667,263.695,-0.888761
6.52833,263.711,-0.888809
6.53,263.728,-0.888853
6.53167,263.744,-0.888906
6.53333,263.761,-0.888956
6.535,263.778,-0.889008
6.53667,263.795,-0.889066
6.53833,263.811,-0.88912
6.54,263.828,-0.889174
6.54167,263.844,-0.889222
6.54333,263.861,-0.889272
6.545,263.878,-0.889318
6.54667,263.894,-0.889361
6.54833,263.911,-0.889405
6.55,263.927,-0.889444
6.55167,263.944,-0.889484
6.55333,263.961,-0.889532
6.555,263.977,-0.889583
6.55667,263.994,-0.889637
6.55833,264.01,-0.889696
6.56,264.026,-0.889742
6.56167,264.042,-0.889781
6.56333,264.059,-0.889818
6.565,264.075,-0.889852
6.56667,264.092,-0.889883
6.56833,264.109,-0.889912
6.57,264.126,-0.889939
6.57167,264.143,-0.889963
6.57333,264.16,-0.889996
6.575,264.176,-0.890035
6.57667,264.192,-0.890079
6.57833,264.209,-0.890121
6.58,264.226,-0.890171
6.58167,264.242,-0.890231
6.58333,264.259,-0.890295
6.585,264.276,-0.890352
6.58667,264.293,-0.890409
6.58833,264.309,-0.890469
6.59,264.326,-0.890521
6.59167,264.343,-0.890568
6.59333,264.359,-0.890614
6.595,264.376,-0.89066
6.59667,264.392,-0.890701
6.59833,264.409,-0.890749
6.6,264.425,-0.890798
6.60167,264.442,-0.890841
6.60333,264.459,-0.890886
6.605,264.475,-0.89093
6.60667,264.492,-0.890965
6.60833,264.509,-0.890997
6.61,264.526,-0.891021
6.61167,264.542,-0.891046
6.61333,264.559,-0.891068
6.615,264.575,-0.891101
6.61667,264.592,-0.891147
6.61833,264.609,-0.891192
6.62,264.625,-0.89124
6.62167,264.642,-0.891295
6.62333,264.658,-0.891349
6.625,264.675,-0.891401
6.62667,264.692,-0.891456
6.62833,264.708,-0.891514
6.63,264.725,-0.891573
6.63167,264.742,-0.891635
6.63333,264.759,-0.891705
6.635,264.775,-0.891774
6.63667,264.792,-0.891846
6.63833,264.808,-0.891917
6.64,264.825,-0.891982
6.64167,264.842,-0.892041
6.64333,264.858,-0.892087
6.645,264.875,-0.89213
6.64667,264.892,-0.892166
6.64833,264.908,-0.892193
6.65,264.925,-0.892214
6.65167,264.941,-0.892225
6.65333,264.958,-0.892246
6.655,264.974,-0.892276
6.65667,264.991,-0.892307
6.65833,265.008,-0.892346
6.66,265.025,-0.892398
6.66167,265.041,-0.892457
6.66333,265.058,-0.892523
6.665,265.074,-0.892593
6.66667,265.091,-0.89266
6.66833,265.108,-0.892725
6.67,265.124,-0.892787
6.67167,265.141,-0.892841
6.67333,265.158,-0.892894
6.675,265.175,-0.892949
6.67667,265.191,-0.893006
6.67833,265.208,-0.893065
6.68,265.225,-0.893128
6.68167,265.242,-0.893193
6.68333,265.258,-0.893253
6.685,265.275,-0.893302
6.68667,265.292,-0.893348
6.68833,265.308,-0.893382
6.69,265.324,-0.893411
6.69167,265.341,-0.893431
6.69333,265.358,-0.893447
6.695,265.374,-0.893465
6.69667,265.391,-0.893486
6.69833,265.408,-0.89351
6.7,265.424,-0.893537
6.70167,265.441,-0.893566
6.70333,265.458,-0.893595
6.705,265.474,-0.893619
6.70667,265.491,-0.893644
6.70833,265.507,-0.893673
6.71,265.524,-0.893702
6.71167,265.541,-0.893734
6.71333,265.557,-0.893777
6.715,265.574,-0.893823
6.71667,265.59,-0.893876
6.71833,265.607,-0.893942
6.72,265.624,-0.89401
6.72167,265.641,-0.894077
6.72333,265.657,-0.894146
6.725,265.674,-0.894208
6.72667,265.69,-0.894255
6.72833,265.707,-0.894291
6.73,265.724,-0.89432
6.73167,265.741,-0.89435
6.73333,265.758,-0.89438
6.735,265.774,-0.894409
6.73667,265.79,-0.894449
6.73833,265.807,-0.894489
6.74,265.823,-0.894527
6.74167,265.84,-0.894566
6.74333,265.857,-0.894604
6.745,265.873,-0.894645
6.74667,265.89,-0.894684
6.74833,265.907,-0.894722
6.75,265.924,-0.894764
6.75167,265.94,-0.8948
6.75333,265.957,-0.894829
6.755,265.974,-0.89486
6.75667,265.99,-0.894894
6.75833,266.007,-0.89494
6.76,266.024,-0.894988
6.76167,266.04,-0.895034
6.76333,266.057,-0.895088
6.765,266.073,-0.895153
6.76667,266.09,-0.895218
6.76833,266.107,-0.895279
6.77,266.123,-0.895338
6.77167,266.14,-0.895394
6.77333,266.156,-0.895438
6.775,266.173,-0.895482
6.77667,266.19,-0.895519
6.77833,266.206,-0.895556
6.78,266.223,-0.895598
6.78167,266.24,-0.89564
6.78333,266.256,-0.895688
6.785,266.273,-0.895739
6.78667,266.29,-0.89579
6.78833,266.306,-0.895842
6.79,266.323,-0.895895
6.79167,266.34,-0.895946
6.79333,266.356,-0.895985
6.795,266.373,-0.896021
6.79667,266.389,-0.89605
6.79833,266.406,-0.896081
6.8,266.422,-0.896097
6.80167,266.439,-0.896111
6.80333,266.456,-0.896139
6.805,266.472,-0.896168
6.80667,266.489,-0.896193
6.80833,266.506,-0.896218
6.81,266.522,-0.896236
6.81167,266.539,-0.896243
6.81333,266.555,-0.896255
6.815,266.572,-0.896265
6.81667,266.589,-0.896282
6.81833,266.606,-0.896309
6.82,266.622,-0.896336
6.82167,266.639,-0.896377
6.82333,266.656,-0.896426
6.825,266.672,-0.896481
6.82667,266.689,-0.896532
6.82833,266.706,-0.896577
6.83,266.722,-0.896617
6.83167,266.739,-0.896646
6.83333,266.756,-0.896667
6.835,266.772,-0.896683
6.83667,266.789,-0.896701
6.83833,266.806,-0.896728
6.84,266.822,-0.896761
6.84167,266.839,-0.896806
6.84333,266.856,-0.896861
6.845,266.872,-0.896917
6.84667,266.889,-0.896976
6.84833,266.905,-0.897039
6.85,266.922,-0.89709
6.85167,266.939,-0.897136
6.85333,266.956,-0.897169
6.855,266.972,-0.897194
6.85667,266.989,-0.89722
6.85833,267.006,-0.897237
6.86,267.022,-0.897243
6.86167,267.039,-0.897253
6.86333,267.055,-0.897269
6.865,267.072,-0.897285
6.86667,267.089,-0.897305
6.86833,267.105,-0.897334
6.87,267.122,-0.897358
6.87167,267.139,-0.897381
6.87333,267.155,-0.897404
6.875,267.172,-0.897428
6.87667,267.189,-0.897456
6.87833,267.206,-0.897487
6.88,267.222,-0.897526
6.88167,267.238,-0.897555
6.88333,267.255,-0.897592
6.885,267.271,-0.89763
6.88667,267.288,-0.897667
6.88833,267.305,-0.89771
6.89,267.321,-0.897759
6.89167,267.338,-0.897807
6.89333,267.355,-0.897863
6.895,267.371,-0.897922
6.89667,267.388,-0.897978
6.89833,267.405,-0.898036
6.9,267.421,-0.8981
6.90167,267.438,-0.898169
6.90333,267.454,-0.898232
6.905,267.471,-0.898285
6.90667,267.488,-0.898326
6.90833,267.504,-0.898364
6.91,267.521,-0.898398
6.91167,267.538,-0.898418
6.91333,267.554,-0.898436
6.915,267.571,-0.898451
6.91667,267.588,-0.898457
6.91833,267.605,-0.898463
6.92,267.621,-0.898474
6.92167,267.638,-0.898482
6.92333,267.654,-0.89849
6.925,267.671,-0.898508
6.92667,267.688,-0.898534
6.92833,267.704,-0.898563
6.93,267.721,-0.898595
6.93167,267.737,-0.898628
6.93333,267.754,-0.898661
6.935,267.771,-0.898692
6.93667,267.787,-0.898733
6.93833,267.804,-0.898772
6.94,267.821,-0.8988
6.94167,267.838,-0.898825
6.94333,267.854,-0.898856
6.945,267.871,-0.898892
6.94667,267.887,-0.898937
6.94833,267.904,-0.898977
6.95,267.921,-0.899016
6.95167,267.937,-0.899052
6.95333,267.954,-0.899085
6.955,267.97,-0.899126
6.95667,267.987,-0.899165
6.95833,268.004,-0.899202
6.96,268.02,-0.899243
6.96167,268.038,-0.899286
6.96333,268.054,-0.899328
6.965,268.071,-0.899372
6.96667,268.088,-0.899414
6.96833,268.104,-0.899456
6.97,268.121,-0.899492
6.97167,268.137,-0.89952
6.97333,268.153,-0.899551
6.975,268.17,-0.899582
6.97667,268.187,-0.899613
6.97833,268.204,-0.899643
6.98,268.22,-0.899667
6.98167,268.237,-0.899696
6.98333,268.253,-0.899725
6.985,268.27,-0.899758
6.98667,268.286,-0.899792
6.98833,268.303,-0.899838
6.99,268.32,-0.899878
6.99167,268.336,-0.899906
6.99333,268.353,-0.899937
6.995,268.37,-0.899966
6.99667,268.387,-0.899989
6.99833,268.404,-0.900007
7,268.42,-0.900035
7.00167,268.437,-0.900064
7.00333,268.453,-0.900089
7.005,268.47,-0.900114
7.00667,268.487,-0.900144
7.00833,268.503,-0.900172
7.01,268.52,-0.900197
7.01167,268.537,-0.900221
7.01333,268.553,-0.900245
7.015,268.57,-0.900272
7.01667,268.587,-0.900303
7.01833,268.603,-0.900338
7.02,268.62,-0.900379
7.02167,268.637,-0.900412
7.02333,268.653,-0.900444
7.025,268.67,-0.900473
7.02667,268.687,-0.90051
7.02833,268.703,-0.900537
7.03,268.72,-0.900564
7.03167,268.737,-0.900586
7.03333,268.753,-0.900602
7.035,268.77,-0.900618
7.03667,268.786,-0.900642
7.03833,268.803,-0.900668
7.04,268.82,-0.900696
7.04167,268.836,-0.900722
7.04333,268.853,-0.900756
7.045,268.869,-0.900792
7.04667,268.886,-0.900826
7.04833,268.903,-0.900853
7.05,268.92,-0.900882
7.05167,268.936,-0.900911
7.05333,268.953,-0.90094
7.055,268.969,-0.900977
7.05667,268.986,-0.901017
7.05833,269.002,-0.901065
7.06,269.019,-0.901113
7.06167,269.036,-0.901171
7.06333,269.052,-0.90122
7.065,269.069,-0.901263
7.06667,269.086,-0.901306
7.06833,269.102,-0.901348
7.07,269.119,-0.901391
7.07167,269.136,-0.901439
7.07333,269.153,-0.901483
7.075,269.17,-0.901532
7.07667,269.186,-0.901579
7.07833,269.203,-0.901621
7.08,269.219,-0.901661
7.08167,269.236,-0.901695
7.08333,269.253,-0.90172
7.085,269.269,-0.901734
7.08667,269.286,-0.901741
7.08833,269.302,-0.90174
7.09,269.319,-0.901746
7.09167,269.335,-0.901753
7.09333,269.352,-0.901765
7.095,269.369,-0.901779
7.09667,269.386,-0.901804
7.09833,269.402,-0.901828
7.1,269.419,-0.901843
7.10167,269.436,-0.901861
7.10333,269.452,-0.901869
7.105,269.469,-0.901883
7.10667,269.486,-0.901902
7.10833,269.502,-0.901923
7.11,269.519,-0.901958
7.11167,269.536,-0.902005
7.11333,269.552,-0.902055
7.115,269.569,-0.902109
7.11667,269.585,-0.902154
7.11833,269.602,-0.902192
7.12,269.619,-0.902228
7.12167,269.635,-0.902261
7.12333,269.652,-0.902297
7.125,269.668,-0.902338
7.12667,269.685,-0.902375
7.12833,269.702,-0.902404
7.13,269.718,-0.902443
7.13167,269.735,-0.902485
7.13333,269.752,-0.902533
7.135,269.768,-0.902573
7.13667,269.785,-0.902609
7.13833,269.802,-0.902647
7.14,269.818,-0.902681
7.14167,269.835,-0.902714
7.14333,269.852,-0.902746
7.145,269.868,-0.902772
7.14667,269.885,-0.902794
7.14833,269.902,-0.902811
7.15,269.918,-0.902824
7.15167,269.935,-0.90283
7.15333,269.951,-0.902839
7.155,269.968,-0.90286
7.15667,269.985,-0.902889
7.15833,270.002,-0.902924
7.16,270.018,-0.902968
7.16167,270.035,-0.90302
7.16333,270.052,-0.903065
7.165,270.068,-0.90311
7.16667,270.084,-0.903157
7.16833,270.101,-0.903199
7.17,270.118,-0.903237
7.17167,270.134,-0.903268
7.17333,270.151,-0.903285
7.175,270.167,-0.903299
7.17667,270.184,-0.903308
7.17833,270.201,-0.903325
7.18,270.218,-0.903357
7.18167,270.234,-0.903389
7.18333,270.251,-0.903424
7.185,270.268,-0.903465
7.18667,270.284,-0.903503
7.18833,270.301,-0.903536
7.19,270.317,-0.903576
7.19167,270.334,-0.903615
7.19333,270.351,-0.903642
7.195,270.367,-0.90366
7.19667,270.384,-0.903678
7.19833,270.401,-0.903704
7.2,270.418,-0.903739
7.20167,270.434,-0.903781
7.20333,270.451,-0.903823
7.205,270.467,-0.903859
7.20667,270.484,-0.903896
7.20833,270.501,-0.903935
7.21,270.517,-0.903978
7.21167,270.534,-0.904017
7.21333,270.551,-0.904057
7.215,270.567,-0.904097
7.21667,270.584,-0.904125
7.21833,270.601,-0.904162
7.22,270.618,-0.9042
7.22167,270.634,-0.904239
7.22333,270.65,-0.904277
7.225,270.667,-0.904318
7.22667,270.684,-0.904363
7.22833,270.701,-0.904402
7.23,270.717,-0.904444
7.23167,270.734,-0.904486
7.23333,270.75,-0.904526
7.235,270.767,-0.904571
7.23667,270.784,-0.904613
7.23833,270.8,-0.904645
7.24,270.817,-0.904668
7.24167,270.834,-0.904686
7.24333,270.85,-0.904694
7.245,270.867,-0.904703
7.24667,270.884,-0.904716
7.24833,270.9,-0.904736
7.25,270.917,-0.904768
7.25167,270.934,-0.904816
7.25333,270.95,-0.904871
7.255,270.967,-0.904933
7.25667,270.984,-0.904996
7.25833,271,-0.905053
7.26,271.017,-0.905104
7.26167,271.034,-0.905144
7.26333,271.05,-0.905175
7.265,271.067,-0.905193
7.26667,271.083,-0.905208
7.26833,271.1,-0.905218
7.27,271.117,-0.905228
7.27167,271.133,-0.905233
7.27333,271.15,-0.905248
7.275,271.167,-0.905268
7.27667,271.183,-0.905294
7.27833,271.2,-0.905325
7.28,271.216,-0.905358
7.28167,271.233,-0.905394
7.28333,271.25,-0.905433
7.285,271.266,-0.905473
7.28667,271.283,-0.905505
7.28833,271.299,-0.905545
7.29,271.316,-0.905578
7.29167,271.333,-0.90561
7.29333,271.35,-0.905648
7.295,271.366,-0.90568
7.29667,271.383,-0.905711
7.29833,271.399,-0.905733
7.3,271.416,-0.905747
7.30167,271.432,-0.905766
7.30333,271.449,-0.905786
7.305,271.466,-0.905802
7.30667,271.483,-0.905819
7.30833,271.499,-0.905838
7.31,271.516,-0.905855
7.31167,271.533,-0.905883
7.31333,271.549,-0.90591
7.315,271.566,-0.905933
7.31667,271.583,-0.905965
7.31833,271.599,-0.905993
7.32,271.616,-0.906029
7.32167,271.632,-0.90607
7.32333,271.649,-0.90611
7.325,271.666,-0.906152
7.32667,271.682,-0.906197
7.32833,271.699,-0.906247
7.33,271.716,-0.906288
7.33167,271.732,-0.906332
7.33333,271.749,-0.906378
7.335,271.766,-0.906416
7.33667,271.782,-0.906445
7.33833,271.799,-0.906474
7.34,271.816,-0.906505
7.34167,271.833,-0.906532
7.34333,271.849,-0.906563
7.345,271.866,-0.906598
7.34667,271.882,-0.906643
7.34833,271.899,-0.906682
7.35,271.916,-0.906728
7.35167,271.932,-0.906779
7.35333,271.949,-0.906826
7.355,271.965,-0.906863
7.35667,271.982,-0.906901
7.35833,271.999,-0.906945
7.36,272.016,-0.906979
7.36167,272.032,-0.907011
7.36333,272.049,-0.907041
7.365,272.066,-0.907076
7.36667,272.082,-0.907106
7.36833,272.099,-0.907138
7.37,272.116,-0.907159
7.37167,272.133,-0.907182
7.37333,272.149,-0.9072
7.375,272.165,-0.907217
7.37667,272.182,-0.907235
7.37833,272.199,-0.907259
7.38,272.215,-0.907298
7.38167,272.232,-0.907344
7.38333,272.248,-0.907399
7.385,272.265,-0.907461
7.38667,272.282,-0.907524
7.38833,272.298,-0.907589
7.39,272.315,-0.907645
7.39167,272.332,-0.907692
7.39333,272.348,-0.907732
7.395,272.365,-0.907761
7.39667,272.382,-0.907785
7.39833,272.399,-0.907798
7.4,272.415,-0.907807
7.40167,272.432,-0.907826
7.40333,272.449,-0.907858
7.405,272.465,-0.907891
7.40667,272.481,-0.907926
7.40833,272.498,-0.907963
7.41,272.515,-0.908005
7.41167,272.532,-0.908053
7.41333,272.548,-0.9081
7.415,272.565,-0.908143
7.41667,272.581,-0.908181
7.41833,272.598,-0.908207
7.42,272.615,-0.908232
7.42167,272.632,-0.908267
7.42333,272.648,-0.908311
7.425,272.665,-0.908351
7.42667,272.682,-0.908399
7.42833,272.698,-0.908453
7.43,272.715,-0.9085
7.43167,272.732,-0.908542
7.43333,272.748,-0.908583
7.435,272.765,-0.908619
7.43667,272.782,-0.908641
7.43833,272.798,-0.908654
7.44,272.815,-0.908661
7.44167,272.832,-0.908673
7.44333,272.849,-0.908685
7.445,272.865,-0.908703
7.44667,272.881,-0.908726
7.44833,272.898,-0.908756
7.45,272.915,-0.908795
7.45167,272.932,-0.908846
7.45333,272.948,-0.908903
7.455,272.965,-0.908959
7.45667,272.981,-0.909014
7.45833,272.999,-0.90907
7.46,273.015,-0.909121
7.46167,273.032,-0.909172
7.46333,273.048,-0.909221
7.465,273.065,-0.909271
7.46667,273.081,-0.909318
7.46833,273.098,-0.909361
7.47,273.115,-0.909396
7.47167,273.132,-0.909422
7.47333,273.148,-0.909445
7.475,273.165,-0.909471
7.47667,273.182,-0.909493
7.47833,273.198,-0.90951
7.48,273.215,-0.909529
7.48167,273.232,-0.909551
7.48333,273.248,-0.909576
7.485,273.265,-0.90961
7.48667,273.281,-0.909647
7.48833,273.298,-0.909694
7.49,273.315,-0.909738
7.49167,273.331,-0.909785
7.49333,273.348,-0.909828
7.495,273.364,-0.909869
7.49667,273.381,-0.909902
7.49833,273.398,-0.90993
7.5,273.414,-0.909956
7.50167,273.431,-0.909976
7.50333,273.448,-0.909996
7.505,273.464,-0.910017
7.50667,273.481,-0.910033
7.50833,273.498,-0.910057
7.51,273.514,-0.910089
7.51167,273.531,-0.910115
7.51333,273.547,-0.910146
7.515,273.564,-0.910177
7.51667,273.581,-0.910202
7.51833,273.597,-0.910218
7.52,273.614,-0.91024
7.52167,273.631,-0.910264
7.52333,273.648,-0.910282
7.525,273.664,-0.910294
7.52667,273.681,-0.910307
7.52833,273.698,-0.910329
7.53,273.714,-0.910358
7.53167,273.731,-0.91039
7.53333,273.747,-0.910427
7.535,273.764,-0.910468
7.53667,273.781,-0.910522
7.53833,273.798,-0.910575
7.54,273.814,-0.910635
7.54167,273.831,-0.910692
7.54333,273.848,-0.910749
7.545,273.864,-0.910794
7.54667,273.881,-0.910827
7.54833,273.897,-0.910854
7.55,273.914,-0.910882
7.55167,273.931,-0.910915
7.55333,273.947,-0.910946
7.555,273.964,-0.910973
7.55667,273.98,-0.910999
7.55833,273.997,-0.911025
7.56,274.014,-0.911065
7.56167,274.031,-0.911105
7.56333,274.047,-0.911145
7.565,274.064,-0.911187
7.56667,274.08,-0.911224
7.56833,274.098,-0.911262
7.57,274.114,-0.911307
7.57167,274.131,-0.911345
7.57333,274.148,-0.911375
7.575,274.164,-0.911401
7.57667,274.181,-0.911428
7.57833,274.198,-0.911461
7.58,274.214,-0.911493
7.58167,274.231,-0.911523
7.58333,274.248,-0.91155
7.585,274.264,-0.911584
7.58667,274.281,-0.911619
7.58833,274.298,-0.911652
7.59,274.314,-0.911686
7.59167,274.331,-0.911719
7.59333,274.348,-0.911746
7.595,274.364,-0.911769
7.59667,274.381,-0.911789
7.59833,274.397,-0.911805
7.6,274.414,-0.911823
7.60167,274.43,-0.911845
7.60333,274.447,-0.911867
7.605,274.463,-0.91189
7.60667,274.48,-0.911928
7.60833,274.497,-0.911973
7.61,274.514,-0.912022
7.61167,274.53,-0.91208
7.61333,274.547,-0.912141
7.615,274.563,-0.912204
7.61667,274.58,-0.912265
7.61833,274.597,-0.912319
7.62,274.614,-0.912367
7.62167,274.63,-0.912406
7.62333,274.647,-0.912442
7.625,274.663,-0.912474
7.62667,274.68,-0.912508
7.62833,274.697,-0.912531
7.63,274.714,-0.912557
7.63167,274.73,-0.912586
7.63333,274.747,-0.912613
7.635,274.764,-0.912637
7.63667,274.781,-0.91265
7.63833,274.797,-0.912656
7.64,274.814,-0.912662
7.64167,274.83,-0.91267
7.64333,274.847,-0.912684
7.645,274.864,-0.912705
7.64667,274.88,-0.912729
7.64833,274.897,-0.912753
7.65,274.914,-0.912777
7.65167,274.93,-0.912811
7.65333,274.947,-0.912849
7.655,274.964,-0.912893
7.65667,274.98,-0.912927
7.65833,274.997,-0.912959
7.66,275.014,-0.912978
7.66167,275.031,-0.912999
7.66333,275.047,-0.913025
7.665,275.064,-0.913043
7.66667,275.08,-0.913061
7.66833,275.097,-0.913081
7.67,275.114,-0.913111
7.67167,275.131,-0.913158
7.67333,275.147,-0.913208
7.675,275.164,-0.913254
7.67667,275.18,-0.913308
7.67833,275.197,-0.913369
7.68,275.214,-0.91343
7.68167,275.231,-0.913489
7.68333,275.248,-0.913538
7.685,275.264,-0.913587
7.68667,275.281,-0.913624
7.68833,275.298,-0.913656
7.69,275.314,-0.913688
7.69167,275.331,-0.913722
7.69333,275.348,-0.913755
7.695,275.364,-0.913794
7.69667,275.381,-0.913837
7.69833,275.397,-0.913877
7.7,275.414,-0.913914
7.70167,275.431,-0.913953
7.70333,275.447,-0.913999
7.705,275.464,-0.914036
7.70667,275.48,-0.914059
7.70833,275.498,-0.914078
7.71,275.514,-0.914088
7.71167,275.531,-0.914098
7.71333,275.548,-0.914121
7.715,275.564,-0.914144
7.71667,275.581,-0.914172
7.71833,275.597,-0.914213
7.72,275.614,-0.914264
7.72167,275.631,-0.91432
7.72333,275.647,-0.914375
7.725,275.664,-0.914424
7.72667,275.68,-0.914476
7.72833,275.697,-0.914518
7.73,275.714,-0.914556
7.73167,275.73,-0.914581
7.73333,275.747,-0.914594
7.735,275.764,-0.914607
7.73667,275.78,-0.914606
7.73833,275.797,-0.914604
7.74,275.814,-0.914599
7.74167,275.83,-0.914599
7.74333,275.847,-0.914604
7.745,275.864,-0.914619
7.74667,275.88,-0.914642
7.74833,275.897,-0.914681
7.75,275.914,-0.914735
7.75167,275.93,-0.914789
7.75333,275.947,-0.914851
7.755,275.963,-0.91491
7.75667,275.98,-0.914966
7.75833,275.997,-0.915014
7.76,276.013,-0.915045
7.76167,276.03,-0.91507
7.76333,276.047,-0.915084
7.765,276.064,-0.915101
7.76667,276.08,-0.915128
7.76833,276.097,-0.915156
7.77,276.113,-0.91519
7.77167,276.13,-0.915221
7.77333,276.147,-0.915257
7.775,276.164,-0.915292
7.77667,276.18,-0.915325
7.77833,276.197,-0.915358
7.78,276.213,-0.915384
7.78167,276.23,-0.915408
7.78333,276.246,-0.915433
7.785,276.263,-0.915457
7.78667,276.28,-0.915477
7.78833,276.297,-0.915506
7.79,276.313,-0.915534
7.79167,276.33,-0.91556
7.79333,276.346,-0.915591
7.795,276.363,-0.915621
7.79667,276.38,-0.915645
7.79833,276.397,-0.915674
7.8,276.413,-0.915707
7.80167,276.43,-0.915739
7.80333,276.447,-0.915773
7.805,276.463,-0.915809
7.80667,276.48,-0.915843
7.80833,276.497,-0.915879
7.81,276.514,-0.915923
7.81167,276.53,-0.915964
7.81333,276.547,-0.916005
7.815,276.564,-0.916035
7.81667,276.58,-0.916067
7.81833,276.597,-0.916095
7.82,276.613,-0.91612
7.82167,276.63,-0.91614
7.82333,276.647,-0.916168
7.825,276.663,-0.916198
7.82667,276.68,-0.916236
7.82833,276.696,-0.916279
7.83,276.714,-0.916327
7.83167,276.73,-0.916378
7.83333,276.747,-0.916416
7.835,276.764,-0.916451
7.83667,276.78,-0.91649
7.83833,276.797,-0.916531
7.84,276.813,-0.91656
7.84167,276.83,-0.916592
7.84333,276.847,-0.916624
7.845,276.863,-0.916654
7.84667,276.88,-0.916683
7.84833,276.897,-0.916711
7.85,276.914,-0.916743
7.85167,276.93,-0.916782
7.85333,276.947,-0.91682
7.855,276.964,-0.916862
7.85667,276.98,-0.916905
7.85833,276.997,-0.916947
7.86,277.014,-0.916991
7.86167,277.03,-0.91704
7.86333,277.046,-0.917091
7.865,277.063,-0.917136
7.86667,277.079,-0.917181
7.86833,277.096,-0.917223
7.87,277.113,-0.917262
7.87167,277.13,-0.9173
7.87333,277.147,-0.917343
7.875,277.164,-0.917377
7.87667,277.18,-0.917408
7.87833,277.197,-0.917438
7.88,277.214,-0.91747
7.88167,277.23,-0.917505
7.88333,277.247,-0.91754
7.885,277.263,-0.917573
7.88667,277.28,-0.917605
7.88833,277.297,-0.917628
7.89,277.313,-0.917657
7.89167,277.33,-0.91769
7.89333,277.347,-0.917724
7.895,277.363,-0.917755
7.89667,277.38,-0.917776
7.89833,277.397,-0.917798
7.9,277.413,-0.917813
7.90167,277.43,-0.917831
7.90333,277.447,-0.917848
7.905,277.463,-0.917863
7.90667,277.48,-0.917878
7.90833,277.496,-0.917898
7.91,277.513,-0.917918
7.91167,277.53,-0.917943
7.91333,277.547,-0.917977
7.915,277.563,-0.918008
7.91667,277.58,-0.918041
7.91833,277.596,-0.918075
7.92,277.613,-0.918106
7.92167,277.63,-0.918135
7.92333,277.647,-0.918162
7.925,277.663,-0.918189
7.92667,277.679,-0.918224
7.92833,277.696,-0.918259
7.93,277.713,-0.91829
7.93167,277.729,-0.918321
7.93333,277.746,-0.918362
7.935,277.763,-0.9184
7.93667,277.779,-0.918434
7.93833,277.796,-0.918465
7.94,277.813,-0.918497
7.94167,277.83,-0.918523
7.94333,277.846,-0.918547
7.945,277.863,-0.918572
7.94667,277.88,-0.918601
7.94833,277.896,-0.918638
7.95,277.913,-0.918668
7.95167,277.929,-0.918703
7.95333,277.946,-0.918735
7.955,277.962,-0.91877
7.95667,277.979,-0.918801
7.95833,277.996,-0.91883
7.96,278.013,-0.918858
7.96167,278.029,-0.918882
7.96333,278.046,-0.9189
7.965,278.063,-0.918924
7.96667,278.079,-0.918955
7.96833,278.095,-0.918982
7.97,278.112,-0.919008
7.97167,278.129,-0.919035
7.97333,278.145,-0.919058
7.975,278.162,-0.919081
7.97667,278.179,-0.919104
7.97833,278.196,-0.919125
7.98,278.212,-0.919139
7.98167,278.229,-0.919165
7.98333,278.246,-0.919191
7.985,278.262,-0.919218
7.98667,278.279,-0.919238
7.98833,278.296,-0.919264
7.99,278.312,-0.919295
7.99167,278.329,-0.919335
7.99333,278.346,-0.919377
7.995,278.362,-0.919426
7.99667,278.379,-0.919468
7.99833,278.396,-0.919521
8,278.413,-0.91957
8.00167,278.429,-0.919617
8.00333,278.446,-0.919655
8.005,278.462,-0.919693
8.00667,278.479,-0.919729
8.00833,278.496,-0.919771
8.01,278.513,-0.91981
8.01167,278.529,-0.919845
8.01333,278.546,-0.919879
8.015,278.563,-0.919913
8.01667,278.579,-0.919948
8.01833,278.596,-0.919978
8.02,278.612,-0.920006
8.02167,278.629,-0.920034
8.02333,278.646,-0.920069
8.025,278.663,-0.920106
8.02667,278.679,-0.920142
8.02833,278.696,-0.920178
8.03,278.712,-0.920219
8.03167,278.729,-0.920257
8.03333,278.745,-0.920301
8.035,278.762,-0.920341
8.03667,278.779,-0.920379
8.03833,278.795,-0.920413
8.04,278.813,-0.920448
8.04167,278.829,-0.92049
8.04333,278.846,-0.920526
8.045,278.862,-0.920551
8.04667,278.879,-0.920576
8.04833,278.895,-0.920603
8.05,278.912,-0.920622
8.05167,278.929,-0.920647
8.05333,278.945,-0.920669
8.055,278.962,-0.920692
8.05667,278.978,-0.920723
8.05833,278.996,-0.920761
8.06,279.012,-0.920802
8.06167,279.028,-0.920844
8.06333,279.045,-0.920888
8.065,279.062,-0.920943
8.06667,279.079,-0.920995
8.06833,279.095,-0.921045
8.07,279.111,-0.921082
8.07167,279.128,-0.921113
8.07333,279.145,-0.921143
8.075,279.162,-0.921176
8.07667,279.178,-0.921207
8.07833,279.195,-0.921241
8.08,279.211,-0.921277
8.08167,279.228,-0.921312
8.08333,279.245,-0.921343
8.085,279.262,-0.921375
8.08667,279.278,-0.921411
8.08833,279.295,-0.921445
8.09,279.312,-0.921475
8.09167,279.328,-0.921503
8.09333,279.345,-0.921532
8.095,279.361,-0.921558
8.09667,279.378,-0.921591
8.09833,279.395,-0.921631
8.1,279.411,-0.921671
8.10167,279.428,-0.921708
8.10333,279.445,-0.921747
8.105,279.462,-0.921777
8.10667,279.478,-0.921797
8.10833,279.495,-0.921816
8.11,279.512,-0.921839
8.11167,279.528,-0.92186
8.11333,279.545,-0.921877
8.115,279.562,-0.921892
8.11667,279.579,-0.921907
8.11833,279.595,-0.921927
8.12,279.612,-0.921949
8.12167,279.629,-0.921971
8.12333,279.645,-0.921998
8.125,279.662,-0.922023
8.12667,279.678,-0.922051
8.12833,279.695,-0.922088
8.13,279.712,-0.922127
8.13167,279.728,-0.922156
8.13333,279.745,-0.922195
8.135,279.762,-0.922243
8.13667,279.778,-0.922291
8.13833,279.795,-0.92234
8.14,279.811,-0.922378
8.14167,279.828,-0.922415
8.14333,279.844,-0.922455
8.145,279.861,-0.922497
8.14667,279.878,-0.922541
8.14833,279.894,-0.92258
8.15,279.911,-0.922609
8.15167,279.928,-0.922649
8.15333,279.944,-0.922695
8.155,279.961,-0.922746
8.15667,279.978,-0.922797
8.15833,279.994,-0.922844
8.16,280.011,-0.922894
8.16167,280.027,-0.922941
8.16333,280.045,-0.922992
8.165,280.061,-0.923047
8.16667,280.078,-0.923105
8.16833,280.094,-0.923155
8.17,280.111,-0.923199
8.17167,280.127,-0.923239
8.17333,280.145,-0.923275
8.175,280.161,-0.923314
8.17667,280.177,-0.923348
8.17833,280.194,-0.923383
8.18,280.211,-0.923407
8.18167,280.227,-0.923431
8.18333,280.244,-0.923459
8.185,280.26,-0.923489
8.18667,280.277,-0.923521
8.18833,280.294,-0.923553
8.19,280.311,-0.923578
8.19167,280.327,-0.923607
8.19333,280.344,-0.923637
8.195,280.36,-0.92367
8.19667,280.377,-0.923705
8.19833,280.393,-0.923732
8.2,280.41,-0.923764
8.20167,280.427,-0.92381
8.20333,280.443,-0.923855
8.205,280.46,-0.923888
8.20667,280.477,-0.923916
8.20833,280.494,-0.923943
8.21,280.51,-0.923967
8.21167,280.527,-0.923987
8.21333,280.543,-0.92401
8.215,280.56,-0.924042
8.21667,280.577,-0.92408
8.21833,280.593,-0.924117
8.22,280.61,-0.924157
8.22167,280.626,-0.924205
8.22333,280.643,-0.924245
8.225,280.66,-0.924289
8.22667,280.676,-0.924331
8.22833,280.693,-0.924363
8.23,280.709,-0.924391
8.23167,280.726,-0.924414
8.23333,280.743,-0.924432
8.235,280.76,-0.924448
8.23667,280.776,-0.92446
8.23833,280.793,-0.924476
8.24,280.809,-0.924494
8.24167,280.826,-0.924518
8.24333,280.843,-0.924542
8.245,280.86,-0.924575
8.24667,280.876,-0.924606
8.24833,280.893,-0.924636
8.25,280.91,-0.924667
8.25167,280.926,-0.92469
8.25333,280.943,-0.924716
8.255,280.959,-0.924741
8.25667,280.976,-0.924772
8.25833,280.993,-0.924809
8.26,281.01,-0.924853
8.26167,281.026,-0.9249
8.26333,281.043,-0.924952
8.265,281.059,-0.925014
8.26667,281.076,-0.925072
8.26833,281.093,-0.925131
8.27,281.109,-0.925177
8.27167,281.126,-0.925219
8.27333,281.142,-0.925252
8.275,281.16,-0.925288
8.27667,281.176,-0.925324
8.27833,281.192,-0.925363
8.28,281.209,-0.925406
8.28167,281.226,-0.925445
8.28333,281.243,-0.925484
8.285,281.259,-0.92552
8.28667,281.276,-0.925561
8.28833,281.292,-0.925595
8.29,281.309,-0.925619
8.29167,281.325,-0.92564
8.29333,281.342,-0.925661
8.295,281.359,-0.92568
8.29667,281.375,-0.925699
8.29833,281.392,-0.92572
8.3,281.409,-0.925742
8.30167,281.426,-0.92577
8.30333,281.443,-0.925806
8.305,281.459,-0.925852
8.30667,281.476,-0.9259
8.30833,281.492,-0.925953
8.31,281.509,-0.926005
8.31167,281.526,-0.926058
8.31333,281.542,-0.926118
8.315,281.559,-0.926177
8.31667,281.575,-0.926232
8.31833,281.592,-0.926275
8.32,281.609,-0.926315
8.32167,281.625,-0.926357
8.32333,281.642,-0.926395
8.325,281.659,-0.926426
8.32667,281.675,-0.92645
8.32833,281.692,-0.926472
8.33,281.708,-0.926497
8.33167,281.725,-0.926525
8.33333,281.742,-0.926549
8.335,281.758,-0.926568
8.33667,281.775,-0.926586
8.33833,281.792,-0.926615
8.34,281.808,-0.926644
8.34167,281.825,-0.926672
8.34333,281.841,-0.926703
8.345,281.858,-0.926726
8.34667,281.875,-0.926753
8.34833,281.891,-0.92679
8.35,281.908,-0.926824
8.35167,281.925,-0.926857
8.35333,281.941,-0.926892
8.355,281.958,-0.926929
8.35667,281.975,-0.926977
8.35833,281.992,-0.927017
8.36,282.008,-0.927051
8.36167,282.025,-0.927081
8.36333,282.041,-0.92711
8.365,282.058,-0.927145
8.36667,282.075,-0.927183
8.36833,282.091,-0.927223
8.37,282.108,-0.927261
8.37167,282.124,-0.927295
8.37333,282.141,-0.927322
8.375,282.158,-0.927347
8.37667,282.174,-0.92738
8.37833,282.191,-0.927406
8.38,282.208,-0.927431
8.38167,282.225,-0.927466
8.38333,282.242,-0.927505
8.385,282.259,-0.927553
8.38667,282.275,-0.927603
8.38833,282.292,-0.927653
8.39,282.309,-0.927716
8.39167,282.325,-0.927787
8.39333,282.341,-0.927845
8.395,282.358,-0.927896
8.39667,282.375,-0.927947
8.39833,282.391,-0.927995
8.4,282.408,-0.928042
8.40167,282.424,-0.928089
8.40333,282.441,-0.928128
8.405,282.458,-0.928156
8.40667,282.475,-0.928167
8.40833,282.492,-0.92818
8.41,282.508,-0.928197
8.41167,282.525,-0.928221
8.41333,282.542,-0.92825
8.415,282.558,-0.928281
8.41667,282.575,-0.928327
8.41833,282.591,-0.928376
8.42,282.608,-0.928435
8.42167,282.625,-0.928485
8.42333,282.641,-0.928535
8.425,282.658,-0.928578
8.42667,282.675,-0.928616
8.42833,282.691,-0.928654
8.43,282.708,-0.92869
8.43167,282.725,-0.928729
8.43333,282.741,-0.928766
8.435,282.758,-0.928813
8.43667,282.775,-0.928866
8.43833,282.791,-0.92893
8.44,282.808,-0.928998
8.44167,282.824,-0.929057
8.44333,282.841,-0.929113
8.445,282.858,-0.929167
8.44667,282.874,-0.929212
8.44833,282.891,-0.929255
8.45,282.907,-0.92929
8.45167,282.924,-0.929323
8.45333,282.941,-0.929355
8.455,282.958,-0.929383
8.45667,282.974,-0.929417
8.45833,282.991,-0.929456
8.46,283.007,-0.92949
8.46167,283.024,-0.929521
8.46333,283.041,-0.929554
8.465,283.057,-0.929588
8.46667,283.074,-0.929633
8.46833,283.091,-0.929668
8.47,283.107,-0.929701
8.47167,283.124,-0.929739
8.47333,283.14,-0.929782
8.475,283.157,-0.929824
8.47667,283.174,-0.929865
8.47833,283.19,-0.929907
8.48,283.207,-0.929946
8.48167,283.224,-0.929982
8.48333,283.24,-0.930026
8.485,283.257,-0.930068
8.48667,283.274,-0.930103
8.48833,283.29,-0.930134
8.49,283.307,-0.930164
8.49167,283.324,-0.930195
8.49333,283.34,-0.930224
8.495,283.357,-0.930249
8.49667,283.374,-0.930278
8.49833,283.391,-0.930305
8.5,283.407,-0.930336
8.50167,283.424,-0.930375
8.50333,283.44,-0.930414
8.505,283.457,-0.930452
8.50667,283.474,-0.930492
8.50833,283.491,-0.930546
8.51,283.507,-0.930605
8.51167,283.524,-0.930656
8.51333,283.54,-0.930699
8.515,283.557,-0.930748
8.51667,283.574,-0.9308
8.51833,283.59,-0.930851
8.52,283.607,-0.930886
8.52167,283.624,-0.930917
8.52333,283.64,-0.930937
8.525,283.657,-0.930953
8.52667,283.673,-0.930969
8.52833,283.69,-0.93098
8.53,283.707,-0.931003
8.53167,283.723,-0.931025
8.53333,283.74,-0.931054
8.535,283.757,-0.93109
8.53667,283.773,-0.931126
8.53833,283.79,-0.931164
8.54,283.807,-0.931205
8.54167,283.824,-0.931251
8.54333,283.84,-0.931297
8.545,283.857,-0.931334
8.54667,283.873,-0.93137
8.54833,283.89,-0.931405
8.55,283.907,-0.931445
8.55167,283.924,-0.931484
8.55333,283.94,-0.931525
8.555,283.957,-0.93156
8.55667,283.973,-0.931593
8.55833,283.99,-0.931632
8.56,284.007,-0.931675
8.56167,284.023,-0.931726
8.56333,284.04,-0.931782
8.565,284.057,-0.931836
8.56667,284.073,-0.9319
8.56833,284.09,-0.931964
8.57,284.107,-0.932031
8.57167,284.124,-0.932085
8.57333,284.141,-0.932136
8.575,284.157,-0.932187
8.57667,284.174,-0.932232
8.57833,284.19,-0.932275
8.58,284.206,-0.932315
8.58167,284.223,-0.932346
8.58333,284.24,-0.932373
8.585,284.257,-0.932405
8.58667,284.273,-0.932441
8.58833,284.29,-0.932479
8.59,284.307,-0.932511
8.59167,284.323,-0.932544
8.59333,284.34,-0.932573
8.595,284.357,-0.932603
8.59667,284.373,-0.932635
8.59833,284.39,-0.932667
8.6,284.407,-0.932698
8.60167,284.423,-0.93273
8.60333,284.44,-0.932763
8.605,284.457,-0.932805
8.60667,284.473,-0.93285
8.60833,284.49,-0.932899
8.61,284.507,-0.932946
8.61167,284.523,-0.932994
8.61333,284.54,-0.933037
8.615,284.557,-0.933085
8.61667,284.573,-0.933128
8.61833,284.59,-0.933169
8.62,284.607,-0.933202
8.62167,284.623,-0.933231
8.62333,284.64,-0.933251
8.625,284.657,-0.933262
8.62667,284.674,-0.933273
8.62833,284.69,-0.933285
8.63,284.707,-0.933301
8.63167,284.723,-0.933321
8.63333,284.74,-0.933354
8.635,284.757,-0.933392
8.63667,284.774,-0.933437
8.63833,284.791,-0.933484
8.64,284.807,-0.933524
8.64167,284.824,-0.93356
8.64333,284.841,-0.933593
8.645,284.857,-0.933623
8.64667,284.874,-0.933659
8.64833,284.89,-0.933697
8.65,284.907,-0.933741
8.65167,284.923,-0.933794
8.65333,284.94,-0.933851
8.655,284.956,-0.933905
8.65667,284.973,-0.933962
8.65833,284.99,-0.934018
8.66,285.007,-0.934064
8.66167,285.023,-0.9341
8.66333,285.04,-0.93413
8.665,285.057,-0.934157
8.66667,285.073,-0.934181
8.66833,285.09,-0.93421
8.67,285.107,-0.934242
8.67167,285.123,-0.934277
8.67333,285.14,-0.934302
8.675,285.157,-0.934341
8.67667,285.173,-0.934381
8.67833,285.19,-0.934421
8.68,285.207,-0.934464
8.68167,285.224,-0.934507
8.68333,285.241,-0.93456
8.685,285.257,-0.934625
8.68667,285.274,-0.934716
8.68833,285.29,-0.93479
8.69,285.307,-0.934853
8.69167,285.324,-0.934913
8.69333,285.34,-0.934959
8.695,285.357,-0.935007
8.69667,285.374,-0.935055
8.69833,285.39,-0.935101
8.7,285.407,-0.935139
8.70167,285.424,-0.935172
8.70333,285.441,-0.935195
8.705,285.457,-0.935226
8.70667,285.474,-0.935259
8.70833,285.49,-0.93529
8.71,285.507,-0.935324
8.71167,285.523,-0.935355
8.71333,285.54,-0.935381
8.715,285.557,-0.935411
8.71667,285.573,-0.935447
8.71833,285.59,-0.935486
8.72,285.607,-0.935525
8.72167,285.623,-0.935566
8.72333,285.64,-0.935612
8.725,285.657,-0.935653
8.72667,285.673,-0.935698
8.72833,285.69,-0.93575
8.73,285.707,-0.935799
8.73167,285.723,-0.935854
8.73333,285.74,-0.93592
8.735,285.757,-0.935989
8.73667,285.774,-0.936057
8.73833,285.79,-0.936124
8.74,285.807,-0.93619
8.74167,285.824,-0.936257
8.74333,285.84,-0.93631
8.745,285.857,-0.936356
8.74667,285.873,-0.936384
8.74833,285.89,-0.936406
8.75,285.906,-0.936422
8.75167,285.923,-0.936432
8.75333,285.94,-0.936453
8.755,285.956,-0.936476
8.75667,285.973,-0.936495
8.75833,285.99,-0.936521
8.76,286.006,-0.936551
8.76167,286.023,-0.936578
8.76333,286.04,-0.93661
8.765,286.056,-0.936641
8.76667,286.073,-0.936672
8.76833,286.09,-0.936708
8.77,286.107,-0.936749
8.77167,286.123,-0.936799
8.77333,286.14,-0.936861
8.775,286.157,-0.93694
8.77667,286.173,-0.937002
8.77833,286.19,-0.937066
8.78,286.207,-0.937126
8.78167,286.223,-0.937182
8.78333,286.24,-0.937236
8.785,286.257,-0.937276
8.78667,286.273,-0.937308
8.78833,286.29,-0.937335
8.79,286.306,-0.937363
8.79167,286.323,-0.937398
8.79333,286.34,-0.937435
8.795,286.356,-0.937468
8.79667,286.373,-0.937502
8.79833,286.39,-0.937536
8.8,286.407,-0.937575
8.80167,286.423,-0.937621
8.80333,286.44,-0.937658
8.805,286.457,-0.937679
8.80667,286.473,-0.937704
8.80833,286.49,-0.937737
8.81,286.506,-0.937776
8.81167,286.523,-0.937816
8.81333,286.54,-0.937862
8.815,286.556,-0.937902
8.81667,286.573,-0.937943
8.81833,286.59,-0.937997
8.82,286.607,-0.938053
8.82167,286.623,-0.938112
8.82333,286.64,-0.938166
8.825,286.656,-0.938226
8.82667,286.673,-0.938276
8.82833,286.689,-0.938322
8.83,286.706,-0.938375
8.83167,286.723,-0.938425
8.83333,286.74,-0.938471
8.835,286.756,-0.938508
8.83667,286.773,-0.938549
8.83833,286.789,-0.938595
8.84,286.806,-0.938647
8.84167,286.823,-0.938703
8.84333,286.84,-0.93876
8.845,286.856,-0.93881
8.84667,286.873,-0.938863
8.84833,286.89,-0.938908
8.85,286.906,-0.938955
8.85167,286.923,-0.938999
8.85333,286.94,-0.93904
8.855,286.956,-0.93908
8.85667,286.973,-0.939112
8.85833,286.989,-0.939151
8.86,287.006,-0.939187
8.86167,287.022,-0.939221
8.86333,287.039,-0.939253
8.865,287.056,-0.939287
8.86667,287.073,-0.939323
8.86833,287.089,-0.939357
8.87,287.106,-0.939392
8.87167,287.122,-0.939435
8.87333,287.139,-0.93948
8.875,287.155,-0.939525
8.87667,287.172,-0.939579
8.87833,287.188,-0.939642
8.88,287.205,-0.939705
8.88167,287.222,-0.939762
8.88333,287.238,-0.939818
8.885,287.255,-0.939868
8.88667,287.272,-0.939908
8.88833,287.289,-0.939941
8.89,287.305,-0.939973
8.89167,287.322,-0.940005
8.89333,287.339,-0.940039
8.895,287.355,-0.940076
8.89667,287.372,-0.940111
8.89833,287.388,-0.940152
8.9,287.405,-0.940198
8.90167,287.422,-0.940261
8.90333,287.438,-0.940328
8.905,287.455,-0.940398
8.90667,287.472,-0.940463
8.90833,287.488,-0.940524
8.91,287.505,-0.940577
8.91167,287.521,-0.940625
8.91333,287.538,-0.940677
8.915,287.555,-0.94072
8.91667,287.571,-0.940768
8.91833,287.588,-0.940811
8.92,287.605,-0.940853
8.92167,287.621,-0.940905
8.92333,287.638,-0.940956
8.925,287.655,-0.941008
8.92667,287.671,-0.941063
8.92833,287.687,-0.941122
8.93,287.704,-0.94118
8.93167,287.721,-0.941232
8.93333,287.737,-0.941278
8.935,287.754,-0.941324
8.93667,287.771,-0.941367
8.93833,287.787,-0.941407
8.94,287.804,-0.941446
8.94167,287.821,-0.941486
8.94333,287.837,-0.941512
8.945,287.854,-0.941537
8.94667,287.871,-0.941567
8.94833,287.887,-0.941599
8.95,287.904,-0.941623
8.95167,287.92,-0.94165
8.95333,287.937,-0.941684
8.955,287.954,-0.941727
8.95667,287.97,-0.941781
8.95833,287.987,-0.941847
8.96,288.004,-0.941917
8.96167,288.021,-0.941982
8.96333,288.037,-0.942045
8.965,288.054,-0.942113
8.96667,288.071,-0.942177
8.96833,288.087,-0.942238
8.97,288.104,-0.942299
8.97167,288.12,-0.942357
8.97333,288.137,-0.942412
8.975,288.154,-0.942464
8.97667,288.171,-0.942517
8.97833,288.187,-0.942567
8.98,288.204,-0.942615
8.98167,288.22,-0.942658
8.98333,288.237,-0.942702
8.985,288.254,-0.942747
8.98667,288.27,-0.942792
8.98833,288.287,-0.942834
8.99,288.303,-0.942878
8.99167,288.32,-0.942928
8.99333,288.337,-0.94298
8.995,288.354,-0.943022
8.99667,288.37,-0.943073
8.99833,288.387,-0.943122
9,288.403,-0.943169
9.00167,288.42,-0.943218
9.00333,288.437,-0.94327
9.005,288.454,-0.94333
9.00667,288.47,-0.943388
9.00833,288.487,-0.943438
9.01,288.503,-0.943485
9.01167,288.52,-0.943531
9.01333,288.537,-0.943578
9.015,288.553,-0.943623
9.01667,288.57,-0.94367
9.01833,288.586,-0.943716
9.02,288.603,-0.943759
9.02167,288.619,-0.943803
9.02333,288.636,-0.943853
9.025,288.653,-0.943914
9.02667,288.67,-0.943977
9.02833,288.686,-0.944035
9.03,288.703,-0.944095
9.03167,288.72,-0.944152
9.03333,288.736,-0.944206
9.035,288.753,-0.944261
9.03667,288.769,-0.944318
9.03833,288.786,-0.944371
9.04,288.803,-0.944423
9.04167,288.819,-0.944469
9.04333,288.836,-0.944516
9.045,288.853,-0.944565
9.04667,288.87,-0.944614
9.04833,288.887,-0.944669
9.05,288.903,-0.944734
9.05167,288.92,-0.944797
9.05333,288.937,-0.944865
9.055,288.953,-0.944928
9.05667,288.97,-0.944992
9.05833,288.986,-0.945065
9.06,289.003,-0.945135
9.06167,289.019,-0.945201
9.06333,289.036,-0.945254
9.065,289.053,-0.945294
9.06667,289.069,-0.945332
9.06833,289.086,-0.945373
9.07,289.103,-0.945414
9.07167,289.12,-0.94545
9.07333,289.136,-0.94549
9.075,289.153,-0.945533
9.07667,289.169,-0.945587
9.07833,289.186,-0.945649
9.08,289.203,-0.945717
9.08167,289.219,-0.945788
9.08333,289.236,-0.945854
9.085,289.253,-0.945917
9.08667,289.269,-0.945981
9.08833,289.285,-0.946042
9.09,289.303,-0.946096
9.09167,289.319,-0.946152
9.09333,289.336,-0.946209
9.095,289.352,-0.946275
9.09667,289.369,-0.946349
9.09833,289.386,-0.946417
9.1,289.403,-0.946483
9.10167,289.419,-0.946545
9.10333,289.436,-0.94661
9.105,289.452,-0.946673
9.10667,289.469,-0.946729
9.10833,289.485,-0.946789
9.11,289.502,-0.946839
9.11167,289.519,-0.946886
9.11333,289.535,-0.946942
9.115,289.552,-0.947005
9.11667,289.569,-0.947066
9.11833,289.585,-0.947128
9.12,289.602,-0.947186
9.12167,289.619,-0.947238
9.12333,289.636,-0.947289
9.125,289.652,-0.947336
9.12667,289.669,-0.947389
9.12833,289.686,-0.947449
9.13,289.702,-0.947513
9.13167,289.719,-0.947581
9.13333,289.736,-0.947658
9.135,289.752,-0.947737
9.13667,289.768,-0.94782
9.13833,289.786,-0.947947
9.14,289.802,-0.948048
9.14167,289.818,-0.948136
9.14333,289.835,-0.948218
9.145,289.852,-0.948292
9.14667,289.868,-0.948366
9.14833,289.885,-0.948433
9.15,289.902,-0.948488
9.15167,289.918,-0.948538
9.15333,289.935,-0.948578
9.155,289.951,-0.94862
9.15667,289.968,-0.948658
9.15833,289.985,-0.948698
9.16,290.001,-0.948748
9.16167,290.018,-0.948802
9.16333,290.035,-0.948852
9.165,290.051,-0.948902
9.16667,290.068,-0.948954
9.16833,290.084,-0.949014
9.17,290.101,-0.949077
9.17167,290.118,-0.949138
9.17333,290.135,-0.949197
9.175,290.151,-0.949253
9.17667,290.168,-0.949306
9.17833,290.185,-0.949352
9.18,290.201,-0.949393
9.18167,290.218,-0.949436
9.18333,290.234,-0.94947
9.185,290.251,-0.949501
9.18667,290.268,-0.949534
9.18833,290.284,-0.949564
9.19,290.301,-0.949614
9.19167,290.318,-0.949675
9.19333,290.335,-0.94974
9.195,290.351,-0.949819
9.19667,290.368,-0.949925
9.19833,290.384,-0.950044
9.2,290.401,-0.950192
9.20167,290.418,-0.950337
9.20333,290.434,-0.950447
9.205,290.451,-0.950523
9.20667,290.468,-0.950591
9.20833,290.484,-0.950654
9.21,290.501,-0.950707
9.21167,290.518,-0.950757
9.21333,290.534,-0.950812
9.215,290.551,-0.950866
9.21667,290.568,-0.950921
9.21833,290.584,-0.950972
9.22,290.601,-0.951017
9.22167,290.618,-0.951067
9.22333,290.634,-0.951105
9.225,290.651,-0.951137
9.22667,290.668,-0.951164
9.22833,290.685,-0.9512
9.23,290.702,-0.951245
9.23167,290.718,-0.951292
9.23333,290.734,-0.951349
9.235,290.751,-0.951417
9.23667,290.768,-0.951489
9.23833,290.785,-0.951587
9.24,290.801,-0.951698
9.24167,290.818,-0.951811
9.24333,290.835,-0.95194
9.245,290.852,-0.952024
9.24667,290.868,-0.952103
9.24833,290.885,-0.95218
9.25,290.901,-0.952251
9.25167,290.918,-0.952321
9.25333,290.935,-0.952387
9.255,290.951,-0.95245
9.25667,290.968,-0.952501
9.25833,290.985,-0.952548
9.26,291.001,-0.952601
9.26167,291.018,-0.952656
9.26333,291.035,-0.952717
9.265,291.051,-0.952772
9.26667,291.068,-0.952823
9.26833,291.085,-0.952877
9.27,291.101,-0.952941
9.27167,291.118,-0.953009
9.27333,291.135,-0.953083
9.275,291.151,-0.953156
9.27667,291.168,-0.953236
9.27833,291.184,-0.953317
9.28,291.201,-0.953393
9.28167,291.218,-0.95347
9.28333,291.235,-0.95354
9.285,291.251,-0.953601
9.28667,291.268,-0.953656
9.28833,291.284,-0.953702
9.29,291.301,-0.953751
9.29167,291.318,-0.953805
9.29333,291.334,-0.953864
9.295,291.351,-0.953921
9.29667,291.368,-0.95398
9.29833,291.384,-0.954039
9.3,291.401,-0.954101
9.30167,291.418,-0.954169
9.30333,291.435,-0.954243
9.305,291.451,-0.95431
9.30667,291.468,-0.954369
9.30833,291.484,-0.954426
9.31,291.501,-0.954484
9.31167,291.518,-0.954538
9.31333,291.534,-0.954592
9.315,291.551,-0.954646
9.31667,291.568,-0.954697
9.31833,291.585,-0.954743
9.32,291.601,-0.954784
9.32167,291.617,-0.954835
9.32333,291.634,-0.954887
9.325,291.651,-0.954936
9.32667,291.667,-0.954975
9.32833,291.684,-0.955019
9.33,291.7,-0.955066
9.33167,291.718,-0.955114
9.33333,291.734,-0.955167
9.335,291.751,-0.955227
9.33667,291.767,-0.955283
9.33833,291.784,-0.955346
9.34,291.801,-0.955411
9.34167,291.817,-0.955474
9.34333,291.834,-0.955545
9.345,291.851,-0.955614
9.34667,291.868,-0.955682
9.34833,291.884,-0.955744
9.35,291.901,-0.955793
9.35167,291.917,-0.955846
9.35333,291.934,-0.955892
9.355,291.95,-0.955946
9.35667,291.967,-0.955998
9.35833,291.984,-0.956054
9.36,292,-0.956115
9.36167,292.017,-0.956182
9.36333,292.033,-0.956254
9.365,292.05,-0.956324
9.36667,292.067,-0.956391
9.36833,292.083,-0.956449
9.37,292.1,-0.956507
9.37167,292.117,-0.956554
9.37333,292.133,-0.956599
9.375,292.15,-0.956646
9.37667,292.167,-0.956695
9.37833,292.184,-0.956748
9.38,292.2,-0.956796
9.38167,292.217,-0.956856
9.38333,292.234,-0.956924
9.385,292.25,-0.956992
9.38667,292.267,-0.957055
9.38833,292.284,-0.957115
9.39,292.301,-0.957179
9.39167,292.317,-0.957248
9.39333,292.334,-0.957319
9.395,292.35,-0.957383
9.39667,292.367,-0.95745
9.39833,292.384,-0.957523
9.4,292.4,-0.957585
9.40167,292.417,-0.957644
9.40333,292.433,-0.95771
9.405,292.45,-0.957771
9.40667,292.466,-0.957821
9.40833,292.483,-0.957875
9.41,292.5,-0.957931
9.41167,292.517,-0.957983
9.41333,292.533,-0.95803
9.415,292.55,-0.958073
9.41667,292.566,-0.958124
9.41833,292.583,-0.958173
9.42,292.6,-0.958228
9.42167,292.616,-0.958288
9.42333,292.633,-0.958359
9.425,292.65,-0.958434
9.42667,292.666,-0.958514
9.42833,292.683,-0.958598
9.43,292.7,-0.958679
9.43167,292.716,-0.95875
9.43333,292.733,-0.958809
9.435,292.75,-0.95886
9.43667,292.766,-0.958907
9.43833,292.783,-0.95895
9.44,292.8,-0.958981
9.44167,292.816,-0.959006
9.44333,292.833,-0.959034
9.445,292.849,-0.959072
9.44667,292.866,-0.959118
9.44833,292.883,-0.959164
9.45,292.899,-0.959217
9.45167,292.916,-0.959273
9.45333,292.932,-0.959339
9.455,292.949,-0.959407
9.45667,292.966,-0.959482
9.45833,292.983,-0.959552
9.46,292.999,-0.959612
9.46167,293.016,-0.95967
9.46333,293.032,-0.959724
9.465,293.049,-0.959779
9.46667,293.065,-0.959833
9.46833,293.082,-0.959898
9.47,293.099,-0.959961
9.47167,293.116,-0.960016
9.47333,293.132,-0.960073
9.475,293.149,-0.960127
9.47667,293.166,-0.960175
9.47833,293.183,-0.960219
9.48,293.199,-0.960275
9.48167,293.216,-0.960336
9.48333,293.233,-0.960412
9.485,293.249,-0.96051
9.48667,293.266,-0.960602
9.48833,293.283,-0.960687
9.49,293.299,-0.96076
9.49167,293.316,-0.960828
9.49333,293.332,-0.960891
9.495,293.349,-0.960957
9.49667,293.365,-0.961028
9.49833,293.382,-0.961102
9.5,293.399,-0.96117
9.50167,293.415,-0.961246
9.50333,293.432,-0.961317
9.505,293.449,-0.961389
9.50667,293.466,-0.961456
9.50833,293.482,-0.961515
9.51,293.499,-0.961566
9.51167,293.516,-0.961609
9.51333,293.532,-0.961655
9.515,293.549,-0.961706
9.51667,293.566,-0.961757
9.51833,293.582,-0.961809
9.52,293.599,-0.961862
9.52167,293.615,-0.961911
9.52333,293.632,-0.961957
9.525,293.649,-0.962003
9.52667,293.665,-0.962046
9.52833,293.682,-0.962092
9.53,293.698,-0.962135
9.53167,293.715,-0.962176
9.53333,293.732,-0.96222
9.535,293.748,-0.962256
9.53667,293.765,-0.962297
9.53833,293.782,-0.962339
9.54,293.798,-0.96238
9.54167,293.815,-0.962422
9.54333,293.832,-0.962474
9.545,293.848,-0.96253
9.54667,293.865,-0.96258
9.54833,293.882,-0.962635
9.55,293.898,-0.962696
9.55167,293.915,-0.96275
9.55333,293.931,-0.962803
9.555,293.948,-0.962853
9.55667,293.965,-0.962902
9.55833,293.982,-0.962964
9.56,293.998,-0.963023
9.56167,294.015,-0.963092
9.56333,294.031,-0.963167
9.565,294.049,-0.963238
9.56667,294.065,-0.963299
9.56833,294.082,-0.963363
9.57,294.098,-0.963422
9.57167,294.115,-0.963482
9.57333,294.132,-0.963544
9.575,294.148,-0.963609
9.57667,294.165,-0.963665
9.57833,294.181,-0.963727
9.58,294.198,-0.963794
9.58167,294.215,-0.963855
9.58333,294.231,-0.963913
9.585,294.248,-0.963967
9.58667,294.265,-0.964029
9.58833,294.281,-0.964091
9.59,294.298,-0.964153
9.59167,294.315,-0.964211
9.59333,294.332,-0.964279
9.595,294.348,-0.964353
9.59667,294.365,-0.964419
9.59833,294.381,-0.964481
9.6,294.398,-0.964538
9.60167,294.415,-0.964586
9.60333,294.431,-0.96462
9.605,294.448,-0.964663
9.60667,294.464,-0.964712
9.60833,294.481,-0.964763
9.61,294.498,-0.964813
9.61167,294.514,-0.96487
9.61333,294.531,-0.964931
9.615,294.547,-0.964995
9.61667,294.564,-0.965062
9.61833,294.581,-0.965121
9.62,294.597,-0.965178
9.62167,294.614,-0.965226
9.62333,294.631,-0.965272
9.625,294.647,-0.965323
9.62667,294.664,-0.965381
9.62833,294.681,-0.965438
9.63,294.698,-0.965493
9.63167,294.714,-0.965541
9.63333,294.731,-0.965595
9.635,294.748,-0.96565
9.63667,294.764,-0.965706
9.63833,294.781,-0.965766
9.64,294.798,-0.965824
9.64167,294.814,-0.965882
9.64333,294.831,-0.96594
9.645,294.847,-0.965999
9.64667,294.864,-0.966054
9.64833,294.881,-0.966112
9.65,294.897,-0.966173
9.65167,294.914,-0.966237
9.65333,294.931,-0.966311
9.655,294.947,-0.966384
9.65667,294.964,-0.966463
9.65833,294.981,-0.966544
9.66,294.997,-0.966621
9.66167,295.014,-0.966692
9.66333,295.03,-0.966747
9.665,295.048,-0.966786
9.66667,295.065,-0.966823
9.66833,295.081,-0.966866
9.67,295.098,-0.966907
9.67167,295.114,-0.966944
9.67333,295.131,-0.966982
9.675,295.147,-0.967023
9.67667,295.164,-0.967071
9.67833,295.181,-0.967122
9.68,295.197,-0.967176
9.68167,295.214,-0.967219
9.68333,295.23,-0.967259
9.685,295.247,-0.967289
9.68667,295.264,-0.967326
9.68833,295.281,-0.967364
9.69,295.297,-0.967399
9.69167,295.314,-0.967432
9.69333,295.331,-0.96747
9.695,295.347,-0.967512
9.69667,295.364,-0.967549
9.69833,295.38,-0.967595
9.7,295.397,-0.96764
9.70167,295.413,-0.967687
9.70333,295.43,-0.967741
9.705,295.447,-0.96779
9.70667,295.464,-0.967834
9.70833,295.48,-0.967878
9.71,295.497,-0.967921
9.71167,295.514,-0.967969
9.71333,295.53,-0.968014
9.715,295.547,-0.968059
9.71667,295.564,-0.968104
9.71833,295.581,-0.968152
9.72,295.597,-0.968202
9.72167,295.614,-0.968257
9.72333,295.63,-0.968312
9.725,295.647,-0.968366
9.72667,295.664,-0.968426
9.72833,295.68,-0.96849
9.73,295.697,-0.96856
9.73167,295.713,-0.968618
9.73333,295.73,-0.968675
9.735,295.747,-0.968728
9.73667,295.763,-0.968778
9.73833,295.78,-0.968826
9.74,295.796,-0.968878
9.74167,295.813,-0.96893
9.74333,295.83,-0.968984
9.745,295.847,-0.969042
9.74667,295.863,-0.969098
9.74833,295.88,-0.969152
9.75,295.896,-0.969205
9.75167,295.913,-0.969258
9.75333,295.93,-0.969303
9.755,295.946,-0.96934
9.75667,295.963,-0.969377
9.75833,295.98,-0.969419
9.76,295.997,-0.969464
9.76167,296.013,-0.969504
9.76333,296.03,-0.969549
9.765,296.047,-0.969605
9.76667,296.063,-0.969663
9.76833,296.08,-0.969729
9.77,296.096,-0.969796
9.77167,296.113,-0.969861
9.77333,296.13,-0.96992
9.775,296.146,-0.969982
9.77667,296.163,-0.970042
9.77833,296.18,-0.970103
9.78,296.196,-0.97017
9.78167,296.213,-0.970235
9.78333,296.23,-0.970299
9.785,296.246,-0.970368
9.78667,296.263,-0.97043
9.78833,296.28,-0.970481
9.79,296.296,-0.97053
9.79167,296.312,-0.970576
9.79333,296.329,-0.970622
9.795,296.346,-0.970662
9.79667,296.362,-0.970705
9.79833,296.379,-0.970748
9.8,296.396,-0.970789
9.80167,296.412,-0.970821
9.80333,296.429,-0.970855
9.805,296.446,-0.970882
9.80667,296.462,-0.970903
9.80833,296.479,-0.970938
9.81,296.496,-0.970971
9.81167,296.512,-0.971003
9.81333,296.529,-0.97104
9.815,296.546,-0.971082
9.81667,296.562,-0.971127
9.81833,296.579,-0.971177
9.82,296.596,-0.971232
9.82167,296.613,-0.971293
9.82333,296.629,-0.971352
9.825,296.646,-0.971408
9.82667,296.662,-0.971462
9.82833,296.679,-0.971516
9.83,296.695,-0.971565
9.83167,296.712,-0.97161
9.83333,296.729,-0.971661
9.835,296.746,-0.971713
9.83667,296.763,-0.971761
9.83833,296.78,-0.971814
9.84,296.796,-0.971865
9.84167,296.813,-0.971916
9.84333,296.829,-0.971974
9.845,296.846,-0.972026
9.84667,296.863,-0.972076
9.84833,296.879,-0.972117
9.85,296.896,-0.972156
9.85167,296.913,-0.972196
9.85333,296.929,-0.972234
9.855,296.946,-0.972274
9.85667,296.962,-0.972323
9.85833,296.979,-0.972372
9.86,296.996,-0.972425
9.86167,297.012,-0.972486
9.86333,297.03,-0.97255
9.865,297.046,-0.972614
9.86667,297.063,-0.972677
9.86833,297.079,-0.972749
9.87,297.096,-0.972819
9.87167,297.113,-0.972886
9.87333,297.129,-0.97294
9.875,297.146,-0.972986
9.87667,297.162,-0.97302
9.87833,297.179,-0.973057
9.88,297.195,-0.973094
9.88167,297.212,-0.973133
9.88333,297.229,-0.973168
9.885,297.246,-0.973205
9.88667,297.262,-0.973241
9.88833,297.279,-0.973294
9.89,297.296,-0.973348
9.89167,297.312,-0.973406
9.89333,297.329,-0.973465
9.895,297.346,-0.97352
9.89667,297.362,-0.973582
9.89833,297.379,-0.973643
9.9,297.396,-0.973712
9.90167,297.412,-0.973775
9.90333,297.429,-0.973838
9.905,297.446,-0.973893
9.90667,297.463,-0.973966
9.90833,297.479,-0.974033
9.91,297.496,-0.974096
9.91167,297.513,-0.97416
9.91333,297.529,-0.974223
9.915,297.546,-0.974287
9.91667,297.563,-0.974349
9.91833,297.579,-0.974415
9.92,297.596,-0.974479
9.92167,297.613,-0.974538
9.92333,297.629,-0.974588
9.925,297.646,-0.974636
9.92667,297.663,-0.974681
9.92833,297.679,-0.974724
9.93,297.696,-0.974758
9.93167,297.712,-0.974789
9.93333,297.729,-0.974819
9.935,297.746,-0.974847
9.93667,297.763,-0.974885
9.93833,297.779,-0.974927
9.94,297.796,-0.97497
9.94167,297.813,-0.975018
9.94333,297.83,-0.975071
9.945,297.846,-0.975129
9.94667,297.863,-0.975185
9.94833,297.879,-0.975236
9.95,297.896,-0.975275
9.95167,297.912,-0.975311
9.95333,297.929,-0.975355
9.955,297.946,-0.975401
9.95667,297.962,-0.975455
9.95833,297.979,-0.975504
9.96,297.995,-0.975556
9.96167,298.012,-0.975615
9.96333,298.029,-0.975677
9.965,298.045,-0.975743
9.96667,298.062,-0.975808
9.96833,298.079,-0.975876
9.97,298.096,-0.975941
9.97167,298.112,-0.976004
9.97333,298.129,-0.976063
9.975,298.146,-0.976111
9.97667,298.162,-0.976152
9.97833,298.179,-0.976191
9.98,298.195,-0.976223
9.98167,298.212,-0.976252
9.98333,298.229,-0.976277
9.985,298.246,-0.976313
9.98667,298.262,-0.976354
9.98833,298.279,-0.976395
9.99,298.296,-0.976438
9.99167,298.312,-0.976483
9.99333,298.329,-0.976529
9.995,298.346,-0.976588
9.99667,298.362,-0.976648
9.99833,298.379,-0.976708
10,298.396,-0.976768
10.0017,298.412,-0.976832
10.0033,298.428,-0.976894
10.005,298.445,-0.976952
10.0067,298.462,-0.977007
10.0083,298.479,-0.977068
10.01,298.495,-0.97712
10.0117,298.512,-0.977161
10.0133,298.528,-0.977201
10.015,298.545,-0.977241
10.0167,298.562,-0.977282
10.0183,298.578,-0.977327
10.02,298.595,-0.977374
10.0217,298.611,-0.977421
10.0233,298.628,-0.977475
10.025,298.645,-0.977537
10.0267,298.662,-0.977604
10.0283,298.678,-0.977668
10.03,298.695,-0.977726
10.0317,298.712,-0.977781
10.0333,298.728,-0.977831
10.035,298.745,-0.977883
10.0367,298.761,-0.97793
10.0383,298.778,-0.977971
10.04,298.795,-0.978008
10.0417,298.812,-0.978053
10.0433,298.828,-0.978095
10.045,298.845,-0.978139
10.0467,298.862,-0.978194
10.0483,298.878,-0.978241
10.05,298.895,-0.978283
10.0517,298.911,-0.97833
10.0533,298.928,-0.978392
10.055,298.945,-0.97845
10.0567,298.961,-0.978504
10.0583,298.978,-0.978565
10.06,298.995,-0.978625
10.0617,299.011,-0.97869
10.0633,299.028,-0.978757
10.065,299.045,-0.978827
10.0667,299.061,-0.978891
10.0683,299.078,-0.978949
10.07,299.095,-0.979007
10.0717,299.111,-0.979064
10.0733,299.128,-0.979123
10.075,299.144,-0.979177
10.0767,299.161,-0.979232
10.0783,299.178,-0.979288
10.08,299.194,-0.979342
10.0817,299.211,-0.979394
10.0833,299.228,-0.979443
10.085,299.244,-0.979497
10.0867,299.262,-0.979553
10.0883,299.278,-0.979613
10.09,299.294,-0.979677
10.0917,299.311,-0.979741
10.0933,299.327,-0.979793
10.095,299.344,-0.979839
10.0967,299.361,-0.979883
10.0983,299.378,-0.979916
10.1,299.395,-0.979945
10.1017,299.411,-0.979966
10.1033,299.428,-0.979987
10.105,299.444,-0.98001
10.1067,299.461,-0.980041
10.1083,299.478,-0.980084
10.11,299.494,-0.98013
10.1117,299.511,-0.980177
10.1133,299.528,-0.980226
10.115,299.544,-0.980282
10.1167,299.561,-0.980338
10.1183,299.578,-0.980399
10.12,299.594,-0.980457
10.1217,299.611,-0.98052
10.1233,299.628,-0.980574
10.125,299.644,-0.980626
10.1267,299.661,-0.980683
10.1283,299.678,-0.980738
10.13,299.694,-0.980787
10.1317,299.711,-0.98083
10.1333,299.728,-0.980874
10.135,299.744,-0.980909
10.1367,299.761,-0.98095
10.1383,299.777,-0.980991
10.14,299.794,-0.981039
10.1417,299.811,-0.981098
10.1433,299.828,-0.981152
10.145,299.844,-0.981212
10.1467,299.861,-0.981281
10.1483,299.877,-0.981358
10.15,299.894,-0.981458
10.1517,299.91,-0.981544
10.1533,299.927,-0.981607
10.155,299.944,-0.981658
10.1567,299.96,-0.9817
10.1583,299.977,-0.981734
10.16,299.994,-0.98176
10.1617,300.01,-0.981784
10.1633,300.028,-0.981806
10.165,300.044,-0.981826
10.1667,300.06,-0.981848
10.1683,300.077,-0.981877
10.17,300.094,-0.981914
10.1717,300.11,-0.981954
10.1733,300.127,-0.982002
10.175,300.144,-0.982051
10.1767,300.16,-0.982097
10.1783,300.177,-0.98214
10.18,300.194,-0.982183
10.1817,300.211,-0.982232
10.1833,300.227,-0.982283
10.185,300.244,-0.982339
10.1867,300.26,-0.982397
10.1883,300.277,-0.982458
10.19,300.294,-0.982523
10.1917,300.311,-0.982588
10.1933,300.327,-0.982654
10.195,300.344,-0.982716
10.1967,300.36,-0.982775
10.1983,300.376,-0.982831
10.2,300.394,-0.982875
10.2017,300.41,-0.982908
10.2033,300.427,-0.982941
10.205,300.443,-0.982969
10.2067,300.46,-0.982995
10.2083,300.477,-0.98303
10.21,300.494,-0.983069
10.2117,300.51,-0.983107
10.2133,300.527,-0.983147
10.215,300.543,-0.98319
10.2167,300.56,-0.983235
10.2183,300.577,-0.983284
10.22,300.593,-0.983331
10.2217,300.61,-0.983379
10.2233,300.626,-0.983425
10.225,300.643,-0.98348
10.2267,300.66,-0.983535
10.2283,300.676,-0.983571
10.23,300.693,-0.983609
10.2317,300.71,-0.983638
10.2333,300.726,-0.983669
10.235,300.743,-0.983697
10.2367,300.759,-0.983714
10.2383,300.776,-0.983739
10.24,300.793,-0.983773
10.2417,300.809,-0.983812
10.2433,300.826,-0.983862
10.245,300.843,-0.983919
10.2467,300.86,-0.983984
10.2483,300.876,-0.984053
10.25,300.893,-0.984121
10.2517,300.91,-0.984186
10.2533,300.926,-0.984249
10.255,300.943,-0.984313
10.2567,300.96,-0.984371
10.2583,300.976,-0.984419
10.26,300.993,-0.984456
10.2617,301.01,-0.984484
10.2633,301.026,-0.984516
10.265,301.043,-0.984554
10.2667,301.06,-0.984592
10.2683,301.076,-0.984633
10.27,301.093,-0.984684
10.2717,301.11,-0.984729
10.2733,301.127,-0.984764
10.275,301.143,-0.984795
10.2767,301.159,-0.984824
10.2783,301.176,-0.984853
10.28,301.193,-0.984883
10.2817,301.209,-0.98492
10.2833,301.226,-0.98496
10.285,301.242,-0.985005
10.2867,301.259,-0.985059
10.2883,301.276,-0.985123
10.29,301.293,-0.985191
10.2917,301.309,-0.985257
10.2933,301.326,-0.985321
10.295,301.343,-0.985386
10.2967,301.359,-0.98544
10.2983,301.376,-0.985493
10.3,301.393,-0.985525
10.3017,301.409,-0.98556
10.3033,301.425,-0.985594
10.305,301.442,-0.985616
10.3067,301.459,-0.985642
10.3083,301.476,-0.985674
10.31,301.493,-0.985711
10.3117,301.509,-0.985758
10.3133,301.526,-0.985799
10.315,301.543,-0.985848
10.3167,301.559,-0.985901
10.3183,301.576,-0.985957
10.32,301.592,-0.986014
10.3217,301.609,-0.986075
10.3233,301.625,-0.986143
10.325,301.642,-0.986201
10.3267,301.659,-0.986257
10.3283,301.675,-0.986306
10.33,301.692,-0.986362
10.3317,301.709,-0.986417
10.3333,301.725,-0.986467
10.335,301.742,-0.986515
10.3367,301.758,-0.986574
10.3383,301.775,-0.986627
10.34,301.792,-0.98668
10.3417,301.808,-0.986741
10.3433,301.825,-0.986804
10.345,301.842,-0.986863
10.3467,301.859,-0.986922
10.3483,301.875,-0.986986
10.35,301.892,-0.987054
10.3517,301.908,-0.987119
10.3533,301.925,-0.987177
10.355,301.942,-0.987238
10.3567,301.958,-0.987297
10.3583,301.975,-0.987361
10.36,301.992,-0.98742
10.3617,302.008,-0.987478
10.3633,302.025,-0.987532
10.365,302.042,-0.987589
10.3667,302.058,-0.987642
10.3683,302.075,-0.987692
10.37,302.092,-0.987736
10.3717,302.108,-0.987774
10.3733,302.125,-0.987807
10.375,302.142,-0.987831
10.3767,302.158,-0.987852
10.3783,302.175,-0.987877
10.38,302.192,-0.987904
10.3817,302.208,-0.987925
10.3833,302.225,-0.987954
10.385,302.241,-0.987985
10.3867,302.258,-0.988027
10.3883,302.275,-0.98806
10.39,302.291,-0.988091
10.3917,302.308,-0.988128
10.3933,302.325,-0.988174
10.395,302.342,-0.988216
10.3967,302.358,-0.988262
10.3983,302.375,-0.988306
10.4,302.391,-0.988353
10.4017,302.408,-0.98841
10.4033,302.425,-0.988468
10.405,302.441,-0.988534
10.4067,302.458,-0.988589
10.4083,302.475,-0.988642
10.41,302.491,-0.988699
10.4117,302.508,-0.988762
10.4133,302.524,-0.988814
10.415,302.541,-0.988857
10.4167,302.558,-0.988889
10.4183,302.575,-0.988927
10.42,302.591,-0.988974
10.4217,302.608,-0.989025
10.4233,302.625,-0.989076
10.425,302.641,-0.989121
10.4267,302.658,-0.989161
10.4283,302.674,-0.989213
10.43,302.691,-0.989278
10.4317,302.708,-0.989344
10.4333,302.724,-0.989413
10.435,302.741,-0.989488
10.4367,302.758,-0.989575
10.4383,302.775,-0.989651
10.44,302.791,-0.989721
10.4417,302.808,-0.989787
10.4433,302.825,-0.989847
10.445,302.841,-0.989899
10.4467,302.858,-0.989945
10.4483,302.874,-0.989979
10.45,302.891,-0.990011
10.4517,302.908,-0.990046
10.4533,302.924,-0.990091
10.455,302.941,-0.990143
10.4567,302.958,-0.990196
10.4583,302.974,-0.990248
10.46,302.991,-0.990296
10.4617,303.008,-0.990341
10.4633,303.025,-0.990389
10.465,303.041,-0.990435
10.4667,303.058,-0.990474
10.4683,303.074,-0.990507
10.47,303.091,-0.990538
10.4717,303.108,-0.990567
10.4733,303.124,-0.9906
10.475,303.141,-0.990636
10.4767,303.158,-0.990676
10.4783,303.174,-0.990723
10.48,303.191,-0.99078
10.4817,303.208,-0.990845
10.4833,303.225,-0.990947
10.485,303.241,-0.991015
10.4867,303.258,-0.991067
10.4883,303.274,-0.991119
10.49,303.291,-0.991159
10.4917,303.308,-0.991194
10.4933,303.324,-0.991222
10.495,303.341,-0.991249
10.4967,303.358,-0.991274
10.4983,303.375,-0.991295
10.5,303.391,-0.991322
10.5017,303.408,-0.991352
10.5033,303.424,-0.991385
10.505,303.441,-0.991418
10.5067,303.457,-0.991456
10.5083,303.474,-0.991507
10.51,303.491,-0.991569
10.5117,303.508,-0.99164
10.5133,303.525,-0.991707
10.515,303.541,-0.991774
10.5167,303.558,-0.991843
10.5183,303.575,-0.991898
10.52,303.591,-0.991941
10.5217,303.608,-0.991968
10.5233,303.624,-0.991995
10.525,303.641,-0.992027
10.5267,303.658,-0.992066
10.5283,303.674,-0.992114
10.53,303.691,-0.992163
10.5317,303.708,-0.992216
10.5333,303.724,-0.992276
10.535,303.741,-0.992337
10.5367,303.758,-0.99239
10.5383,303.774,-0.992442
10.54,303.791,-0.992488
10.5417,303.808,-0.992534
10.5433,303.825,-0.992578
10.545,303.842,-0.992622
10.5467,303.858,-0.992657
10.5483,303.875,-0.992695
10.55,303.891,-0.992738
10.5517,303.908,-0.992796
10.5533,303.924,-0.992847
10.555,303.941,-0.992897
10.5567,303.958,-0.992956
10.5583,303.975,-0.993013
10.56,303.991,-0.993072
10.5617,304.008,-0.993132
10.5633,304.024,-0.993185
10.565,304.041,-0.993241
10.5667,304.058,-0.993289
10.5683,304.074,-0.993337
10.57,304.091,-0.993379
10.5717,304.108,-0.993419
10.5733,304.124,-0.993454
10.575,304.141,-0.993486
10.5767,304.158,-0.993513
10.5783,304.175,-0.993541
10.58,304.191,-0.993576
10.5817,304.207,-0.993618
10.5833,304.224,-0.993666
10.585,304.241,-0.993723
10.5867,304.258,-0.993791
10.5883,304.274,-0.99386
10.59,304.291,-0.993953
10.5917,304.307,-0.994025
10.5933,304.324,-0.9941
10.595,304.341,-0.99417
10.5967,304.357,-0.994236
10.5983,304.375,-0.994296
10.6,304.391,-0.994351
10.6017,304.408,-0.994396
10.6033,304.424,-0.994432
10.605,304.441,-0.994467
10.6067,304.458,-0.994501
10.6083,304.474,-0.994548
10.61,304.491,-0.994592
10.6117,304.508,-0.994635
10.6133,304.525,-0.994672
10.615,304.541,-0.994708
10.6167,304.557,-0.994743
10.6183,304.574,-0.994776
10.62,304.59,-0.994814
10.6217,304.607,-0.994859
10.6233,304.624,-0.994907
10.625,304.641,-0.994957
10.6267,304.657,-0.995022
10.6283,304.674,-0.995088
10.63,304.691,-0.995156
10.6317,304.707,-0.995215
10.6333,304.724,-0.995273
10.635,304.74,-0.995328
10.6367,304.757,-0.995379
10.6383,304.774,-0.995414
10.64,304.791,-0.995445
10.6417,304.807,-0.995476
10.6433,304.824,-0.995509
10.645,304.841,-0.995553
10.6467,304.857,-0.995595
10.6483,304.874,-0.995637
10.65,304.891,-0.995684
10.6517,304.907,-0.995732
10.6533,304.924,-0.995796
10.655,304.941,-0.995863
10.6567,304.958,-0.995932
10.6583,304.974,-0.995998
10.66,304.991,-0.996061
10.6617,305.007,-0.996115
10.6633,305.024,-0.996161
10.665,305.04,-0.996201
10.6667,305.057,-0.996237
10.6683,305.074,-0.996268
10.67,305.09,-0.9963
10.6717,305.107,-0.996327
10.6733,305.124,-0.996364
10.675,305.14,-0.996409
10.6767,305.157,-0.996455
10.6783,305.174,-0.996499
10.68,305.19,-0.996549
10.6817,305.207,-0.996602
10.6833,305.224,-0.996662
10.685,305.24,-0.996728
10.6867,305.257,-0.996801
10.6883,305.274,-0.99687
10.69,305.29,-0.996934
10.6917,305.307,-0.996986
10.6933,305.324,-0.997033
10.695,305.34,-0.997078
10.6967,305.357,-0.997118
10.6983,305.373,-0.997153
10.7,305.39,-0.997191
10.7017,305.407,-0.997227
10.7033,305.423,-0.997267
10.705,305.44,-0.997312
10.7067,305.457,-0.997352
10.7083,305.473,-0.997399
10.71,305.49,-0.997443
10.7117,305.507,-0.997488
10.7133,305.524,-0.997534
10.715,305.54,-0.997577
10.7167,305.557,-0.997627
10.7183,305.574,-0.997681
10.72,305.59,-0.997733
10.7217,305.607,-0.997783
10.7233,305.623,-0.997829
10.725,305.64,-0.997871
10.7267,305.657,-0.99792
10.7283,305.673,-0.997977
10.73,305.69,-0.998028
10.7317,305.707,-0.998075
10.7333,305.723,-0.998124
10.735,305.74,-0.998177
10.7367,305.757,-0.998234
10.7383,305.774,-0.998281
10.74,305.791,-0.998338
10.7417,305.807,-0.998396
10.7433,305.824,-0.998451
10.745,305.84,-0.998518
10.7467,305.857,-0.998577
10.7483,305.873,-0.998643
10.75,305.89,-0.998711
10.7517,305.907,-0.998771
10.7533,305.923,-0.998828
10.755,305.94,-0.998891
10.7567,305.956,-0.998945
10.7583,305.973,-0.998989
10.76,305.99,-0.999025
10.7617,306.006,-0.99906
10.7633,306.023,-0.999091
10.765,306.039,-0.999113
10.7667,306.057,-0.999133
10.7683,306.073,-0.999154
10.77,306.09,-0.999181
10.7717,306.106,-0.99921
10.7733,306.123,-0.99924
10.775,306.139,-0.999277
10.7767,306.156,-0.999325
10.7783,306.173,-0.999383
10.78,306.19,-0.999474
10.7817,306.206,-0.999545
10.7833,306.223,-0.999612
10.785,306.24,-0.999673
10.7867,306.256,-0.999723
10.7883,306.273,-0.999772
10.79,306.29,-0.999822
10.7917,306.306,-0.999873
10.7933,306.323,-0.999921
10.795,306.339,-0.999968
10.7967,306.356,-1.00002
10.7983,306.372,-1.00006
10.8,306.389,-1.0001
10.8017,306.406,-1.00013
10.8033,306.423,-1.00016
10.805,306.44,-1.00018
10.8067,306.456,-1.0002
10.8083,306.473,-1.00022
10.81,306.489,-1.00024
10.8117,306.506,-1.00026
10.8133,306.523,-1.00029
10.815,306.539,-1.00033
10.8167,306.556,-1.00036
10.8183,306.573,-1.0004
10.82,306.589,-1.00044
10.8217,306.606,-1.00047
10.8233,306.622,-1.00051
10.825,306.639,-1.00054
10.8267,306.656,-1.00057
10.8283,306.672,-1.0006
10.83,306.689,-1.00063
10.8317,306.706,-1.00067
10.8333,306.722,-1.00071
10.835,306.739,-1.00076
10.8367,306.756,-1.0008
10.8383,306.772,-1.00086
10.84,306.789,-1.00091
10.8417,306.805,-1.00097
10.8433,306.822,-1.00103
10.845,306.839,-1.00108
10.8467,306.856,-1.00114
10.8483,306.872,-1.0012
10.85,306.889,-1.00125
10.8517,306.906,-1.0013
10.8533,306.922,-1.00135
10.855,306.939,-1.0014
10.8567,306.955,-1.00145
10.8583,306.972,-1.00151
10.86,306.989,-1.00156
10.8617,307.005,-1.00161
10.8633,307.022,-1.00166
10.865,307.039,-1.00171
10.8667,307.055,-1.00176
10.8683,307.072,-1.00182
10.87,307.088,-1.00187
10.8717,307.105,-1.00192
10.8733,307.122,-1.00197
10.875,307.138,-1.00201
10.8767,307.155,-1.00206
10.8783,307.171,-1.00211
10.88,307.188,-1.00215
10.8817,307.204,-1.00221
10.8833,307.221,-1.00224
10.885,307.238,-1.00229
10.8867,307.255,-1.00233
10.8883,307.271,-1.00237
10.89,307.288,-1.00243
10.8917,307.304,-1.00248
10.8933,307.321,-1.00253
10.895,307.338,-1.00258
10.8967,307.354,-1.00263
10.8983,307.371,-1.00268
10.9,307.388,-1.00272
10.9017,307.404,-1.00277
10.9033,307.421,-1.0028
10.905,307.438,-1.00283
10.9067,307.455,-1.00286
10.9083,307.471,-1.00291
10.91,307.488,-1.00296
10.9117,307.505,-1.003
10.9133,307.521,-1.00305
10.915,307.538,-1.0031
10.9167,307.554,-1.00316
10.9183,307.571,-1.0032
10.92,307.588,-1.00324
10.9217,307.604,-1.00328
10.9233,307.621,-1.00331
10.925,307.638,-1.00334
10.9267,307.654,-1.00338
10.9283,307.671,-1.00342
10.93,307.687,-1.00348
10.9317,307.704,-1.00353
10.9333,307.721,-1.0036
10.935,307.737,-1.00365
10.9367,307.754,-1.00371
10.9383,307.77,-1.00376
10.94,307.787,-1.0038
10.9417,307.804,-1.00384
10.9433,307.82,-1.00388
10.945,307.837,-1.00391
10.9467,307.854,-1.00394
10.9483,307.871,-1.00399
10.95,307.887,-1.00402
10.9517,307.903,-1.00407
10.9533,307.92,-1.00413
10.955,307.937,-1.00419
10.9567,307.954,-1.00426
10.9583,307.971,-1.00434
10.96,307.987,-1.00444
10.9617,308.004,-1.00452
10.9633,308.02,-1.00459
10.965,308.037,-1.00465
10.9667,308.054,-1.00472
10.9683,308.07,-1.00479
10.97,308.087,-1.00484
10.9717,308.104,-1.0049
10.9733,308.12,-1.00495
10.975,308.137,-1.005
10.9767,308.154,-1.00505
10.9783,308.17,-1.00511
10.98,308.187,-1.00516
10.9817,308.203,-1.0052
10.9833,308.22,-1.00525
10.985,308.237,-1.00529
10.9867,308.253,-1.00534
10.9883,308.27,-1.00538
10.99,308.287,-1.00542
10.9917,308.303,-1.00548
10.9933,308.32,-1.00555
10.995,308.337,-1.00563
10.9967,308.353,-1.0057
10.9983,308.37,-1.00579
11,308.387,-1.00587
11.0017,308.404,-1.00595
11.0033,308.42,-1.00601
11.005,308.437,-1.00606
11.0067,308.454,-1.00611
11.0083,308.47,-1.00615
11.01,308.486,-1.00618
11.0117,308.504,-1.00622
11.0133,308.52,-1.00625
11.015,308.536,-1.00629
11.0167,308.553,-1.00635
11.0183,308.57,-1.00641
11.02,308.587,-1.00648
11.0217,308.603,-1.00654
11.0233,308.62,-1.0066
11.025,308.637,-1.00666
11.0267,308.653,-1.00671
11.0283,308.67,-1.00677
11.03,308.686,-1.00683
11.0317,308.703,-1.00688
11.0333,308.719,-1.00693
11.035,308.736,-1.00698
11.0367,308.752,-1.00703
11.0383,308.769,-1.00708
11.04,308.786,-1.00713
11.0417,308.802,-1.00718
11.0433,308.819,-1.00724
11.045,308.836,-1.00729
11.0467,308.853,-1.00734
11.0483,308.87,-1.00739
11.05,308.887,-1.00745
11.0517,308.903,-1.0075
11.0533,308.92,-1.00755
11.055,308.936,-1.0076
11.0567,308.953,-1.00765
11.0583,308.97,-1.00771
11.06,308.986,-1.00776
11.0617,309.003,-1.00783
11.0633,309.019,-1.00789
11.065,309.036,-1.00795
11.0667,309.053,-1.008
11.0683,309.069,-1.00805
11.07,309.086,-1.0081
11.0717,309.102,-1.00813
11.0733,309.118,-1.00815
11.075,309.135,-1.00817
11.0767,309.152,-1.00819
11.0783,309.169,-1.00822
11.08,309.185,-1.00824
11.0817,309.202,-1.00828
11.0833,309.219,-1.00833
11.085,309.236,-1.00839
11.0867,309.253,-1.00846
11.0883,309.269,-1.00854
11.09,309.286,-1.00861
11.0917,309.302,-1.00871
11.0933,309.319,-1.00878
11.095,309.336,-1.00885
11.0967,309.352,-1.00891
11.0983,309.369,-1.00896
11.1,309.385,-1.009
11.1017,309.402,-1.00905
11.1033,309.419,-1.00909
11.105,309.435,-1.00913
11.1067,309.452,-1.00917
11.1083,309.468,-1.00922
11.11,309.485,-1.00927
11.1117,309.502,-1.00932
11.1133,309.518,-1.00935
11.115,309.535,-1.00939
11.1167,309.552,-1.00944
11.1183,309.569,-1.0095
11.12,309.585,-1.00956
11.1217,309.601,-1.00962
11.1233,309.618,-1.00968
11.125,309.634,-1.00974
11.1267,309.652,-1.00981
11.1283,309.668,-1.00987
11.13,309.685,-1.00993
11.1317,309.702,-1.00998
11.1333,309.718,-1.01003
11.135,309.735,-1.01008
11.1367,309.751,-1.01012
11.1383,309.768,-1.01017
11.14,309.785,-1.01022
11.1417,309.802,-1.01027
11.1433,309.818,-1.01033
11.145,309.835,-1.01039
11.1467,309.851,-1.01046
11.1483,309.868,-1.01052
11.15,309.884,-1.01059
11.1517,309.901,-1.01065
11.1533,309.917,-1.01071
11.155,309.934,-1.01077
11.1567,309.951,-1.01083
11.1583,309.968,-1.01089
11.16,309.984,-1.01096
11.1617,310.001,-1.01103
11.1633,310.018,-1.01111
11.165,310.034,-1.0112
11.1667,310.051,-1.01127
11.1683,310.068,-1.01134
11.17,310.084,-1.01142
11.1717,310.101,-1.01149
11.1733,310.117,-1.01155
11.175,310.134,-1.0116
11.1767,310.151,-1.01166
11.1783,310.167,-1.01172
11.18,310.184,-1.01177
11.1817,310.201,-1.01181
11.1833,310.217,-1.01186
11.185,310.234,-1.01189
11.1867,310.251,-1.01193
11.1883,310.268,-1.01197
11.19,310.284,-1.01201
11.1917,310.301,-1.01206
11.1933,310.318,-1.01211
11.195,310.334,-1.01215
11.1967,310.351,-1.0122
11.1983,310.367,-1.01225
11.2,310.384,-1.01229
11.2017,310.4,-1.01234
11.2033,310.416,-1.01239
11.205,310.433,-1.01244
11.2067,310.449,-1.01248
11.2083,310.466,-1.01254
11.21,310.483,-1.0126
11.2117,310.5,-1.01267
11.2133,310.516,-1.01273
11.215,310.533,-1.01278
11.2167,310.549,-1.01286
11.2183,310.566,-1.01293
11.22,310.583,-1.01301
11.2217,310.599,-1.01308
11.2233,310.616,-1.01313
11.225,310.633,-1.01317
11.2267,310.649,-1.01322
11.2283,310.666,-1.01326
11.23,310.683,-1.01329
11.2317,310.699,-1.01332
11.2333,310.716,-1.01337
11.235,310.733,-1.01343
11.2367,310.749,-1.01349
11.2383,310.766,-1.01357
11.24,310.783,-1.01365
11.2417,310.799,-1.01371
11.2433,310.816,-1.01377
11.245,310.832,-1.01384
11.2467,310.849,-1.01388
11.2483,310.866,-1.01393
11.25,310.883,-1.01397
11.2517,310.899,-1.014
11.2533,310.916,-1.01403
11.255,310.933,-1.01406
11.2567,310.949,-1.01409
11.2583,310.966,-1.01413
11.26,310.983,-1.01416
11.2617,310.999,-1.01421
11.2633,311.016,-1.01426
11.265,311.032,-1.01433
11.2667,311.049,-1.0144
11.2683,311.065,-1.01447
11.27,311.082,-1.01454
11.2717,311.099,-1.01459
11.2733,311.115,-1.01466
11.275,311.132,-1.01471
11.2767,311.149,-1.01477
11.2783,311.166,-1.01481
11.28,311.182,-1.01487
11.2817,311.199,-1.01493
11.2833,311.215,-1.01499
11.285,311.233,-1.01506
11.2867,311.249,-1.01514
11.2883,311.266,-1.01521
11.29,311.282,-1.01527
11.2917,311.299,-1.01533
11.2933,311.316,-1.01539
11.295,311.332,-1.01543
11.2967,311.349,-1.01547
11.2983,311.366,-1.01551
11.3,311.382,-1.01554
11.3017,311.399,-1.01557
11.3033,311.415,-1.01562
11.305,311.432,-1.01568
11.3067,311.449,-1.01574
11.3083,311.465,-1.01582
11.31,311.482,-1.0159
11.3117,311.499,-1.01597
11.3133,311.515,-1.01604
11.315,311.532,-1.01611
11.3167,311.549,-1.01617
11.3183,311.565,-1.01621
11.32,311.582,-1.01626
11.3217,311.598,-1.0163
11.3233,311.615,-1.01635
11.325,311.632,-1.0164
11.3267,311.649,-1.01645
11.3283,311.666,-1.01652
11.33,311.682,-1.01658
11.3317,311.699,-1.01666
11.3333,311.716,-1.01674
11.335,311.732,-1.01682
11.3367,311.749,-1.01689
11.3383,311.765,-1.01696
11.34,311.782,-1.01703
11.3417,311.798,-1.01709
11.3433,311.815,-1.01716
11.345,311.832,-1.01721
11.3467,311.849,-1.01727
11.3483,311.865,-1.01733
11.35,311.882,-1.0174
11.3517,311.899,-1.01746
11.3533,311.915,-1.01753
11.355,311.932,-1.0176
11.3567,311.949,-1.01767
11.3583,311.965,-1.01774
11.36,311.982,-1.0178
11.3617,311.999,-1.01788
11.3633,312.015,-1.01795
11.365,312.032,-1.01803
11.3667,312.049,-1.0181
11.3683,312.065,-1.01817
11.37,312.082,-1.01824
11.3717,312.098,-1.01831
11.3733,312.115,-1.01838
11.375,312.132,-1.01845
11.3767,312.148,-1.01852
11.3783,312.165,-1.01858
11.38,312.182,-1.01864
11.3817,312.198,-1.0187
11.3833,312.215,-1.01876
11.385,312.232,-1.01882
11.3867,312.249,-1.01887
11.3883,312.265,-1.01892
11.39,312.282,-1.01897
11.3917,312.299,-1.01903
11.3933,312.315,-1.01908
11.395,312.332,-1.01913
11.3967,312.349,-1.01919
11.3983,312.365,-1.01924
11.4,312.382,-1.0193
11.4017,312.398,-1.01936
11.4033,312.415,-1.01941
11.405,312.431,-1.01946
11.4067,312.448,-1.01952
11.4083,312.465,-1.01958
11.41,312.481,-1.01964
11.4117,312.498,-1.01969
11.4133,312.515,-1.01975
11.415,312.531,-1.01981
11.4167,312.548,-1.01987
11.4183,312.565,-1.01993
11.42,312.582,-1.01999
11.4217,312.598,-1.02005
11.4233,312.615,-1.02012
11.425,312.631,-1.02019
11.4267,312.648,-1.02027
11.4283,312.664,-1.02035
11.43,312.681,-1.02043
11.4317,312.698,-1.02052
11.4333,312.714,-1.02062
11.435,312.731,-1.02071
11.4367,312.748,-1.0208
11.4383,312.765,-1.02088
11.44,312.781,-1.02095
11.4417,312.798,-1.02101
11.4433,312.814,-1.02105
11.445,312.831,-1.02109
11.4467,312.848,-1.02112
11.4483,312.864,-1.02117
11.45,312.881,-1.02121
11.4517,312.898,-1.02126
11.4533,312.914,-1.02131
11.455,312.931,-1.02139
11.4567,312.948,-1.02149
11.4583,312.964,-1.02162
11.46,312.981,-1.02178
11.4617,312.998,-1.02192
11.4633,313.014,-1.02203
11.465,313.031,-1.02211
11.4667,313.048,-1.0222
11.4683,313.065,-1.02227
11.47,313.081,-1.02233
11.4717,313.098,-1.02239
11.4733,313.115,-1.02244
11.475,313.131,-1.02248
11.4767,313.148,-1.02252
11.4783,313.164,-1.02255
11.48,313.181,-1.0226
11.4817,313.197,-1.02265
11.4833,313.214,-1.0227
11.485,313.231,-1.02275
11.4867,313.248,-1.0228
11.4883,313.264,-1.02286
11.49,313.281,-1.02291
11.4917,313.298,-1.02297
11.4933,313.314,-1.02304
11.495,313.331,-1.0231
11.4967,313.348,-1.02317
11.4983,313.364,-1.02325
11.5,313.381,-1.02332
11.5017,313.398,-1.02339
11.5033,313.414,-1.02345
11.505,313.431,-1.0235
11.5067,313.447,-1.02356
11.5083,313.464,-1.02362
11.51,313.481,-1.02367
11.5117,313.498,-1.02373
11.5133,313.514,-1.02381
11.515,313.531,-1.02389
11.5167,313.548,-1.024
11.5183,313.564,-1.02409
11.52,313.581,-1.02418
11.5217,313.598,-1.02426
11.5233,313.614,-1.02434
11.525,313.631,-1.02441
11.5267,313.648,-1.02449
11.5283,313.664,-1.02456
11.53,313.681,-1.02463
11.5317,313.698,-1.0247
11.5333,313.714,-1.02477
11.535,313.731,-1.02484
11.5367,313.748,-1.02492
11.5383,313.764,-1.025
11.54,313.781,-1.02508
11.5417,313.797,-1.02515
11.5433,313.814,-1.02522
11.545,313.831,-1.02528
11.5467,313.847,-1.02534
11.5483,313.864,-1.02539
11.55,313.881,-1.02544
11.5517,313.898,-1.0255
11.5533,313.914,-1.02556
11.555,313.931,-1.02564
11.5567,313.948,-1.02572
11.5583,313.964,-1.0258
11.56,313.981,-1.02588
11.5617,313.997,-1.02596
11.5633,314.014,-1.02604
11.565,314.03,-1.02611
11.5667,314.047,-1.02616
11.5683,314.064,-1.02622
11.57,314.081,-1.02626
11.5717,314.097,-1.02632
11.5733,314.114,-1.02638
11.575,314.131,-1.02644
11.5767,314.147,-1.0265
11.5783,314.164,-1.02658
11.58,314.181,-1.02666
11.5817,314.198,-1.02675
11.5833,314.214,-1.02685
11.585,314.231,-1.02694
11.5867,314.247,-1.02702
11.5883,314.264,-1.0271
11.59,314.281,-1.02718
11.5917,314.297,-1.02725
11.5933,314.314,-1.02732
11.595,314.331,-1.02739
11.5967,314.347,-1.02746
11.5983,314.364,-1.02753
11.6,314.38,-1.02759
11.6017,314.397,-1.02766
11.6033,314.414,-1.02773
11.605,314.431,-1.02779
11.6067,314.447,-1.02785
11.6083,314.464,-1.02791
11.61,314.48,-1.02796
11.6117,314.497,-1.02802
11.6133,314.514,-1.02809
11.615,314.53,-1.02816
11.6167,314.547,-1.02823
11.6183,314.564,-1.02829
11.62,314.581,-1.02837
11.6217,314.597,-1.02846
11.6233,314.614,-1.02854
11.625,314.63,-1.02863
11.6267,314.647,-1.02871
11.6283,314.664,-1.02879
11.63,314.68,-1.02887
11.6317,314.697,-1.02894
11.6333,314.714,-1.02902
11.635,314.73,-1.02909
11.6367,314.747,-1.02915
11.6383,314.763,-1.02921
11.64,314.78,-1.02928
11.6417,314.797,-1.02934
11.6433,314.814,-1.02939
11.645,314.83,-1.02944
11.6467,314.847,-1.02948
11.6483,314.864,-1.02953
11.65,314.88,-1.02958
11.6517,314.897,-1.02963
11.6533,314.914,-1.02969
11.655,314.93,-1.02976
11.6567,314.946,-1.02982
11.6583,314.963,-1.0299
11.66,314.98,-1.02996
11.6617,314.997,-1.03003
11.6633,315.014,-1.03011
11.665,315.03,-1.03019
11.6667,315.047,-1.03026
11.6683,315.064,-1.03033
11.67,315.08,-1.0304
11.6717,315.097,-1.03048
11.6733,315.114,-1.03055
11.675,315.13,-1.03064
11.6767,315.147,-1.03072
11.6783,315.163,-1.0308
11.68,315.18,-1.03088
11.6817,315.196,-1.03097
11.6833,315.213,-1.03105
11.685,315.229,-1.03112
11.6867,315.246,-1.0312
11.6883,315.263,-1.03127
11.69,315.28,-1.03134
11.6917,315.296,-1.0314
11.6933,315.313,-1.03145
11.695,315.33,-1.03152
11.6967,315.346,-1.03157
11.6983,315.363,-1.03163
11.7,315.38,-1.03168
11.7017,315.397,-1.03174
11.7033,315.413,-1.0318
11.705,315.43,-1.03186
11.7067,315.446,-1.03193
11.7083,315.463,-1.032
11.71,315.48,-1.03206
11.7117,315.496,-1.03213
11.7133,315.513,-1.03219
11.715,315.529,-1.03225
11.7167,315.546,-1.03231
11.7183,315.563,-1.03237
11.72,315.579,-1.03243
11.7217,315.596,-1.03249
11.7233,315.613,-1.03255
11.725,315.63,-1.0326
11.7267,315.646,-1.03265
11.7283,315.663,-1.0327
11.73,315.68,-1.03276
11.7317,315.696,-1.03282
11.7333,315.713,-1.03288
11.735,315.729,-1.03295
11.7367,315.746,-1.03303
11.7383,315.762,-1.03311
11.74,315.779,-1.0332
11.7417,315.796,-1.03333
11.7433,315.813,-1.03344
11.745,315.829,-1.03355
11.7467,315.846,-1.03364
11.7483,315.862,-1.03374
11.75,315.879,-1.03382
11.7517,315.896,-1.0339
11.7533,315.912,-1.03398
11.755,315.929,-1.03406
11.7567,315.946,-1.03412
11.7583,315.963,-1.03418
11.76,315.979,-1.03424
11.7617,315.996,-1.03429
11.7633,316.013,-1.03435
11.765,316.029,-1.03441
11.7667,316.046,-1.03447
11.7683,316.063,-1.03453
11.77,316.079,-1.0346
11.7717,316.096,-1.03466
11.7733,316.112,-1.03473
11.775,316.129,-1.03479
11.7767,316.146,-1.03486
11.7783,316.163,-1.03493
11.78,316.179,-1.03502
11.7817,316.196,-1.03512
11.7833,316.213,-1.03522
11.785,316.229,-1.03532
11.7867,316.246,-1.03543
11.7883,316.263,-1.03554
11.79,316.28,-1.03563
11.7917,316.296,-1.03571
11.7933,316.313,-1.03577
11.795,316.329,-1.03583
11.7967,316.346,-1.03589
11.7983,316.362,-1.03594
11.8,316.379,-1.03599
11.8017,316.396,-1.03605
11.8033,316.413,-1.03612
11.805,316.429,-1.03619
11.8067,316.446,-1.03627
11.8083,316.462,-1.03636
11.81,316.479,-1.03646
11.8117,316.496,-1.03661
11.8133,316.512,-1.03676
11.815,316.529,-1.03687
11.8167,316.546,-1.03697
11.8183,316.562,-1.03707
11.82,316.579,-1.03715
11.8217,316.595,-1.03722
11.8233,316.612,-1.03729
11.825,316.628,-1.03736
11.8267,316.645,-1.03742
11.8283,316.662,-1.03747
11.83,316.678,-1.03753
11.8317,316.695,-1.03759
11.8333,316.712,-1.03767
11.835,316.729,-1.03775
11.8367,316.746,-1.03782
11.8383,316.762,-1.0379
11.84,316.779,-1.03797
11.8417,316.795,-1.03805
11.8433,316.812,-1.03812
11.845,316.829,-1.03819
11.8467,316.846,-1.03825
11.8483,316.862,-1.03832
11.85,316.878,-1.03839
11.8517,316.895,-1.03845
11.8533,316.912,-1.03852
11.855,316.929,-1.03859
11.8567,316.945,-1.03867
11.8583,316.962,-1.03876
11.86,316.978,-1.03886
11.8617,316.995,-1.03895
11.8633,317.012,-1.03903
11.865,317.028,-1.03911
11.8667,317.045,-1.0392
11.8683,317.061,-1.03927
11.87,317.078,-1.03934
11.8717,317.095,-1.0394
11.8733,317.112,-1.03947
11.875,317.128,-1.03954
11.8767,317.145,-1.03961
11.8783,317.162,-1.03968
11.88,317.179,-1.03976
11.8817,317.195,-1.03984
11.8833,317.212,-1.03992
11.885,317.229,-1.04001
11.8867,317.245,-1.0401
11.8883,317.262,-1.04019
11.89,317.278,-1.04027
11.8917,317.295,-1.04035
11.8933,317.311,-1.04044
11.895,317.328,-1.04053
11.8967,317.345,-1.04061
11.8983,317.361,-1.0407
11.9,317.378,-1.04078
11.9017,317.394,-1.04088
11.9033,317.411,-1.04098
11.905,317.428,-1.04108
11.9067,317.445,-1.04118
11.9083,317.461,-1.04128
11.91,317.478,-1.04137
11.9117,317.494,-1.04146
11.9133,317.511,-1.04154
11.915,317.528,-1.04162
11.9167,317.544,-1.04168
11.9183,317.561,-1.04174
11.92,317.578,-1.0418
11.9217,317.594,-1.04186
11.9233,317.611,-1.04192
11.925,317.628,-1.04198
11.9267,317.644,-1.04205
11.9283,317.661,-1.04212
11.93,317.677,-1.04221
11.9317,317.694,-1.0423
11.9333,317.711,-1.0424
11.935,317.727,-1.0425
11.9367,317.744,-1.04259
11.9383,317.761,-1.04268
11.94,317.778,-1.04276
11.9417,317.795,-1.04284
11.9433,317.811,-1.04292
11.945,317.828,-1.04301
11.9467,317.844,-1.04309
11.9483,317.861,-1.04319
11.95,317.878,-1.04331
11.9517,317.895,-1.04345
11.9533,317.911,-1.04355
11.955,317.927,-1.04369
11.9567,317.944,-1.04382
11.9583,317.961,-1.04396
11.96,317.978,-1.04407
11.9617,317.995,-1.04425
11.9633,318.011,-1.04441
11.965,318.028,-1.04453
11.9667,318.044,-1.04464
11.9683,318.061,-1.04473
11.97,318.078,-1.04482
11.9717,318.094,-1.0449
11.9733,318.111,-1.04498
11.975,318.128,-1.04505
11.9767,318.144,-1.04513
11.9783,318.161,-1.04521
11.98,318.178,-1.04529
11.9817,318.195,-1.04538
11.9833,318.211,-1.04547
11.985,318.228,-1.04556
11.9867,318.244,-1.04566
11.9883,318.261,-1.04575
11.99,318.278,-1.04584
11.9917,318.294,-1.04593
11.9933,318.311,-1.04602
11.995,318.328,-1.04611
11.9967,318.344,-1.04621
11.9983,318.361,-1.04629
12,318.378,-1.04638
12.0017,318.394,-1.04647
12.0033,318.411,-1.04656
12.005,318.427,-1.04665
12.0067,318.444,-1.04673
12.0083,318.461,-1.04681
12.01,318.477,-1.04689
12.0117,318.494,-1.04697
12.0133,318.511,-1.04705
12.015,318.528,-1.04714
12.0167,318.544,-1.04724
12.0183,318.561,-1.04734
12.02,318.577,-1.04745
12.0217,318.594,-1.04762
12.0233,318.611,-1.04781
12.025,318.627,-1.04806
12.0267,318.644,-1.04821
12.0283,318.66,-1.04832
12.03,318.677,-1.04843
12.0317,318.694,-1.04852
12.0333,318.71,-1.04862
12.035,318.727,-1.04869
12.0367,318.743,-1.04877
12.0383,318.76,-1.04884
12.04,318.777,-1.04892
12.0417,318.794,-1.04899
12.0433,318.81,-1.04907
12.045,318.827,-1.04915
12.0467,318.844,-1.04922
12.0483,318.86,-1.04931
12.05,318.877,-1.0494
12.0517,318.893,-1.04949
12.0533,318.91,-1.04958
12.055,318.927,-1.04968
12.0567,318.943,-1.04977
12.0583,318.96,-1.04985
12.06,318.977,-1.04993
12.0617,318.993,-1.05
12.0633,319.01,-1.05007
12.065,319.026,-1.05013
12.0667,319.043,-1.05019
12.0683,319.06,-1.05027
12.07,319.076,-1.05035
12.0717,319.093,-1.05044
12.0733,319.11,-1.05053
12.075,319.127,-1.05064
12.0767,319.143,-1.05082
12.0783,319.16,-1.05106
12.08,319.176,-1.05133
12.0817,319.193,-1.05168
12.0833,319.21,-1.05197
12.085,319.227,-1.05224
12.0867,319.243,-1.05243
12.0883,319.26,-1.05253
12.09,319.276,-1.05262
12.0917,319.293,-1.05269
12.0933,319.31,-1.05276
12.095,319.327,-1.05283
12.0967,319.344,-1.05289
12.0983,319.36,-1.05296
12.1,319.377,-1.05305
12.1017,319.393,-1.05314
12.1033,319.41,-1.05324
12.105,319.427,-1.05334
12.1067,319.443,-1.05344
12.1083,319.46,-1.05355
12.11,319.476,-1.05365
12.1117,319.493,-1.05375
12.1133,319.509,-1.05385
12.115,319.526,-1.05395
12.1167,319.543,-1.05405
12.1183,319.559,-1.05416
12.12,319.576,-1.05425
12.1217,319.593,-1.05435
12.1233,319.61,-1.05445
12.125,319.626,-1.05455
12.1267,319.643,-1.05466
12.1283,319.66,-1.05476
12.13,319.676,-1.05486
12.1317,319.693,-1.05497
12.1333,319.709,-1.05507
12.135,319.726,-1.05518
12.1367,319.743,-1.05528
12.1383,319.76,-1.05537
12.14,319.776,-1.05547
12.1417,319.793,-1.05556
12.1433,319.81,-1.05566
12.145,319.826,-1.05576
12.1467,319.843,-1.05587
12.1483,319.86,-1.05599
12.15,319.877,-1.0561
12.1517,319.893,-1.05628
12.1533,319.91,-1.0564
12.155,319.926,-1.0565
12.1567,319.943,-1.0566
12.1583,319.96,-1.05671
12.16,319.976,-1.05682
12.1617,319.993,-1.05691
12.1633,320.009,-1.05702
12.165,320.026,-1.05712
12.1667,320.043,-1.05724
12.1683,320.059,-1.05736
12.17,320.076,-1.05752
12.1717,320.092,-1.0577
12.1733,320.109,-1.05782
12.175,320.126,-1.05793
12.1767,320.143,-1.05805
12.1783,320.159,-1.05816
12.18,320.176,-1.05827
12.1817,320.193,-1.05837
12.1833,320.209,-1.05846
12.185,320.226,-1.05856
12.1867,320.243,-1.05866
12.1883,320.26,-1.05877
12.19,320.276,-1.05887
12.1917,320.293,-1.05898
12.1933,320.309,-1.05908
12.195,320.326,-1.05919
12.1967,320.343,-1.0593
12.1983,320.359,-1.05941
12.2,320.375,-1.05952
12.2017,320.392,-1.05964
12.2033,320.409,-1.05976
12.205,320.426,-1.05987
12.2067,320.442,-1.05999
12.2083,320.459,-1.06012
12.21,320.475,-1.06026
12.2117,320.492,-1.06039
12.2133,320.509,-1.06051
12.215,320.526,-1.06064
12.2167,320.542,-1.06076
12.2183,320.559,-1.06088
12.22,320.576,-1.061
12.2217,320.593,-1.06111
12.2233,320.61,-1.06122
12.225,320.627,-1.06133
12.2267,320.643,-1.06144
12.2283,320.66,-1.06154
12.23,320.676,-1.06166
12.2317,320.693,-1.06177
12.2333,320.709,-1.06189
12.235,320.726,-1.062
12.2367,320.742,-1.06209
12.2383,320.759,-1.06219
12.24,320.775,-1.06228
12.2417,320.792,-1.06239
12.2433,320.809,-1.06251
12.245,320.825,-1.06262
12.2467,320.842,-1.06275
12.2483,320.858,-1.06291
12.25,320.875,-1.06307
12.2517,320.892,-1.06323
12.2533,320.909,-1.06339
12.255,320.926,-1.06359
12.2567,320.942,-1.0638
12.2583,320.959,-1.06398
12.26,320.975,-1.06426
12.2617,320.992,-1.06449
12.2633,321.009,-1.06467
12.265,321.025,-1.06488
12.2667,321.042,-1.06501
12.2683,321.059,-1.06513
12.27,321.075,-1.06524
12.2717,321.092,-1.06535
12.2733,321.108,-1.06545
12.275,321.125,-1.06555
12.2767,321.142,-1.06564
12.2783,321.158,-1.06573
12.28,321.175,-1.06583
12.2817,321.191,-1.06594
12.2833,321.208,-1.06605
12.285,321.225,-1.06616
12.2867,321.242,-1.06628
12.2883,321.258,-1.06654
12.29,321.275,-1.0669
12.2917,321.291,-1.0671
12.2933,321.308,-1.06731
12.295,321.325,-1.06749
12.2967,321.341,-1.06776
12.2983,321.358,-1.068
12.3,321.375,-1.06815
12.3017,321.392,-1.06828
12.3033,321.408,-1.0684
12.305,321.425,-1.06851
12.3067,321.442,-1.06862
12.3083,321.458,-1.06873
12.31,321.474,-1.06884
12.3117,321.491,-1.06895
12.3133,321.507,-1.06906
12.315,321.524,-1.06918
12.3167,321.541,-1.06931
12.3183,321.557,-1.06951
12.32,321.574,-1.06965
12.3217,321.591,-1.06979
12.3233,321.607,-1.07
12.325,321.624,-1.07018
12.3267,321.641,-1.07033
12.3283,321.657,-1.07047
12.33,321.674,-1.07061
12.3317,321.69,-1.07074
12.3333,321.707,-1.07095
12.335,321.724,-1.07125
12.3367,321.74,-1.07162
12.3383,321.757,-1.07203
12.34,321.774,-1.07225
12.3417,321.79,-1.07242
12.3433,321.807,-1.07264
12.345,321.824,-1.07283
12.3467,321.841,-1.07305
12.3483,321.857,-1.0732
12.35,321.874,-1.07334
12.3517,321.89,-1.07349
12.3533,321.907,-1.07371
12.355,321.924,-1.0739
12.3567,321.94,-1.07415
12.3583,321.957,-1.0744
12.36,321.973,-1.07474
12.3617,321.99,-1.07503
12.3633,322.006,-1.07534
12.365,322.024,-1.07566
12.3667,322.04,-1.0759
12.3683,322.057,-1.07612
12.37,322.073,-1.07631
12.3717,322.09,-1.07652
12.3733,322.106,-1.07671
12.375,322.123,-1.07684
12.3767,322.139,-1.07707
12.3783,322.156,-1.07721
12.38,322.173,-1.07735
12.3817,322.189,-1.0775
12.3833,322.206,-1.07764
12.385,322.223,-1.07781
12.3867,322.24,-1.07798
12.3883,322.256,-1.07816
12.39,322.273,-1.07833
12.3917,322.289,-1.07848
12.3933,322.306,-1.07863
12.395,322.323,-1.07878
12.3967,322.339,-1.07894
12.3983,322.356,-1.07913
12.4,322.373,-1.07929
12.4017,322.389,-1.07944
12.4033,322.406,-1.07961
12.405,322.422,-1.07984
12.4067,322.44,-1.08003
12.4083,322.456,-1.08018
12.41,322.472,-1.08032
12.4117,322.489,-1.08047
12.4133,322.506,-1.08062
12.415,322.522,-1.08077
12.4167,322.539,-1.08093
12.4183,322.555,-1.08109
12.42,322.572,-1.08124
12.4217,322.589,-1.08139
12.4233,322.605,-1.08162
12.425,322.622,-1.08188
12.4267,322.638,-1.08211
12.4283,322.655,-1.08237
12.43,322.672,-1.08263
12.4317,322.688,-1.08286
12.4333,322.705,-1.08305
12.435,322.722,-1.08332
12.4367,322.739,-1.0837
12.4383,322.755,-1.08419
12.44,322.772,-1.08467
12.4417,322.788,-1.08536
12.4433,322.805,-1.0859
12.445,322.822,-1.08644
12.4467,322.838,-1.08705
12.4483,322.855,-1.08749
12.45,322.871,-1.08791
12.4517,322.888,-1.08821
12.4533,322.905,-1.08852
12.455,322.921,-1.08883
12.4567,322.937,-1.08911
12.4583,322.954,-1.08938
12.46,322.971,-1.08973
12.4617,322.988,-1.09002
12.4633,323.004,-1.09031
12.465,323.021,-1.09079
12.4667,323.038,-1.09135
12.4683,323.054,-1.0918
12.47,323.071,-1.09222
12.4717,323.087,-1.09276
12.4733,323.104,-1.09322
12.475,323.12,-1.09374
12.4767,323.137,-1.09407
12.4783,323.154,-1.09435
12.48,323.171,-1.09453
12.4817,323.187,-1.09481
12.4833,323.204,-1.09514
12.485,323.22,-1.09544
12.4867,323.237,-1.09576
12.4883,323.254,-1.09611
12.49,323.27,-1.0965
12.4917,323.287,-1.09705
12.4933,323.304,-1.09784
12.495,323.32,-1.09865
12.4967,323.337,-1.09944
12.4983,323.353,-1.10035
12.5,323.37,-1.10131
12.5017,323.387,-1.10219
12.5033,323.403,-1.10294
12.505,323.42,-1.10359
12.5067,323.436,-1.10404
12.5083,323.453,-1.10443
12.51,323.47,-1.10473
12.5117,323.486,-1.10508
12.5133,323.503,-1.10536
12.515,323.52,-1.10561
12.5167,323.536,-1.10593
12.5183,323.553,-1.10636
12.52,323.57,-1.10677
12.5217,323.587,-1.10718
12.5233,323.603,-1.10763
12.525,323.62,-1.10805
12.5267,323.636,-1.10843
12.5283,323.653,-1.10867
12.53,323.669,-1.10897
12.5317,323.686,-1.10932
12.5333,323.703,-1.10961
12.535,323.719,-1.11001
12.5367,323.736,-1.11069
12.5383,323.752,-1.11136
12.54,323.769,-1.11202
12.5417,323.785,-1.11279
12.5433,323.802,-1.11353
12.545,323.818,-1.11453
12.5467,323.835,-1.11529
12.5483,323.852,-1.11625
12.55,323.869,-1.11704
12.5517,323.885,-1.11763
12.5533,323.902,-1.11835
12.555,323.918,-1.11896
12.5567,323.935,-1.11952
12.5583,323.951,-1.12002
12.56,323.969,-1.12035
12.5617,323.985,-1.12076
12.5633,324.002,-1.12114
12.565,324.018,-1.12151
12.5667,324.035,-1.12192
12.5683,324.052,-1.12256
12.57,324.068,-1.12296
12.5717,324.085,-1.12333
12.5733,324.101,-1.12386
12.575,324.118,-1.12471
12.5767,324.134,-1.12576
12.5783,324.151,-1.12685
12.58,324.168,-1.12793
12.5817,324.185,-1.12892
12.5833,324.201,-1.12989
12.585,324.218,-1.13062
12.5867,324.235,-1.1313
12.5883,324.251,-1.13181
12.59,324.268,-1.13224
12.5917,324.284,-1.13278
12.5933,324.301,-1.13346
12.595,324.317,-1.13411
12.5967,324.334,-1.13484
12.5983,324.35,-1.13557
12.6,324.367,-1.13665
12.6017,324.384,-1.1379
12.6033,324.4,-1.13917
12.605,324.417,-1.14033
12.6067,324.433,-1.14125
12.6083,324.45,-1.1421
12.61,324.467,-1.14294
12.6117,324.484,-1.14362
12.6133,324.5,-1.14444
12.615,324.517,-1.14551
12.6167,324.533,-1.14633
12.6183,324.55,-1.14696
12.62,324.567,-1.14788
12.6217,324.583,-1.14897
12.6233,324.6,-1.15012
12.625,324.617,-1.15104
12.6267,324.633,-1.15187
12.6283,324.65,-1.15241
12.63,324.666,-1.15291
12.6317,324.683,-1.1535
12.6333,324.699,-1.15449
12.635,324.716,-1.15547
12.6367,324.733,-1.15631
12.6383,324.749,-1.15731
12.64,324.766,-1.1589
12.6417,324.782,-1.16085
12.6433,324.799,-1.16214
12.645,324.816,-1.16342
12.6467,324.832,-1.16472
12.6483,324.849,-1.16576
12.65,324.865,-1.16677
12.6517,324.882,-1.16752
12.6533,324.899,-1.16815
12.655,324.915,-1.16876
12.6567,324.932,-1.16944
12.6583,324.948,-1.1702
12.66,324.965,-1.17093
12.6617,324.982,-1.17152
12.6633,324.998,-1.17227
12.665,325.015,-1.17338
12.6667,325.031,-1.1744
12.6683,325.048,-1.17524
12.67,325.065,-1.17619
12.6717,325.082,-1.1772
12.6733,325.098,-1.17845
12.675,325.115,-1.17974
12.6767,325.131,-1.1809
12.6783,325.148,-1.18178
12.68,325.165,-1.18266
12.6817,325.181,-1.18336
12.6833,325.198,-1.18413
12.685,325.215,-1.18488
12.6867,325.231,-1.18554
12.6883,325.247,-1.18629
12.69,325.264,-1.1869
12.6917,325.281,-1.1876
12.6933,325.297,-1.18838
12.695,325.314,-1.1893
12.6967,325.33,-1.19018
12.6983,325.347,-1.19121
12.7,325.364,-1.19222
12.7017,325.38,-1.19324
12.7033,325.397,-1.1942
12.705,325.414,-1.19506
12.7067,325.43,-1.19605
12.7083,325.446,-1.19703
12.71,325.463,-1.19799
12.7117,325.479,-1.19908
12.7133,325.496,-1.20023
12.715,325.513,-1.20155
12.7167,325.53,-1.20315
12.7183,325.546,-1.20475
12.72,325.563,-1.20611
12.7217,325.579,-1.20775
12.7233,325.596,-1.20914
12.725,325.613,-1.21084
12.7267,325.629,-1.21267
12.7283,325.646,-1.2144
12.73,325.662,-1.21636
12.7317,325.678,-1.21806
12.7333,325.694,-1.21967
12.735,325.711,-1.22122
12.7367,325.728,-1.22257
12.7383,325.744,-1.22366
12.74,325.761,-1.22449
12.7417,325.778,-1.22541
12.7433,325.794,-1.22647
12.745,325.811,-1.22757
12.7467,325.827,-1.22873
12.7483,325.844,-1.23005
12.75,325.86,-1.23157
12.7517,325.877,-1.23325
12.7533,325.893,-1.2349
12.755,325.91,-1.23641
12.7567,325.927,-1.23787
12.7583,325.943,-1.23937
12.76,325.96,-1.24081
12.7617,325.976,-1.24281
12.7633,325.993,-1.24481
12.765,326.01,-1.24625
12.7667,326.026,-1.24749
12.7683,326.043,-1.24881
12.77,326.059,-1.25011
12.7717,326.075,-1.25112
12.7733,326.092,-1.25245
12.775,326.109,-1.25367
12.7767,326.125,-1.25524
12.7783,326.142,-1.25672
12.78,326.159,-1.25836
12.7817,326.175,-1.26024
12.7833,326.192,-1.26229
12.785,326.208,-1.26389
12.7867,326.225,-1.26609
12.7883,326.241,-1.26817
12.79,326.258,-1.26997
12.7917,326.274,-1.27164
12.7933,326.291,-1.27335
12.795,326.308,-1.27536
12.7967,326.324,-1.2773
12.7983,326.341,-1.27855
12.8,326.357,-1.28022
12.8017,326.374,-1.2824
12.8033,326.39,-1.28483
12.805,326.407,-1.28692
12.8067,326.423,-1.28868
12.8083,326.44,-1.29009
12.81,326.457,-1.293
12.8117,326.473,-1.29566
12.8133,326.49,-1.29785
12.815,326.507,-1.29978
12.8167,326.523,-1.30127
12.8183,326.54,-1.30234
12.82,326.557,-1.3037
12.8217,326.573,-1.30531
12.8233,326.589,-1.3073
12.825,326.606,-1.30892
12.8267,326.622,-1.31062
12.8283,326.639,-1.31263
12.83,326.656,-1.31519
12.8317,326.672,-1.31722
12.8333,326.689,-1.31968
12.835,326.705,-1.32181
12.8367,326.722,-1.32328
12.8383,326.739,-1.32414
12.84,326.755,-1.32562
12.8417,326.771,-1.32751
12.8433,326.788,-1.33043
12.845,326.804,-1.33329
12.8467,326.821,-1.33596
12.8483,326.837,-1.33879
12.85,326.854,-1.34137
12.8517,326.87,-1.34428
12.8533,326.887,-1.34773
12.855,326.904,-1.35118
12.8567,326.92,-1.35312
12.8583,326.937,-1.35533
12.86,326.953,-1.3571
12.8617,326.97,-1.3592
12.8633,326.986,-1.36215
12.865,327.003,-1.36414
12.8667,327.019,-1.36574
12.8683,327.035,-1.36768
12.87,327.052,-1.36888
12.8717,327.069,-1.37051
12.8733,327.085,-1.37327
12.875,327.102,-1.37634
12.8767,327.118,-1.38009
12.8783,327.135,-1.38437
12.88,327.151,-1.38767
12.8817,327.167,-1.39168
12.8833,327.184,-1.39503
12.885,327.201,-1.39748
12.8867,327.218,-1.40072
12.8883,327.234,-1.40339
12.89,327.251,-1.40536
12.8917,327.267,-1.40704
12.8933,327.284,-1.40896
12.895,327.3,-1.41131
12.8967,327.316,-1.4133
12.8983,327.333,-1.41538
12.9,327.35,-1.4173
12.9017,327.366,-1.4191
12.9033,327.383,-1.4226
12.905,327.399,-1.42668
12.9067,327.415,-1.42972
12.9083,327.432,-1.43286
12.91,327.448,-1.43485
12.9117,327.465,-1.43772
12.9133,327.481,-1.44165
12.915,327.498,-1.44594
12.9167,327.514,-1.45012
12.9183,327.531,-1.45339
12.92,327.547,-1.45694
12.9217,327.564,-1.46009
12.9233,327.58,-1.46294
12.925,327.597,-1.46593
12.9267,327.613,-1.46856
12.9283,327.63,-1.47024
12.93,327.646,-1.47405
12.9317,327.662,-1.47635
12.9333,327.679,-1.48152
12.935,327.695,-1.48521
12.9367,327.712,-1.48949
12.9383,327.728,-1.49377
12.94,327.745,-1.49751
12.9417,327.761,-1.50129
12.9433,327.777,-1.50406
12.945,327.794,-1.50678
12.9467,327.81,-1.50856
12.9483,327.827,-1.51087
12.95,327.843,-1.51328
12.9517,327.86,-1.51609
12.9533,327.876,-1.51876
12.955,327.893,-1.52334
12.9567,327.91,-1.52695
12.9583,327.926,-1.53015
12.96,327.942,-1.5339
12.9617,327.959,-1.53963
12.9633,327.975,-1.54415
12.965,327.991,-1.54925
12.9667,328.008,-1.55383
12.9683,328.024,-1.55744
12.97,328.041,-1.56052
12.9717,328.057,-1.56333
12.9733,328.074,-1.56782
12.975,328.09,-1.57106
12.9767,328.106,-1.5736
12.9783,328.123,-1.57698
12.98,328.139,-1.5807
12.9817,328.155,-1.58457
12.9833,328.172,-1.58842
12.985,328.188,-1.59199
12.9867,328.204,-1.59486
12.9883,328.221,-1.59822
12.99,328.237,-1.60224
12.9917,328.254,-1.6064
12.9933,328.271,-1.61021
12.995,328.287,-1.61377
12.9967,328.303,-1.61885
12.9983,328.32,-1.62279
13,328.336,-1.62729
13.0017,328.352,-1.63252
13.0033,328.369,-1.63731
13.005,328.385,-1.64219
13.0067,328.402,-1.64741
13.0083,328.418,-1.65221
13.01,328.435,-1.65694
13.0117,328.451,-1.66215
13.0133,328.467,-1.66536
13.015,328.484,-1.66847
13.0167,328.501,-1.67166
13.0183,328.517,-1.67388
13.02,328.533,-1.67655
13.0217,328.549,-1.67845
13.0233,328.566,-1.68167
13.025,328.582,-1.68475
13.0267,328.599,-1.68909
13.0283,328.615,-1.69292
13.03,328.631,-1.69687
13.0317,328.648,-1.70023
13.0333,328.664,-1.70435
13.035,328.681,-1.70873
13.0367,328.697,-1.71403
13.0383,328.713,-1.71699
13.04,328.729,-1.72088
13.0417,328.746,-1.72615
13.0433,328.762,-1.73064
13.045,328.779,-1.73377
13.0467,328.795,-1.73817
13.0483,328.812,-1.74074
13.05,328.828,-1.74256
13.0517,328.844,-1.74562
13.0533,328.86,-1.74973
13.055,328.877,-1.75373
13.0567,328.893,-1.7575
13.0583,328.91,-1.76107
13.06,328.926,-1.76557
13.0617,328.943,-1.76829
13.0633,328.959,-1.771
13.065,328.975,-1.77501
13.0667,328.992,-1.77745
13.0683,329.008,-1.78028
13.07,329.024,-1.78266
13.0717,329.041,-1.78564
13.0733,329.057,-1.7885
13.075,329.074,-1.79092
13.0767,329.09,-1.7937
13.0783,329.107,-1.7974
13.08,329.123,-1.79887
13.0817,329.139,-1.80132
13.0833,329.156,-1.80361
13.085,329.172,-1.8056
13.0867,329.189,-1.80743
13.0883,329.205,-1.80976
13.09,329.222,-1.81106
13.0917,329.238,-1.81265
13.0933,329.255,-1.81459
13.095,329.271,-1.81676
13.0967,329.287,-1.81844
13.0983,329.303,-1.81935
13.1,329.32,-1.82074
13.1017,329.336,-1.8224
13.1033,329.353,-1.8235
13.105,329.369,-1.82465
13.1067,329.386,-1.8257
13.1083,329.402,-1.82691
13.11,329.419,-1.82782
13.1117,329.435,-1.82889
13.1133,329.452,-1.82896
13.115,329.468,-1.82857
13.1167,329.485,-1.82909
13.1183,329.501,-1.82926
13.12,329.517,-1.8296
13.1217,329.534,-1.82964
13.1233,329.55,-1.82954
13.125,329.567,-1.82955
13.1267,329.583,-1.82938
13.1283,329.6,-1.82915
13.13,329.616,-1.82884
13.1317,329.633,-1.82834
13.1333,329.65,-1.82311
13.135,329.666,-1.82157
13.1367,329.683,-1.82037
13.1383,329.699,-1.81869
13.14,329.716,-1.81716
13.1417,329.732,-1.81598
13.1433,329.749,-1.81517
13.145,329.765,-1.81427
13.1467,329.782,-1.81361
13.1483,329.798,-1.81309
13.15,329.815,-1.81235
13.1517,329.832,-1.81147
13.1533,329.848,-1.8103
13.155,329.865,-1.80857
13.1567,329.882,-1.80644
13.1583,329.898,-1.80347
13.16,329.915,-1.80026
13.1617,329.932,-1.79666
13.1633,329.948,-1.79304
13.165,329.965,-1.78921
13.1667,329.982,-1.78553
13.1683,329.998,-1.78117
13.17,330.015,-1.77548
13.1717,330.031,-1.7694
13.1733,330.048,-1.7637
13.175,330.065,-1.75823
13.1767,330.081,-1.7532
13.1783,330.098,-1.74863
13.18,330.115,-1.74409
13.1817,330.132,-1.73884
13.1833,330.149,-1.7351
13.185,330.165,-1.73226
13.1867,330.182,-1.72791
13.1883,330.199,-1.72436
13.19,330.216,-1.72021
13.1917,330.232,-1.715
13.1933,330.249,-1.71073
13.195,330.266,-1.70462
13.1967,330.283,-1.69941
13.1983,330.299,-1.69367
13.2,330.316,-1.6871
13.2017,330.333,-1.68247
13.2033,330.35,-1.67516
13.205,330.367,-1.66915
13.2067,330.384,-1.66409
13.2083,330.4,-1.65728
13.21,330.417,-1.65162
13.2117,330.434,-1.64599
13.2133,330.451,-1.63979
13.215,330.468,-1.63457
13.2167,330.485,-1.62905
13.2183,330.502,-1.62271
13.22,330.519,-1.61614
13.2217,330.536,-1.60904
13.2233,330.553,-1.60261
13.225,330.57,-1.59485
13.2267,330.587,-1.58854
13.2283,330.603,-1.58176
13.23,330.62,-1.57546
13.2317,330.637,-1.56917
13.2333,330.654,-1.56407
13.235,330.671,-1.558
13.2367,330.688,-1.55241
13.2383,330.705,-1.54668
13.24,330.722,-1.5405
13.2417,330.739,-1.53386
13.2433,330.756,-1.52909
13.245,330.773,-1.52243
13.2467,330.79,-1.51416
13.2483,330.807,-1.50668
13.25,330.824,-1.50037
13.2517,330.841,-1.49364
13.2533,330.858,-1.48702
13.255,330.875,-1.48102
13.2567,330.892,-1.47382
13.2583,330.909,-1.46733
13.26,330.926,-1.46173
13.2617,330.943,-1.4555
13.2633,330.959,-1.45132
13.265,330.976,-1.44603
13.2667,330.993,-1.4401
13.2683,331.01,-1.43272
13.27,331.028,-1.42744
13.2717,331.045,-1.42126
13.2733,331.062,-1.41511
13.275,331.078,-1.40979
13.2767,331.095,-1.40413
13.2783,331.112,-1.39835
13.28,331.129,-1.39292
13.2817,331.146,-1.38772
13.2833,331.163,-1.38166
13.285,331.181,-1.37489
13.2867,331.198,-1.36859
13.2883,331.214,-1.36133
13.29,331.232,-1.35555
13.2917,331.248,-1.34974
13.2933,331.266,-1.34516
13.295,331.282,-1.33978
13.2967,331.3,-1.33546
13.2983,331.317,-1.33036
13.3,331.334,-1.32494
13.3017,331.351,-1.3203
13.3033,331.367,-1.3145
13.305,331.385,-1.31046
13.3067,331.402,-1.30461
13.3083,331.418,-1.29966
13.31,331.435,-1.29558
13.3117,331.452,-1.2904
13.3133,331.469,-1.28457
13.315,331.486,-1.28059
13.3167,331.504,-1.27545
13.3183,331.521,-1.27038
13.32,331.538,-1.26516
13.3217,331.555,-1.26106
13.3233,331.572,-1.25674
13.325,331.588,-1.25149
13.3267,331.606,-1.24732
13.3283,331.622,-1.24453
13.33,331.639,-1.2406
13.3317,331.657,-1.23674
13.3333,331.674,-1.23301
13.335,331.691,-1.22944
13.3367,331.708,-1.2257
13.3383,331.725,-1.22188
13.34,331.742,-1.21757
13.3417,331.759,-1.21387
13.3433,331.775,-1.20846
13.345,331.792,-1.20401
13.3467,331.809,-1.20146
13.3483,331.826,-1.19777
13.35,331.844,-1.19432
13.3517,331.86,-1.19183
13.3533,331.877,-1.18916
13.355,331.894,-1.18712
13.3567,331.911,-1.18252
13.3583,331.928,-1.18071
13.36,331.945,-1.17668
13.3617,331.962,-1.17176
13.3633,331.979,-1.16796
13.365,331.996,-1.16574
13.3667,332.013,-1.16124
13.3683,332.03,-1.15708
13.37,332.047,-1.15385
13.3717,332.064,-1.15144
13.3733,332.081,-1.14913
13.375,332.098,-1.14683
13.3767,332.115,-1.14439
13.3783,332.132,-1.14318
13.38,332.149,-1.14157
13.3817,332.165,-1.13892
13.3833,332.182,-1.13714
13.385,332.199,-1.13428
13.3867,332.216,-1.1313
13.3883,332.233,-1.12749
13.39,332.25,-1.12436
13.3917,332.267,-1.12287
13.3933,332.284,-1.12
13.395,332.301,-1.11725
13.3967,332.318,-1.11454
13.3983,332.334,-1.11368
13.4,332.351,-1.11253
13.4017,332.368,-1.11074
13.4033,332.385,-1.10916
13.405,332.402,-1.107
13.4067,332.419,-1.10488
13.4083,332.436,-1.10263
13.41,332.453,-1.10068
13.4117,332.47,-1.09861
13.4133,332.487,-1.09623
13.415,332.503,-1.09385
13.4167,332.52,-1.09317
13.4183,332.537,-1.09211
13.42,332.554,-1.09091
13.4217,332.571,-1.08887
13.4233,332.588,-1.08735
13.425,332.605,-1.08554
13.4267,332.622,-1.08333
13.4283,332.638,-1.0823
13.43,332.655,-1.08015
13.4317,332.672,-1.07715
13.4333,332.689,-1.07336
13.435,332.706,-1.0712
13.4367,332.722,-1.06979
13.4383,332.739,-1.06874
13.44,332.756,-1.0677
13.4417,332.773,-1.0673
13.4433,332.79,-1.06643
13.445,332.807,-1.06581
13.4467,332.824,-1.06561
13.4483,332.841,-1.06542
13.45,332.858,-1.06498
13.4517,332.874,-1.06336
13.4533,332.891,-1.0618
13.455,332.908,-1.05995
13.4567,332.925,-1.05905
13.4583,332.941,-1.05813
13.46,332.958,-1.05681
13.4617,332.975,-1.05501
13.4633,332.992,-1.05346
13.465,333.009,-1.0525
13.4667,333.025,-1.05201
13.4683,333.042,-1.05163
13.47,333.059,-1.05089
13.4717,333.076,-1.04984
13.4733,333.093,-1.04891
13.475,333.11,-1.04796
13.4767,333.127,-1.04711
13.4783,333.143,-1.04612
13.48,333.16,-1.04534
13.4817,333.177,-1.04486
13.4833,333.193,-1.04431
13.485,333.21,-1.04369
13.4867,333.227,-1.04267
13.4883,333.244,-1.04136
13.49,333.261,-1.03976
13.4917,333.277,-1.03826
13.4933,333.294,-1.03679
13.495,333.311,-1.03588
13.4967,333.328,-1.03494
13.4983,333.345,-1.03398
13.5,333.361,-1.03327
13.5017,333.378,-1.03261
13.5033,333.395,-1.03181
13.505,333.412,-1.03093
13.5067,333.428,-1.03007
13.5083,333.445,-1.02929
13.51,333.462,-1.02836
13.5117,333.479,-1.02775
13.5133,333.495,-1.02708
13.515,333.512,-1.02635
13.5167,333.529,-1.02547
13.5183,333.546,-1.02434
13.52,333.562,-1.02358
13.5217,333.579,-1.02285
13.5233,333.596,-1.0219
13.525,333.613,-1.02141
13.5267,333.629,-1.02104
13.5283,333.646,-1.02072
13.53,333.663,-1.02055
13.5317,333.68,-1.02032
13.5333,333.696,-1.02011
13.535,333.713,-1.01977
13.5367,333.73,-1.0194
13.5383,333.746,-1.01904
13.54,333.763,-1.01862
13.5417,333.78,-1.01815
13.5433,333.796,-1.01744
13.545,333.813,-1.01696
13.5467,333.83,-1.01647
13.5483,333.847,-1.01611
13.55,333.864,-1.01566
13.5517,333.881,-1.01524
13.5533,333.897,-1.01481
13.555,333.914,-1.01446
13.5567,333.931,-1.01421
13.5583,333.947,-1.01406
13.56,333.965,-1.01386
13.5617,333.981,-1.01364
13.5633,333.998,-1.01346
13.565,334.015,-1.01329
13.5667,334.031,-1.01308
13.5683,334.048,-1.01292
13.57,334.065,-1.01276
13.5717,334.082,-1.01259
13.5733,334.099,-1.01237
13.575,334.115,-1.01212
13.5767,334.132,-1.01187
13.5783,334.149,-1.01145
13.58,334.165,-1.01097
13.5817,334.182,-1.0105
13.5833,334.198,-1.0101
13.585,334.215,-1.00961
13.5867,334.232,-1.00911
13.5883,334.249,-1.00859
13.59,334.265,-1.00787
13.5917,334.282,-1.00719
13.5933,334.299,-1.00653
13.595,334.315,-1.00605
13.5967,334.333,-1.00576
13.5983,334.349,-1.00556
13.6,334.366,-1.00533
13.6017,334.382,-1.00514
13.6033,334.399,-1.00492
13.605,334.415,-1.00475
13.6067,334.433,-1.00463
13.6083,334.449,-1.00448
13.61,334.466,-1.00434
13.6117,334.482,-1.00414
13.6133,334.499,-1.00393
13.615,334.516,-1.00367
13.6167,334.533,-1.00352
13.6183,334.549,-1.00337
13.62,334.566,-1.00317
13.6217,334.582,-1.003
13.6233,334.599,-1.00287
13.625,334.616,-1.0028
13.6267,334.632,-1.0027
13.6283,334.649,-1.00261
13.63,334.666,-1.00252
13.6317,334.682,-1.00247
13.6333,334.699,-1.00241
13.635,334.716,-1.00236
13.6367,334.733,-1.00229
13.6383,334.75,-1.00214
13.64,334.766,-1.00197
13.6417,334.783,-1.00174
13.6433,334.8,-1.00148
13.645,334.816,-1.00121
13.6467,334.833,-1.00096
13.6483,334.85,-1.00079
13.65,334.866,-1.00069
13.6517,334.882,-1.00057
13.6533,334.899,-1.00049
13.655,334.916,-1.00043
13.6567,334.933,-1.00036
13.6583,334.949,-1.00029
13.66,334.966,-1.0002
13.6617,334.983,-1.00007
13.6633,334.999,-0.999896
13.665,335.016,-0.999693
13.6667,335.032,-0.999505
13.6683,335.049,-0.999282
13.67,335.066,-0.999068
13.6717,335.083,-0.998851
13.6733,335.1,-0.998644
13.675,335.116,-0.998487
13.6767,335.133,-0.998402
13.6783,335.15,-0.998094
13.68,335.166,-0.997798
13.6817,335.183,-0.997544
13.6833,335.199,-0.997351
13.685,335.216,-0.997286
13.6867,335.233,-0.99722
13.6883,335.25,-0.997155
13.69,335.266,-0.997082
13.6917,335.283,-0.997002
13.6933,335.299,-0.996865
13.695,335.316,-0.996759
13.6967,335.333,-0.996676
13.6983,335.349,-0.9966
13.7,335.366,-0.996522
13.7017,335.382,-0.996443
13.7033,335.399,-0.996365
13.705,335.416,-0.996284
13.7067,335.433,-0.99621
13.7083,335.449,-0.996081
13.71,335.466,-0.996004
13.7117,335.482,-0.995923
13.7133,335.499,-0.995837
13.715,335.516,-0.99575
13.7167,335.533,-0.995662
13.7183,335.549,-0.995578
13.72,335.566,-0.995488
13.7217,335.583,-0.995405
13.7233,335.599,-0.995327
13.725,335.616,-0.995211
13.7267,335.633,-0.995136
13.7283,335.649,-0.99503
13.73,335.666,-0.994963
13.7317,335.683,-0.99488
13.7333,335.699,-0.994813
13.735,335.716,-0.99474
13.7367,335.733,-0.994662
13.7383,335.749,-0.994572
13.74,335.766,-0.994477
13.7417,335.783,-0.994355
13.7433,335.8,-0.994229
13.745,335.816,-0.994084
13.7467,335.833,-0.993987
13.7483,335.849,-0.993868
13.75,335.866,-0.993769
13.7517,335.883,-0.993676
13.7533,335.899,-0.993585
13.755,335.916,-0.993505
13.7567,335.933,-0.993437
13.7583,335.949,-0.993372
13.76,335.966,-0.993316
13.7617,335.983,-0.993256
13.7633,336,-0.993189
13.765,336.016,-0.993124
13.7667,336.033,-0.99306
13.7683,336.05,-0.992992
13.77,336.066,-0.992918
13.7717,336.083,-0.99284
13.7733,336.099,-0.992768
13.775,336.116,-0.992693
13.7767,336.132,-0.992613
13.7783,336.149,-0.992543
13.78,336.166,-0.992467
13.7817,336.182,-0.992395
13.7833,336.199,-0.992322
13.785,336.216,-0.992254
13.7867,336.232,-0.992181
13.7883,336.249,-0.992108
13.79,336.266,-0.992034
13.7917,336.283,-0.991965
13.7933,336.299,-0.991896
13.795,336.316,-0.991834
13.7967,336.333,-0.991774
13.7983,336.349,-0.991718
13.8,336.366,-0.991665
13.8017,336.383,-0.991617
13.8033,336.399,-0.991569
13.805,336.416,-0.991526
13.8067,336.433,-0.991476
13.8083,336.45,-0.991424
13.81,336.466,-0.991379
13.8117,336.483,-0.991333
13.8133,336.5,-0.991286
13.815,336.516,-0.991236
13.8167,336.533,-0.991176
13.8183,336.549,-0.991109
13.82,336.566,-0.991048
13.8217,336.583,-0.990991
13.8233,336.599,-0.990922
13.825,336.616,-0.990854
13.8267,336.633,-0.990777
13.8283,336.65,-0.990705
13.83,336.666,-0.990633
13.8317,336.683,-0.990565
13.8333,336.7,-0.990499
13.835,336.716,-0.990434
13.8367,336.733,-0.990372
13.8383,336.75,-0.990318
13.84,336.766,-0.990269
13.8417,336.783,-0.990224
13.8433,336.8,-0.990184
13.845,336.816,-0.990137
13.8467,336.833,-0.990082
13.8483,336.85,-0.99002
13.85,336.866,-0.989953
13.8517,336.883,-0.98989
13.8533,336.899,-0.989823
13.855,336.916,-0.989762
13.8567,336.933,-0.989705
13.8583,336.949,-0.989654
13.86,336.966,-0.989603
13.8617,336.983,-0.989555
13.8633,336.999,-0.989513
13.865,337.016,-0.989475
13.8667,337.033,-0.989432
13.8683,337.05,-0.989378
13.87,337.066,-0.989327
13.8717,337.083,-0.989269
13.8733,337.1,-0.989212
13.875,337.116,-0.989154
13.8767,337.133,-0.989099
13.8783,337.15,-0.989039
13.88,337.166,-0.988967
13.8817,337.183,-0.988903
13.8833,337.2,-0.988835
13.885,337.216,-0.98877
13.8867,337.233,-0.988706
13.8883,337.25,-0.988644
13.89,337.266,-0.988584
13.8917,337.283,-0.988541
13.8933,337.3,-0.988509
13.895,337.316,-0.988489
13.8967,337.333,-0.988478
13.8983,337.35,-0.988471
13.9,337.366,-0.988471
13.9017,337.383,-0.988462
13.9033,337.4,-0.988448
13.905,337.416,-0.988421
13.9067,337.433,-0.988374
13.9083,337.45,-0.988317
13.91,337.466,-0.988261
13.9117,337.483,-0.988197
13.9133,337.499,-0.988127
13.915,337.516,-0.988056
13.9167,337.533,-0.98798
13.9183,337.549,-0.987898
13.92,337.566,-0.987833
13.9217,337.583,-0.987771
13.9233,337.6,-0.987718
13.925,337.616,-0.98767
13.9267,337.633,-0.98762
13.9283,337.649,-0.987581
13.93,337.666,-0.987549
13.9317,337.683,-0.987512
13.9333,337.699,-0.987469
13.935,337.716,-0.98743
13.9367,337.733,-0.987404
13.9383,337.749,-0.987369
13.94,337.766,-0.987335
13.9417,337.783,-0.987304
13.9433,337.8,-0.987271
13.945,337.816,-0.987236
13.9467,337.833,-0.98721
13.9483,337.85,-0.987189
13.95,337.866,-0.987169
13.9517,337.883,-0.987148
13.9533,337.9,-0.987133
13.955,337.916,-0.987114
13.9567,337.933,-0.987091
13.9583,337.949,-0.987056
13.96,337.966,-0.987018
13.9617,337.983,-0.986972
13.9633,338,-0.986922
13.965,338.016,-0.986874
13.9667,338.033,-0.98683
13.9683,338.049,-0.986796
13.97,338.067,-0.986773
13.9717,338.083,-0.986744
13.9733,338.1,-0.986716
13.975,338.117,-0.986691
13.9767,338.134,-0.986665
13.9783,338.15,-0.986641
13.98,338.167,-0.986605
13.9817,338.184,-0.986563
13.9833,338.199,-0.986517
13.985,338.216,-0.986474
13.9867,338.233,-0.986435
13.9883,338.249,-0.986403
13.99,338.266,-0.986373
13.9917,338.283,-0.986358
13.9933,338.299,-0.986343
13.995,338.316,-0.986333
13.9967,338.333,-0.986326
13.9983,338.349,-0.986322
14,338.366,-0.986324
14.0017,338.383,-0.986329
14.0033,338.4,-0.986332
14.005,338.416,-0.986331
14.0067,338.433,-0.986318
14.0083,338.449,-0.986306
14.01,338.466,-0.986287
14.0117,338.483,-0.986257
14.0133,338.499,-0.986225
14.015,338.516,-0.986202
14.0167,338.532,-0.986173
14.0183,338.549,-0.986145
14.02,338.566,-0.986119
14.0217,338.583,-0.986099
14.0233,338.599,-0.986079
14.025,338.616,-0.986059
14.0267,338.633,-0.986044
14.0283,338.649,-0.986023
14.03,338.666,-0.985995
14.0317,338.683,-0.985969
14.0333,338.699,-0.985948
14.035,338.716,-0.985934
14.0367,338.732,-0.985918
14.0383,338.749,-0.985899
14.04,338.766,-0.985885
14.0417,338.783,-0.985876
14.0433,338.799,-0.985866
14.045,338.816,-0.985859
14.0467,338.833,-0.985853
14.0483,338.849,-0.985843
14.05,338.865,-0.985827
14.0517,338.882,-0.98582
14.0533,338.899,-0.985806
14.055,338.915,-0.985786
14.0567,338.932,-0.985766
14.0583,338.949,-0.985754
14.06,338.966,-0.985739
14.0617,338.982,-0.985724
14.0633,338.999,-0.985715
14.065,339.016,-0.985703
14.0667,339.032,-0.985699
14.0683,339.049,-0.985703
14.07,339.066,-0.98572
14.0717,339.083,-0.985731
14.0733,339.099,-0.985737
14.075,339.116,-0.985728
14.0767,339.132,-0.98572
14.0783,339.149,-0.98571
14.08,339.165,-0.985689
14.0817,339.182,-0.985671
14.0833,339.199,-0.985649
14.085,339.215,-0.985625
14.0867,339.232,-0.98561
14.0883,339.249,-0.985601
14.09,339.266,-0.985598
14.0917,339.283,-0.985605
14.0933,339.299,-0.985621
14.095,339.316,-0.985635
14.0967,339.332,-0.985637
14.0983,339.349,-0.985635
14.1,339.366,-0.985633
14.1017,339.382,-0.985632
14.1033,339.399,-0.98562
14.105,339.416,-0.985611
14.1067,339.432,-0.985601
14.1083,339.449,-0.985598
14.11,339.465,-0.985597
14.1117,339.482,-0.985594
14.1133,339.499,-0.985592
14.115,339.515,-0.985596
14.1167,339.532,-0.985603
14.1183,339.549,-0.985616
14.12,339.566,-0.985628
14.1217,339.582,-0.985634
14.1233,339.599,-0.985645
14.125,339.616,-0.985653
14.1267,339.632,-0.985657
14.1283,339.649,-0.985655
14.13,339.665,-0.985649
14.1317,339.682,-0.985638
14.1333,339.699,-0.985622
14.135,339.716,-0.985606
14.1367,339.733,-0.985587
14.1383,339.749,-0.985567
14.14,339.766,-0.985546
14.1417,339.782,-0.985529
14.1433,339.799,-0.985515
14.145,339.815,-0.9855
14.1467,339.832,-0.985483
14.1483,339.849,-0.985473
14.15,339.865,-0.985461
14.1517,339.882,-0.985451
14.1533,339.899,-0.985451
14.155,339.915,-0.98546
14.1567,339.932,-0.985458
14.1583,339.948,-0.985458
14.16,339.965,-0.985458
14.1617,339.982,-0.985458
14.1633,339.999,-0.985459
14.165,340.016,-0.985461
14.1667,340.032,-0.985469
14.1683,340.048,-0.98548
14.17,340.065,-0.985491
14.1717,340.082,-0.985506
14.1733,340.099,-0.98552
14.175,340.115,-0.985529
14.1767,340.132,-0.985542
14.1783,340.149,-0.985551
14.18,340.166,-0.985555
14.1817,340.182,-0.985549
14.1833,340.199,-0.985553
14.185,340.215,-0.985562
14.1867,340.232,-0.98557
14.1883,340.249,-0.985591
14.19,340.266,-0.985624
14.1917,340.282,-0.985656
14.1933,340.299,-0.985683
14.195,340.316,-0.98571
14.1967,340.332,-0.985722
14.1983,340.349,-0.985729
14.2,340.366,-0.985725
14.2017,340.382,-0.985717
14.2033,340.399,-0.985712
14.205,340.415,-0.985708
14.2067,340.432,-0.985704
14.2083,340.449,-0.985706
14.21,340.466,-0.985713
14.2117,340.482,-0.985727
14.2133,340.499,-0.985747
14.215,340.516,-0.985767
14.2167,340.532,-0.985786
14.2183,340.549,-0.9858
14.22,340.566,-0.985816
14.2217,340.582,-0.98584
14.2233,340.599,-0.985853
14.225,340.616,-0.985877
14.2267,340.632,-0.985901
14.2283,340.649,-0.985919
14.23,340.665,-0.985933
14.2317,340.682,-0.985956
14.2333,340.699,-0.985982
14.235,340.716,-0.986015
14.2367,340.732,-0.986041
14.2383,340.749,-0.986065
14.24,340.766,-0.986087
14.2417,340.782,-0.986106
14.2433,340.799,-0.986122
14.245,340.816,-0.986144
14.2467,340.832,-0.986162
14.2483,340.849,-0.986174
14.25,340.866,-0.986193
14.2517,340.883,-0.986213
14.2533,340.899,-0.986232
14.255,340.917,-0.986252
14.2567,340.934,-0.986279
14.2583,340.95,-0.986309
14.26,340.967,-0.986337
14.2617,340.983,-0.986361
14.2633,341,-0.986378
14.265,341.017,-0.986389
14.2667,341.034,-0.986398
14.2683,341.05,-0.986399
14.27,341.067,-0.986394
14.2717,341.083,-0.98638
14.2733,341.1,-0.986367
14.275,341.116,-0.986353
14.2767,341.133,-0.986352
14.2783,341.15,-0.986356
14.28,341.166,-0.986367
14.2817,341.183,-0.986383
14.2833,341.2,-0.986393
14.285,341.217,-0.986411
14.2867,341.233,-0.986425
14.2883,341.25,-0.986442
14.29,341.267,-0.986459
14.2917,341.283,-0.986473
14.2933,341.3,-0.986493
14.295,341.316,-0.986524
14.2967,341.333,-0.986566
14.2983,341.35,-0.986603
14.3,341.366,-0.986638
14.3017,341.383,-0.98667
14.3033,341.4,-0.986701
14.305,341.417,-0.986723
14.3067,341.433,-0.986744
14.3083,341.45,-0.986764
14.31,341.467,-0.986783
14.3117,341.483,-0.986795
14.3133,341.5,-0.986808
14.315,341.516,-0.986825
14.3167,341.533,-0.986844
14.3183,341.549,-0.986858
14.32,341.566,-0.986875
14.3217,341.583,-0.986897
14.3233,341.6,-0.986909
14.325,341.616,-0.986912
14.3267,341.633,-0.986911
14.3283,341.65,-0.986908
14.33,341.666,-0.986898
14.3317,341.683,-0.986881
14.3333,341.7,-0.986869
14.335,341.716,-0.986865
14.3367,341.733,-0.986868
14.3383,341.75,-0.98687
14.34,341.766,-0.986883
14.3417,341.783,-0.986906
14.3433,341.8,-0.986932
14.345,341.816,-0.986961
14.3467,341.833,-0.986988
14.3483,341.85,-0.987011
14.35,341.866,-0.987036
14.3517,341.883,-0.987057
14.3533,341.899,-0.987076
14.355,341.915,-0.987099
14.3567,341.933,-0.987118
14.3583,341.949,-0.987143
14.36,341.965,-0.987173
14.3617,341.982,-0.987198
14.3633,341.999,-0.987219
14.365,342.016,-0.987229
14.3667,342.033,-0.987242
14.3683,342.049,-0.98725
14.37,342.066,-0.987255
14.3717,342.083,-0.987259
14.3733,342.099,-0.987275
14.375,342.116,-0.9873
14.3767,342.132,-0.987336
14.3783,342.149,-0.98738
14.38,342.166,-0.987429
14.3817,342.183,-0.987487
14.3833,342.199,-0.987539
14.385,342.216,-0.987589
14.3867,342.233,-0.987634
14.3883,342.249,-0.987669
14.39,342.266,-0.987692
14.3917,342.283,-0.987701
14.3933,342.299,-0.987694
14.395,342.316,-0.98768
14.3967,342.332,-0.987651
14.3983,342.349,-0.987634
14.4,342.366,-0.987619
14.4017,342.382,-0.987611
14.4033,342.399,-0.987596
14.405,342.415,-0.987587
14.4067,342.432,-0.987584
14.4083,342.449,-0.987581
14.41,342.466,-0.987585
14.4117,342.482,-0.987595
14.4133,342.499,-0.987612
14.415,342.516,-0.987641
14.4167,342.532,-0.987672
14.4183,342.549,-0.987701
14.42,342.566,-0.987731
14.4217,342.582,-0.98776
14.4233,342.599,-0.987784
14.425,342.616,-0.987812
14.4267,342.633,-0.987832
14.4283,342.649,-0.987851
14.43,342.665,-0.987877
14.4317,342.682,-0.987906
14.4333,342.699,-0.987942
14.435,342.715,-0.987978
14.4367,342.732,-0.988011
14.4383,342.749,-0.98804
14.44,342.765,-0.988065
14.4417,342.782,-0.98809
14.4433,342.799,-0.988113
14.445,342.816,-0.988132
14.4467,342.832,-0.988142
14.4483,342.849,-0.98815
14.45,342.865,-0.98816
14.4517,342.882,-0.988169
14.4533,342.899,-0.988174
14.455,342.915,-0.988179
14.4567,342.932,-0.988185
14.4583,342.949,-0.988199
14.46,342.965,-0.98822
14.4617,342.982,-0.988255
14.4633,342.999,-0.9883
14.465,343.015,-0.98836
14.4667,343.032,-0.988403
14.4683,343.049,-0.988451
14.47,343.065,-0.988493
14.4717,343.082,-0.988533
14.4733,343.099,-0.988567
14.475,343.116,-0.988593
14.4767,343.132,-0.988611
14.4783,343.149,-0.988634
14.48,343.166,-0.988646
14.4817,343.182,-0.988667
14.4833,343.199,-0.988689
14.485,343.216,-0.98872
14.4867,343.232,-0.988751
14.4883,343.249,-0.988775
14.49,343.265,-0.988807
14.4917,343.282,-0.988848
14.4933,343.299,-0.988885
14.495,343.316,-0.988916
14.4967,343.332,-0.988948
14.4983,343.349,-0.988978
14.5,343.365,-0.989012
14.5017,343.382,-0.989046
14.5033,343.399,-0.989081
14.505,343.415,-0.989121
14.5067,343.432,-0.989154
14.5083,343.449,-0.989189
14.51,343.465,-0.989233
14.5117,343.482,-0.98928
14.5133,343.499,-0.989311
14.515,343.515,-0.989342
14.5167,343.532,-0.989367
14.5183,343.549,-0.989397
14.52,343.566,-0.989432
14.5217,343.582,-0.989459
14.5233,343.599,-0.989477
14.525,343.616,-0.989493
14.5267,343.632,-0.9895
14.5283,343.649,-0.989492
14.53,343.665,-0.989485
14.5317,343.682,-0.989475
14.5333,343.698,-0.989456
14.535,343.715,-0.989439
14.5367,343.732,-0.989429
14.5383,343.749,-0.989428
14.54,343.765,-0.98944
14.5417,343.782,-0.989462
14.5433,343.799,-0.989496
14.545,343.815,-0.989531
14.5467,343.832,-0.989566
14.5483,343.849,-0.989603
14.55,343.865,-0.989641
14.5517,343.882,-0.98968
14.5533,343.898,-0.989718
14.555,343.915,-0.989749
14.5567,343.932,-0.989779
14.5583,343.949,-0.989807
14.56,343.965,-0.989836
14.5617,343.982,-0.989877
14.5633,343.999,-0.989917
14.565,344.015,-0.989952
14.5667,344.032,-0.989989
14.5683,344.048,-0.990025
14.57,344.065,-0.990062
14.5717,344.082,-0.990095
14.5733,344.098,-0.990129
14.575,344.115,-0.990152
14.5767,344.132,-0.990167
14.5783,344.149,-0.990179
14.58,344.165,-0.990187
14.5817,344.182,-0.990201
14.5833,344.198,-0.990215
14.585,344.215,-0.990229
14.5867,344.232,-0.990248
14.5883,344.248,-0.990267
14.59,344.265,-0.990288
14.5917,344.281,-0.990308
14.5933,344.298,-0.990324
14.595,344.315,-0.990347
14.5967,344.332,-0.990372
14.5983,344.348,-0.990391
14.6,344.365,-0.990415
14.6017,344.381,-0.990444
14.6033,344.398,-0.990476
14.605,344.415,-0.990506
14.6067,344.431,-0.990535
14.6083,344.448,-0.990565
14.61,344.465,-0.990597
14.6117,344.482,-0.990628
14.6133,344.498,-0.990655
14.615,344.515,-0.990683
14.6167,344.531,-0.9907
14.6183,344.548,-0.990714
14.62,344.564,-0.990729
14.6217,344.581,-0.990747
14.6233,344.598,-0.990758
14.625,344.614,-0.990765
14.6267,344.631,-0.990786
14.6283,344.648,-0.990815
14.63,344.664,-0.990851
14.6317,344.681,-0.990893
14.6333,344.697,-0.990935
14.635,344.714,-0.990984
14.6367,344.731,-0.991038
14.6383,344.748,-0.991093
14.64,344.764,-0.991147
14.6417,344.781,-0.991192
14.6433,344.797,-0.99123
14.645,344.814,-0.991255
14.6467,344.831,-0.991277
14.6483,344.847,-0.991301
14.65,344.864,-0.991317
14.6517,344.88,-0.991333
14.6533,344.897,-0.99135
14.655,344.914,-0.991357
14.6567,344.931,-0.991362
14.6583,344.947,-0.991372
14.66,344.964,-0.99138
14.6617,344.981,-0.991395
14.6633,344.998,-0.991414
14.665,345.014,-0.991426
14.6667,345.031,-0.991441
14.6683,345.048,-0.991459
14.67,345.064,-0.99148
14.6717,345.081,-0.991498
14.6733,345.098,-0.99152
14.675,345.114,-0.991547
14.6767,345.131,-0.99157
14.6783,345.147,-0.9916
14.68,345.163,-0.991627
14.6817,345.18,-0.991666
14.6833,345.197,-0.991709
14.685,345.214,-0.991746
14.6867,345.23,-0.991791
14.6883,345.247,-0.991846
14.69,345.263,-0.991902
14.6917,345.28,-0.991961
14.6933,345.297,-0.992015
14.695,345.314,-0.992055
14.6967,345.33,-0.992085
14.6983,345.347,-0.992107
14.7,345.363,-0.99212
14.7017,345.38,-0.992129
14.7033,345.397,-0.992133
14.705,345.413,-0.992136
14.7067,345.43,-0.992153
14.7083,345.447,-0.992173
14.71,345.463,-0.992189
14.7117,345.48,-0.992205
14.7133,345.497,-0.992228
14.715,345.513,-0.992262
14.7167,345.53,-0.992299
14.7183,345.546,-0.992334
14.72,345.563,-0.992373
14.7217,345.58,-0.992413
14.7233,345.596,-0.992458
14.725,345.613,-0.992508
14.7267,345.63,-0.992566
14.7283,345.646,-0.992625
14.73,345.663,-0.99268
14.7317,345.68,-0.992731
14.7333,345.696,-0.992776
14.735,345.713,-0.99282
14.7367,345.73,-0.99286
14.7383,345.747,-0.992895
14.74,345.764,-0.992924
14.7417,345.78,-0.992947
14.7433,345.797,-0.992968
14.745,345.813,-0.99299
14.7467,345.83,-0.993017
14.7483,345.847,-0.993046
14.75,345.863,-0.993076
14.7517,345.88,-0.993107
14.7533,345.896,-0.993138
14.755,345.912,-0.993165
14.7567,345.929,-0.993188
14.7583,345.946,-0.993202
14.76,345.963,-0.99321
14.7617,345.979,-0.993211
14.7633,345.995,-0.993213
14.765,346.012,-0.993219
14.7667,346.029,-0.993235
14.7683,346.046,-0.993253
14.77,346.062,-0.993285
14.7717,346.079,-0.993312
14.7733,346.096,-0.993339
14.775,346.112,-0.993366
14.7767,346.129,-0.993392
14.7783,346.146,-0.993418
14.78,346.163,-0.993441
14.7817,346.179,-0.993468
14.7833,346.196,-0.993494
14.785,346.213,-0.993522
14.7867,346.229,-0.993549
14.7883,346.246,-0.993575
14.79,346.263,-0.993598
14.7917,346.279,-0.993617
14.7933,346.296,-0.993644
14.795,346.312,-0.993669
14.7967,346.329,-0.993696
14.7983,346.345,-0.993723
14.8,346.362,-0.993764
14.8017,346.379,-0.993815
14.8033,346.396,-0.993873
14.805,346.413,-0.993923
14.8067,346.429,-0.993981
14.8083,346.446,-0.994044
14.81,346.462,-0.994097
14.8117,346.479,-0.99415
14.8133,346.495,-0.994203
14.815,346.512,-0.994263
14.8167,346.528,-0.994321
14.8183,346.545,-0.994368
14.82,346.562,-0.994411
14.8217,346.579,-0.994444
14.8233,346.595,-0.994461
14.825,346.612,-0.994475
14.8267,346.629,-0.99449
14.8283,346.645,-0.994497
14.83,346.662,-0.994494
14.8317,346.678,-0.994493
14.8333,346.695,-0.994495
14.835,346.712,-0.994511
14.8367,346.729,-0.994536
14.8383,346.745,-0.994566
14.84,346.762,-0.994606
14.8417,346.779,-0.994657
14.8433,346.795,-0.994711
14.845,346.812,-0.994764
14.8467,346.829,-0.994812
14.8483,346.845,-0.994856
14.85,346.862,-0.994889
14.8517,346.879,-0.994911
14.8533,346.895,-0.994928
14.855,346.912,-0.994936
14.8567,346.928,-0.994939
14.8583,346.945,-0.994954
14.86,346.962,-0.994976
14.8617,346.978,-0.995007
14.8633,346.995,-0.995041
14.865,347.012,-0.995078
14.8667,347.029,-0.995111
14.8683,347.045,-0.995156
14.87,347.062,-0.995207
14.8717,347.078,-0.995257
14.8733,347.094,-0.995297
14.875,347.112,-0.995327
14.8767,347.128,-0.995359
14.8783,347.144,-0.995387
14.88,347.161,-0.99541
14.8817,347.178,-0.995426
14.8833,347.194,-0.995437
14.885,347.211,-0.995447
14.8867,347.228,-0.995457
14.8883,347.245,-0.995471
14.89,347.262,-0.995487
14.8917,347.278,-0.995511
14.8933,347.295,-0.995536
14.895,347.311,-0.995573
14.8967,347.327,-0.995614
14.8983,347.344,-0.995661
14.9,347.361,-0.995711
14.9017,347.378,-0.995762
14.9033,347.394,-0.995813
14.905,347.411,-0.995864
14.9067,347.427,-0.995902
14.9083,347.444,-0.995934
14.91,347.461,-0.995957
14.9117,347.478,-0.995969
14.9133,347.494,-0.995974
14.915,347.511,-0.995974
14.9167,347.528,-0.995978
14.9183,347.544,-0.995982
14.92,347.561,-0.995984
14.9217,347.578,-0.995988
14.9233,347.594,-0.995998
14.925,347.611,-0.996005
14.9267,347.627,-0.996029
14.9283,347.644,-0.996065
14.93,347.661,-0.996104
14.9317,347.677,-0.996149
14.9333,347.694,-0.996196
14.935,347.711,-0.996244
14.9367,347.727,-0.996295
14.9383,347.744,-0.996344
14.94,347.761,-0.996397
14.9417,347.777,-0.996442
14.9433,347.794,-0.996489
14.945,347.81,-0.996546
14.9467,347.827,-0.996604
14.9483,347.844,-0.996653
14.95,347.86,-0.996706
14.9517,347.877,-0.996762
14.9533,347.894,-0.996815
14.955,347.91,-0.99686
14.9567,347.927,-0.996896
14.9583,347.943,-0.996929
14.96,347.96,-0.99696
14.9617,347.977,-0.996983
14.9633,347.994,-0.997009
14.965,348.01,-0.997037
14.9667,348.027,-0.997062
14.9683,348.044,-0.997089
14.97,348.06,-0.997119
14.9717,348.077,-0.997145
14.9733,348.093,-0.997162
14.975,348.11,-0.997176
14.9767,348.127,-0.997191
14.9783,348.143,-0.997195
14.98,348.16,-0.997197
14.9817,348.177,-0.997207
14.9833,348.193,-0.997228
14.985,348.21,-0.997255
14.9867,348.226,-0.99728
14.9883,348.243,-0.997315
14.99,348.26,-0.997357
14.9917,348.277,-0.997397
14.9933,348.293,-0.997436
14.995,348.31,-0.997474
14.9967,348.327,-0.997507
14.9983,348.343,-0.997543
15,348.36,-0.997583
15.0017,348.376,-0.997625
15.0033,348.393,-0.997667
15.005,348.41,-0.997718
15.0067,348.426,-0.997774
15.0083,348.443,-0.997829
15.01,348.46,-0.997878
15.0117,348.476,-0.997927
15.0133,348.493,-0.997971
15.015,348.51,-0.998005
15.0167,348.527,-0.998029
15.0183,348.543,-0.998056
15.02,348.56,-0.998074
15.0217,348.576,-0.998094
15.0233,348.593,-0.998113
15.025,348.609,-0.998146
15.0267,348.626,-0.998191
15.0283,348.643,-0.998234
15.03,348.659,-0.998278
15.0317,348.676,-0.998314
15.0333,348.693,-0.998357
15.035,348.71,-0.998396
15.0367,348.726,-0.998436
15.0383,348.743,-0.998476
15.04,348.76,-0.99852
15.0417,348.776,-0.998554
15.0433,348.793,-0.998589
15.045,348.81,-0.998631
15.0467,348.826,-0.99866
15.0483,348.843,-0.998686
15.05,348.859,-0.998706
15.0517,348.876,-0.998725
15.0533,348.893,-0.998751
15.055,348.909,-0.998784
15.0567,348.926,-0.998811
15.0583,348.943,-0.998848
15.06,348.959,-0.998881
15.0617,348.976,-0.998913
15.0633,348.993,-0.998953
15.065,349.009,-0.998993
15.0667,349.026,-0.999036
15.0683,349.043,-0.999075
15.07,349.059,-0.999114
15.0717,349.076,-0.999158
15.0733,349.092,-0.999204
15.075,349.109,-0.99925
15.0767,349.126,-0.999293
15.0783,349.142,-0.999331
15.08,349.159,-0.999356
15.0817,349.176,-0.999382
15.0833,349.193,-0.999407
15.085,349.209,-0.999439
15.0867,349.226,-0.999467
15.0883,349.242,-0.999502
15.09,349.259,-0.999537
15.0917,349.275,-0.99957
15.0933,349.292,-0.99961
15.095,349.309,-0.999644
15.0967,349.325,-0.999678
15.0983,349.343,-0.999708
15.1,349.359,-0.999745
15.1017,349.376,-0.999785
15.1033,349.392,-0.999827
15.105,349.409,-0.999873
15.1067,349.426,-0.999923
15.1083,349.442,-0.999971
15.11,349.459,-1.00002
15.1117,349.475,-1.00007
15.1133,349.492,-1.00012
15.115,349.509,-1.00017
15.1167,349.526,-1.00022
15.1183,349.543,-1.00026
15.12,349.559,-1.0003
15.1217,349.576,-1.00034
15.1233,349.592,-1.00038
15.125,349.609,-1.00041
15.1267,349.626,-1.00043
15.1283,349.642,-1.00045
15.13,349.659,-1.00047
15.1317,349.675,-1.00048
15.1333,349.692,-1.00049
15.135,349.709,-1.0005
15.1367,349.726,-1.00051
15.1383,349.742,-1.00053
15.14,349.759,-1.00056
15.1417,349.776,-1.00059
15.1433,349.792,-1.00063
15.145,349.809,-1.00068
15.1467,349.826,-1.00073
15.1483,349.842,-1.00077
15.15,349.859,-1.00083
15.1517,349.876,-1.00087
15.1533,349.892,-1.00092
15.155,349.909,-1.00097
15.1567,349.925,-1.00101
15.1583,349.942,-1.00105
15.16,349.959,-1.00108
15.1617,349.976,-1.00111
15.1633,349.992,-1.00114
15.165,350.009,-1.00116
15.1667,350.025,-1.00119
15.1683,350.042,-1.00122
15.17,350.059,-1.00126
15.1717,350.075,-1.0013
15.1733,350.092,-1.00134
15.175,350.109,-1.00138
15.1767,350.125,-1.00142
15.1783,350.142,-1.00147
15.18,350.158,-1.00151
15.1817,350.175,-1.00153
15.1833,350.191,-1.00155
15.185,350.208,-1.00157
15.1867,350.225,-1.00158
15.1883,350.241,-1.00159
15.19,350.258,-1.00159
15.1917,350.275,-1.0016
15.1933,350.291,-1.00161
15.195,350.308,-1.00163
15.1967,350.325,-1.00165
15.1983,350.341,-1.00167
15.2,350.358,-1.0017
15.2017,350.375,-1.00172
15.2033,350.391,-1.00174
15.205,350.408,-1.00177
15.2067,350.425,-1.00181
15.2083,350.441,-1.00185
15.21,350.458,-1.00188
15.2117,350.475,-1.00192
15.2133,350.492,-1.00196
15.215,350.508,-1.00201
15.2167,350.525,-1.00206
15.2183,350.541,-1.00211
15.22,350.558,-1.00216
15.2217,350.574,-1.00221
15.2233,350.591,-1.00226
15.225,350.608,-1.00229
15.2267,350.625,-1.00232
15.2283,350.641,-1.00234
15.23,350.658,-1.00236
15.2317,350.674,-1.00237
15.2333,350.691,-1.00239
15.235,350.708,-1.0024
15.2367,350.724,-1.00243
15.2383,350.741,-1.00247
15.24,350.757,-1.00251
15.2417,350.774,-1.00257
15.2433,350.791,-1.00263
15.245,350.808,-1.00275
15.2467,350.824,-1.00284
15.2483,350.841,-1.00297
15.25,350.858,-1.00304
15.2517,350.874,-1.0031
15.2533,350.891,-1.00316
15.255,350.908,-1.00322
15.2567,350.924,-1.00328
15.2583,350.941,-1.00334
15.26,350.958,-1.0034
15.2617,350.974,-1.00346
15.2633,350.991,-1.00351
15.265,351.008,-1.00357
15.2667,351.024,-1.00363
15.2683,351.041,-1.00367
15.27,351.057,-1.0037
15.2717,351.074,-1.00372
15.2733,351.091,-1.00374
15.275,351.107,-1.00373
15.2767,351.124,-1.00371
15.2783,351.141,-1.00368
15.28,351.157,-1.00367
15.2817,351.174,-1.00366
15.2833,351.19,-1.00366
15.285,351.207,-1.00367
15.2867,351.224,-1.00368
15.2883,351.241,-1.00371
15.29,351.257,-1.00374
15.2917,351.274,-1.00379
15.2933,351.291,-1.00385
15.295,351.307,-1.0039
15.2967,351.324,-1.00396
15.2983,351.34,-1.00402
15.3,351.357,-1.00408
15.3017,351.374,-1.00414
15.3033,351.391,-1.0042
15.305,351.407,-1.00424
15.3067,351.424,-1.00428
15.3083,351.44,-1.0043
15.31,351.457,-1.00432
15.3117,351.474,-1.00433
15.3133,351.49,-1.00435
15.315,351.507,-1.00437
15.3167,351.523,-1.00439
15.3183,351.54,-1.00441
15.32,351.557,-1.00443
15.3217,351.573,-1.00446
15.3233,351.59,-1.0045
15.325,351.607,-1.00455
15.3267,351.623,-1.0046
15.3283,351.64,-1.00465
15.33,351.656,-1.00471
15.3317,351.673,-1.00477
15.3333,351.69,-1.00484
15.335,351.707,-1.00489
15.3367,351.724,-1.00494
15.3383,351.74,-1.00498
15.34,351.757,-1.00502
15.3417,351.774,-1.00506
15.3433,351.79,-1.0051
15.345,351.807,-1.00513
15.3467,351.824,-1.00517
15.3483,351.84,-1.00521
15.35,351.857,-1.00525
15.3517,351.874,-1.00529
15.3533,351.89,-1.00534
15.355,351.907,-1.00538
15.3567,351.924,-1.00542
15.3583,351.94,-1.00546
15.36,351.957,-1.00551
15.3617,351.974,-1.00556
15.3633,351.99,-1.0056
15.365,352.006,-1.00565
15.3667,352.023,-1.0057
15.3683,352.04,-1.00574
15.37,352.057,-1.00577
15.3717,352.073,-1.0058
15.3733,352.09,-1.00582
15.375,352.107,-1.00584
15.3767,352.123,-1.00586
15.3783,352.14,-1.00588
15.38,352.157,-1.0059
15.3817,352.173,-1.00591
15.3833,352.19,-1.00593
15.385,352.207,-1.00594
15.3867,352.224,-1.00596
15.3883,352.24,-1.00599
15.39,352.257,-1.00603
15.3917,352.273,-1.00608
15.3933,352.29,-1.00613
15.395,352.307,-1.0062
15.3967,352.324,-1.00629
15.3983,352.34,-1.00635
15.4,352.357,-1.00641
15.4017,352.373,-1.00647
15.4033,352.39,-1.00653
15.405,352.407,-1.00658
15.4067,352.423,-1.00662
15.4083,352.44,-1.00666
15.41,352.457,-1.0067
15.4117,352.473,-1.00673
15.4133,352.49,-1.00675
15.415,352.506,-1.00677
15.4167,352.523,-1.00679
15.4183,352.54,-1.00681
15.42,352.557,-1.00684
15.4217,352.573,-1.00687
15.4233,352.59,-1.0069
15.425,352.606,-1.00693
15.4267,352.623,-1.00696
15.4283,352.64,-1.00699
15.43,352.656,-1.00703
15.4317,352.673,-1.00706
15.4333,352.689,-1.00708
15.435,352.706,-1.00712
15.4367,352.723,-1.00715
15.4383,352.74,-1.00719
15.44,352.756,-1.00722
15.4417,352.773,-1.00725
15.4433,352.79,-1.00728
15.445,352.806,-1.00731
15.4467,352.823,-1.00733
15.4483,352.839,-1.00737
15.45,352.856,-1.0074
15.4517,352.873,-1.00743
15.4533,352.889,-1.00746
15.455,352.906,-1.00749
15.4567,352.922,-1.00753
15.4583,352.939,-1.00757
15.46,352.955,-1.0076
15.4617,352.973,-1.00762
15.4633,352.989,-1.00765
15.465,353.006,-1.00768
15.4667,353.022,-1.00771
15.4683,353.039,-1.00775
15.47,353.056,-1.00779
15.4717,353.073,-1.00782
15.4733,353.089,-1.00785
15.475,353.106,-1.00788
15.4767,353.123,-1.00791
15.4783,353.139,-1.00794
15.48,353.156,-1.00797
15.4817,353.172,-1.008
15.4833,353.189,-1.00802
15.485,353.206,-1.00804
15.4867,353.222,-1.00807
15.4883,353.239,-1.00808
15.49,353.256,-1.00811
15.4917,353.272,-1.00814
15.4933,353.289,-1.00817
15.495,353.306,-1.00822
15.4967,353.322,-1.00826
15.4983,353.339,-1.00831
15.5,353.356,-1.00836
15.5017,353.372,-1.00839
15.5033,353.389,-1.00842
15.505,353.406,-1.00843
15.5067,353.422,-1.00844
15.5083,353.439,-1.00843
15.51,353.456,-1.00843
15.5117,353.472,-1.00842
15.5133,353.489,-1.00842
15.515,353.505,-1.00843
15.5167,353.522,-1.00845
15.5183,353.539,-1.00849
15.52,353.555,-1.00853
15.5217,353.572,-1.00859
15.5233,353.589,-1.00867
15.525,353.605,-1.00875
15.5267,353.622,-1.00881
15.5283,353.639,-1.00887
15.53,353.655,-1.00892
15.5317,353.672,-1.00897
15.5333,353.689,-1.00902
15.535,353.705,-1.00906
15.5367,353.722,-1.00909
15.5383,353.739,-1.00914
15.54,353.756,-1.00918
15.5417,353.772,-1.00921
15.5433,353.789,-1.00923
15.545,353.805,-1.00925
15.5467,353.822,-1.00926
15.5483,353.839,-1.00926
15.55,353.855,-1.00926
15.5517,353.872,-1.00927
15.5533,353.888,-1.00928
15.555,353.905,-1.00929
15.5567,353.922,-1.00933
15.5583,353.938,-1.00938
15.56,353.955,-1.00945
15.5617,353.972,-1.00953
15.5633,353.988,-1.00959
15.565,354.005,-1.00963
15.5667,354.022,-1.00967
15.5683,354.039,-1.00969
15.57,354.055,-1.00972
15.5717,354.072,-1.00974
15.5733,354.089,-1.00977
15.575,354.105,-1.0098
15.5767,354.122,-1.00983
15.5783,354.138,-1.00987
15.58,354.155,-1.00992
15.5817,354.171,-1.00996
15.5833,354.188,-1.01
15.585,354.205,-1.01003
15.5867,354.221,-1.01007
15.5883,354.238,-1.01009
15.59,354.255,-1.01011
15.5917,354.272,-1.01012
15.5933,354.288,-1.01014
15.595,354.305,-1.01015
15.5967,354.322,-1.01017
15.5983,354.338,-1.01019
15.6,354.355,-1.01021
15.6017,354.372,-1.01023
15.6033,354.388,-1.01025
15.605,354.405,-1.01028
15.6067,354.422,-1.0103
15.6083,354.438,-1.01031
15.61,354.455,-1.01034
15.6117,354.471,-1.01037
15.6133,354.488,-1.01041
15.615,354.505,-1.01045
15.6167,354.521,-1.01048
15.6183,354.538,-1.01052
15.62,354.555,-1.01057
15.6217,354.572,-1.01061
15.6233,354.588,-1.01065
15.625,354.605,-1.01068
15.6267,354.621,-1.0107
15.6283,354.638,-1.01073
15.63,354.655,-1.01076
15.6317,354.671,-1.01079
15.6333,354.688,-1.01081
15.635,354.704,-1.01083
15.6367,354.721,-1.01084
15.6383,354.738,-1.01086
15.64,354.755,-1.01088
15.6417,354.771,-1.01091
15.6433,354.788,-1.01095
15.645,354.804,-1.01098
15.6467,354.821,-1.01102
15.6483,354.838,-1.01107
15.65,354.854,-1.01112
15.6517,354.871,-1.01119
15.6533,354.888,-1.01124
15.655,354.904,-1.01129
15.6567,354.921,-1.01132
15.6583,354.937,-1.01135
15.66,354.954,-1.01138
15.6617,354.971,-1.0114
15.6633,354.987,-1.0114
15.665,355.004,-1.01141
15.6667,355.021,-1.01142
15.6683,355.037,-1.01144
15.67,355.054,-1.01146
15.6717,355.071,-1.0115
15.6733,355.087,-1.01154
15.675,355.104,-1.01158
15.6767,355.121,-1.01162
15.6783,355.137,-1.01166
15.68,355.154,-1.0117
15.6817,355.171,-1.01173
15.6833,355.187,-1.01177
15.685,355.204,-1.0118
15.6867,355.221,-1.01183
15.6883,355.237,-1.01186
15.69,355.254,-1.01188
15.6917,355.271,-1.01189
15.6933,355.287,-1.0119
15.695,355.304,-1.0119
15.6967,355.32,-1.01191
15.6983,355.337,-1.01194
15.7,355.354,-1.01197
15.7017,355.371,-1.01201
15.7033,355.387,-1.01205
15.705,355.404,-1.0121
15.7067,355.42,-1.01216
15.7083,355.437,-1.01222
15.71,355.453,-1.01227
15.7117,355.47,-1.01233
15.7133,355.487,-1.01237
15.715,355.504,-1.01241
15.7167,355.52,-1.01245
15.7183,355.537,-1.01249
15.72,355.554,-1.01252
15.7217,355.57,-1.01256
15.7233,355.587,-1.01258
15.725,355.603,-1.01261
15.7267,355.62,-1.01263
15.7283,355.637,-1.01264
15.73,355.653,-1.01267
15.7317,355.67,-1.01269
15.7333,355.687,-1.01271
15.735,355.703,-1.01273
15.7367,355.721,-1.01276
15.7383,355.737,-1.0128
15.74,355.754,-1.01283
15.7417,355.77,-1.01285
15.7433,355.787,-1.01288
15.745,355.803,-1.0129
15.7467,355.82,-1.01291
15.7483,355.836,-1.01292
15.75,355.853,-1.01293
15.7517,355.87,-1.01295
15.7533,355.887,-1.01297
15.755,355.903,-1.01299
15.7567,355.92,-1.01302
15.7583,355.936,-1.01305
15.76,355.953,-1.01308
15.7617,355.969,-1.01312
15.7633,355.987,-1.01316
15.765,356.003,-1.01321
15.7667,356.02,-1.01325
15.7683,356.037,-1.0133
15.77,356.053,-1.01334
15.7717,356.07,-1.01338
15.7733,356.087,-1.01342
15.775,356.103,-1.01345
15.7767,356.12,-1.01348
15.7783,356.137,-1.01351
15.78,356.153,-1.01354
15.7817,356.17,-1.01357
15.7833,356.187,-1.01361
15.785,356.203,-1.01365
15.7867,356.22,-1.01369
15.7883,356.237,-1.01373
15.79,356.254,-1.01378
15.7917,356.27,-1.01382
15.7933,356.286,-1.01386
15.795,356.303,-1.0139
15.7967,356.32,-1.01393
15.7983,356.336,-1.01396
15.8,356.353,-1.01399
15.8017,356.37,-1.01402
15.8033,356.386,-1.01404
15.805,356.403,-1.01408
15.8067,356.42,-1.01411
15.8083,356.436,-1.01413
15.81,356.453,-1.01416
15.8117,356.47,-1.01418
15.8133,356.486,-1.0142
15.815,356.503,-1.01422
15.8167,356.52,-1.01423
15.8183,356.536,-1.01425
15.82,356.553,-1.01425
15.8217,356.569,-1.01427
15.8233,356.586,-1.01429
15.825,356.603,-1.01431
15.8267,356.619,-1.01434
15.8283,356.636,-1.01437
15.83,356.653,-1.0144
15.8317,356.669,-1.01443
15.8333,356.686,-1.01446
15.835,356.703,-1.0145
15.8367,356.719,-1.01453
15.8383,356.736,-1.01456
15.84,356.753,-1.01458
15.8417,356.77,-1.0146
15.8433,356.786,-1.01464
15.845,356.803,-1.01467
15.8467,356.819,-1.0147
15.8483,356.836,-1.01474
15.85,356.853,-1.01477
15.8517,356.869,-1.0148
15.8533,356.886,-1.01483
15.855,356.903,-1.01485
15.8567,356.919,-1.01486
15.8583,356.935,-1.01486
15.86,356.952,-1.01487
15.8617,356.969,-1.01488
15.8633,356.985,-1.01489
15.865,357.002,-1.0149
15.8667,357.019,-1.0149
15.8683,357.035,-1.0149
15.87,357.052,-1.01491
15.8717,357.069,-1.01493
15.8733,357.086,-1.01495
15.875,357.102,-1.01498
15.8767,357.118,-1.01503
15.8783,357.135,-1.01508
15.88,357.152,-1.01515
15.8817,357.169,-1.0152
15.8833,357.185,-1.01525
15.885,357.202,-1.01531
15.8867,357.219,-1.01535
15.8883,357.236,-1.01539
15.89,357.252,-1.01543
15.8917,357.269,-1.01546
15.8933,357.286,-1.01549
15.895,357.302,-1.0155
15.8967,357.319,-1.01551
15.8983,357.335,-1.01552
15.9,357.352,-1.01553
15.9017,357.368,-1.01554
15.9033,357.385,-1.01555
15.905,357.402,-1.01556
15.9067,357.418,-1.01558
15.9083,357.435,-1.01559
15.91,357.452,-1.01562
15.9117,357.469,-1.01564
15.9133,357.485,-1.01566
15.915,357.502,-1.01569
15.9167,357.518,-1.01571
15.9183,357.535,-1.01574
15.92,357.552,-1.01576
15.9217,357.568,-1.01578
15.9233,357.585,-1.01579
15.925,357.602,-1.0158
15.9267,357.619,-1.01581
15.9283,357.635,-1.01582
15.93,357.652,-1.01584
15.9317,357.668,-1.01585
15.9333,357.685,-1.01586
15.935,357.702,-1.01587
15.9367,357.718,-1.0159
15.9383,357.735,-1.01593
15.94,357.751,-1.01596
15.9417,357.768,-1.01598
15.9433,357.785,-1.01601
15.945,357.801,-1.01604
15.9467,357.818,-1.01606
15.9483,357.835,-1.01608
15.95,357.852,-1.0161
15.9517,357.868,-1.01611
15.9533,357.884,-1.01611
15.955,357.902,-1.01611
15.9567,357.918,-1.01612
15.9583,357.935,-1.01614
15.96,357.952,-1.01616
15.9617,357.969,-1.01618
15.9633,357.985,-1.01621
15.965,358.002,-1.01624
15.9667,358.018,-1.01628
15.9683,358.035,-1.01633
15.97,358.051,-1.01638
15.9717,358.068,-1.01642
15.9733,358.085,-1.01646
15.975,358.101,-1.0165
15.9767,358.118,-1.01653
15.9783,358.135,-1.01655
15.98,358.151,-1.01657
15.9817,358.168,-1.01659
15.9833,358.185,-1.01661
15.985,358.201,-1.01662
15.9867,358.218,-1.01665
15.9883,358.235,-1.01667
15.99,358.251,-1.0167
15.9917,358.268,-1.01673
15.9933,358.284,-1.01677
15.995,358.301,-1.0168
15.9967,358.318,-1.01684
15.9983,358.334,-1.01688
16,358.351,-1.01692
16.0017,358.368,-1.01696
16.0033,358.384,-1.01699
16.005,358.401,-1.01701
16.0067,358.417,-1.01703
16.0083,358.434,-1.01705
16.01,358.451,-1.01706
16.0117,358.467,-1.01708
16.0133,358.484,-1.01709
16.015,358.501,-1.01712
16.0167,358.517,-1.01715
16.0183,358.534,-1.01719
16.02,358.551,-1.01723
16.0217,358.567,-1.01728
16.0233,358.584,-1.01733
16.025,358.601,-1.01738
16.0267,358.617,-1.01743
16.0283,358.634,-1.01748
16.03,358.651,-1.01753
16.0317,358.667,-1.01757
16.0333,358.684,-1.0176
16.035,358.7,-1.01762
16.0367,358.717,-1.01764
16.0383,358.734,-1.01765
16.04,358.751,-1.01767
16.0417,358.767,-1.0177
16.0433,358.784,-1.01772
16.045,358.801,-1.01775
16.0467,358.818,-1.01778
16.0483,358.834,-1.01781
16.05,358.851,-1.01784
16.0517,358.868,-1.01788
16.0533,358.884,-1.0179
16.055,358.901,-1.01792
16.0567,358.917,-1.01794
16.0583,358.934,-1.01795
16.06,358.951,-1.01796
16.0617,358.967,-1.01796
16.0633,358.984,-1.01797
16.065,359.001,-1.01798
16.0667,359.017,-1.01799
16.0683,359.034,-1.01802
16.07,359.05,-1.01804
16.0717,359.067,-1.01807
16.0733,359.083,-1.0181
16.075,359.1,-1.01813
16.0767,359.117,-1.01816
16.0783,359.134,-1.01819
16.08,359.151,-1.01822
16.0817,359.167,-1.01826
16.0833,359.184,-1.0183
16.085,359.201,-1.01834
16.0867,359.217,-1.01838
16.0883,359.234,-1.01842
16.09,359.251,-1.01845
16.0917,359.267,-1.01847
16.0933,359.283,-1.01849
16.095,359.3,-1.01852
16.0967,359.317,-1.01854
16.0983,359.333,-1.01856
16.1,359.35,-1.01859
16.1017,359.367,-1.01862
16.1033,359.384,-1.01865
16.105,359.4,-1.01869
16.1067,359.417,-1.01873
16.1083,359.434,-1.01877
16.11,359.45,-1.01881
16.1117,359.467,-1.01883
16.1133,359.484,-1.01886
16.115,359.5,-1.01888
16.1167,359.517,-1.0189
16.1183,359.533,-1.01892
16.12,359.55,-1.01893
16.1217,359.566,-1.01894
16.1233,359.583,-1.01895
16.125,359.6,-1.01897
16.1267,359.617,-1.01898
16.1283,359.634,-1.019
16.13,359.65,-1.01902
16.1317,359.667,-1.01904
16.1333,359.684,-1.01906
16.135,359.7,-1.01909
16.1367,359.717,-1.01914
16.1383,359.733,-1.0192
16.14,359.75,-1.01925
16.1417,359.767,-1.0193
16.1433,359.783,-1.01936
16.145,359.8,-1.01941
16.1467,359.816,-1.01945
16.1483,359.833,-1.01948
16.15,359.85,-1.01949
16.1517,359.866,-1.01951
16.1533,359.883,-1.01952
16.155,359.9,-1.01953
16.1567,359.916,-1.01955
16.1583,359.933,-1.01957
16.16,359.95,-1.01959
16.1617,359.966,-1.01962
16.1633,359.983,-1.01965
16.165,359.999,-1.01968
16.1667,360.016,-1.01972
16.1683,360.033,-1.01976
16.17,360.05,-1.0198
16.1717,360.066,-1.01984
16.1733,360.083,-1.01988
16.175,360.099,-1.01993
16.1767,360.116,-1.01995
16.1783,360.133,-1.01997
16.18,360.149,-1.02
16.1817,360.166,-1.02002
16.1833,360.183,-1.02004
16.185,360.199,-1.02004
16.1867,360.216,-1.02005
16.1883,360.233,-1.02006
16.19,360.25,-1.02008
16.1917,360.266,-1.02008
16.1933,360.283,-1.02009
16.195,360.299,-1.02009
16.1967,360.316,-1.02009
16.1983,360.333,-1.0201
16.2,360.349,-1.02011
16.2017,360.365,-1.02012
16.2033,360.382,-1.02014
16.205,360.399,-1.02014
16.2067,360.415,-1.02013
16.2083,360.432,-1.02014
16.21,360.449,-1.02015
16.2117,360.465,-1.02017
16.2133,360.482,-1.02021
16.215,360.499,-1.02023
16.2167,360.515,-1.02027
16.2183,360.532,-1.02031
16.22,360.549,-1.02035
16.2217,360.566,-1.0204
16.2233,360.582,-1.02043
16.225,360.599,-1.02046
16.2267,360.615,-1.02048
16.2283,360.632,-1.0205
16.23,360.648,-1.02052
16.2317,360.665,-1.02052
16.2333,360.682,-1.02053
16.235,360.698,-1.02054
16.2367,360.715,-1.02054
16.2383,360.732,-1.02055
16.24,360.748,-1.02056
16.2417,360.765,-1.02057
16.2433,360.782,-1.0206
16.245,360.798,-1.02064
16.2467,360.815,-1.02067
16.2483,360.832,-1.02071
16.25,360.848,-1.02075
16.2517,360.865,-1.02079
16.2533,360.882,-1.02082
16.255,360.898,-1.02086
16.2567,360.915,-1.0209
16.2583,360.932,-1.02094
16.26,360.948,-1.02098
16.2617,360.965,-1.02101
16.2633,360.982,-1.02104
16.265,360.998,-1.02107
16.2667,361.015,-1.0211
16.2683,361.031,-1.02113
16.27,361.048,-1.02116
16.2717,361.064,-1.0212
16.2733,361.081,-1.02123
16.275,361.098,-1.02126
16.2767,361.114,-1.02128
16.2783,361.131,-1.0213
16.28,361.148,-1.02131
16.2817,361.164,-1.02131
16.2833,361.181,-1.02131
16.285,361.198,-1.02131
16.2867,361.214,-1.02132
16.2883,361.231,-1.02133
16.29,361.248,-1.02134
16.2917,361.264,-1.02136
16.2933,361.281,-1.02139
16.295,361.298,-1.02142
16.2967,361.314,-1.02145
16.2983,361.331,-1.02148
16.3,361.347,-1.02151
16.3017,361.364,-1.02155
16.3033,361.381,-1.02159
16.305,361.398,-1.02163
16.3067,361.414,-1.02167
16.3083,361.431,-1.02171
16.31,361.447,-1.02175
16.3117,361.464,-1.02179
16.3133,361.48,-1.02183
16.315,361.497,-1.02185
16.3167,361.514,-1.02186
16.3183,361.531,-1.02187
16.32,361.547,-1.02187
16.3217,361.564,-1.02188
16.3233,361.58,-1.02188
16.325,361.597,-1.02187
16.3267,361.614,-1.02187
16.3283,361.63,-1.02188
16.33,361.647,-1.02189
16.3317,361.664,-1.02191
16.3333,361.68,-1.02193
16.335,361.697,-1.02194
16.3367,361.714,-1.02195
16.3383,361.73,-1.02197
16.34,361.747,-1.02198
16.3417,361.764,-1.02199
16.3433,361.78,-1.022
16.345,361.797,-1.02201
16.3467,361.814,-1.02201
16.3483,361.83,-1.02202
16.35,361.847,-1.02204
16.3517,361.863,-1.02206
16.3533,361.88,-1.02208
16.355,361.897,-1.0221
16.3567,361.914,-1.02213
16.3583,361.93,-1.02217
16.36,361.947,-1.0222
16.3617,361.963,-1.02223
16.3633,361.98,-1.02226
16.365,361.996,-1.02229
16.3667,362.013,-1.02233
16.3683,362.03,-1.02236
16.37,362.047,-1.02239
16.3717,362.063,-1.02242
16.3733,362.08,-1.02245
16.375,362.097,-1.02247
16.3767,362.114,-1.0225
16.3783,362.13,-1.02252
16.38,362.147,-1.02254
16.3817,362.163,-1.02256
16.3833,362.18,-1.02258
16.385,362.196,-1.0226
16.3867,362.213,-1.02261
16.3883,362.23,-1.02263
16.39,362.247,-1.02265
16.3917,362.263,-1.02268
16.3933,362.28,-1.02271
16.395,362.296,-1.02274
16.3967,362.313,-1.02277
16.3983,362.33,-1.0228
16.4,362.346,-1.02283
16.4017,362.363,-1.02284
16.4033,362.38,-1.02285
16.405,362.396,-1.02285
16.4067,362.413,-1.02284
16.4083,362.43,-1.02284
16.41,362.446,-1.02284
16.4117,362.463,-1.02284
16.4133,362.479,-1.02285
16.415,362.496,-1.02288
16.4167,362.513,-1.0229
16.4183,362.53,-1.02294
16.42,362.546,-1.02298
16.4217,362.563,-1.02302
16.4233,362.579,-1.02306
16.425,362.596,-1.02312
16.4267,362.613,-1.02316
16.4283,362.629,-1.02321
16.43,362.646,-1.02325
16.4317,362.663,-1.02328
16.4333,362.679,-1.02331
16.435,362.696,-1.02332
16.4367,362.713,-1.02334
16.4383,362.729,-1.02335
16.44,362.746,-1.02335
16.4417,362.762,-1.02335
16.4433,362.779,-1.02335
16.445,362.795,-1.02336
16.4467,362.812,-1.02336
16.4483,362.829,-1.02336
16.45,362.845,-1.02336
16.4517,362.862,-1.02337
16.4533,362.879,-1.02339
16.455,362.895,-1.02341
16.4567,362.912,-1.02343
16.4583,362.929,-1.02345
16.46,362.946,-1.02348
16.4617,362.963,-1.0235
16.4633,362.979,-1.02351
16.465,362.995,-1.02353
16.4667,363.012,-1.02354
16.4683,363.029,-1.02356
16.47,363.045,-1.02357
16.4717,363.062,-1.02359
16.4733,363.078,-1.02362
16.475,363.095,-1.02365
16.4767,363.112,-1.02367
16.4783,363.128,-1.02369
16.48,363.145,-1.02371
16.4817,363.162,-1.02373
16.4833,363.178,-1.02375
16.485,363.195,-1.02376
16.4867,363.212,-1.02378
16.4883,363.228,-1.0238
16.49,363.245,-1.02382
16.4917,363.262,-1.02385
16.4933,363.279,-1.02387
16.495,363.295,-1.0239
16.4967,363.312,-1.02391
16.4983,363.328,-1.02392
16.5,363.345,-1.02392
16.5017,363.361,-1.02392
16.5033,363.378,-1.02392
16.505,363.395,-1.02393
16.5067,363.412,-1.02394
16.5083,363.428,-1.02395
16.51,363.445,-1.02396
16.5117,363.462,-1.02399
16.5133,363.479,-1.02402
16.515,363.495,-1.02404
16.5167,363.512,-1.02406
16.5183,363.528,-1.02409
16.52,363.545,-1.0241
16.5217,363.562,-1.02412
16.5233,363.578,-1.02414
16.525,363.595,-1.02416
16.5267,363.612,-1.02418
16.5283,363.628,-1.0242
16.53,363.645,-1.02422
16.5317,363.661,-1.02424
16.5333,363.678,-1.02428
16.535,363.695,-1.02433
16.5367,363.712,-1.02437
16.5383,363.728,-1.02442
16.54,363.745,-1.02447
16.5417,363.762,-1.02452
16.5433,363.778,-1.02456
16.545,363.795,-1.0246
16.5467,363.812,-1.02464
16.5483,363.828,-1.02467
16.55,363.845,-1.0247
16.5517,363.862,-1.02471
16.5533,363.879,-1.02474
16.555,363.895,-1.02476
16.5567,363.912,-1.02479
16.5583,363.928,-1.02482
16.56,363.945,-1.02484
16.5617,363.962,-1.02487
16.5633,363.978,-1.02489
16.565,363.995,-1.0249
16.5667,364.011,-1.02491
16.5683,364.028,-1.02492
16.57,364.045,-1.02492
16.5717,364.061,-1.02492
16.5733,364.078,-1.02493
16.575,364.095,-1.02494
16.5767,364.112,-1.02495
16.5783,364.128,-1.02497
16.58,364.145,-1.02499
16.5817,364.161,-1.02501
16.5833,364.178,-1.02504
16.585,364.195,-1.02507
16.5867,364.211,-1.02511
16.5883,364.228,-1.02514
16.59,364.245,-1.02517
16.5917,364.261,-1.0252
16.5933,364.278,-1.02522
16.595,364.294,-1.02525
16.5967,364.311,-1.02527
16.5983,364.328,-1.0253
16.6,364.345,-1.02533
16.6017,364.361,-1.02536
16.6033,364.378,-1.02539
16.605,364.394,-1.02542
16.6067,364.411,-1.02545
16.6083,364.428,-1.02548
16.61,364.444,-1.0255
16.6117,364.461,-1.02551
16.6133,364.478,-1.02551
16.615,364.494,-1.02552
16.6167,364.511,-1.02552
16.6183,364.528,-1.02552
16.62,364.544,-1.02552
16.6217,364.561,-1.02552
16.6233,364.578,-1.02551
16.625,364.594,-1.02551
16.6267,364.611,-1.02551
16.6283,364.627,-1.0255
16.63,364.644,-1.0255
16.6317,364.66,-1.0255
16.6333,364.677,-1.02551
16.635,364.694,-1.02552
16.6367,364.71,-1.02554
16.6383,364.727,-1.02555
16.64,364.744,-1.02556
16.6417,364.76,-1.02558
16.6433,364.777,-1.02561
16.645,364.793,-1.02564
16.6467,364.81,-1.02569
16.6483,364.827,-1.02573
16.65,364.844,-1.02577
16.6517,364.86,-1.02581
16.6533,364.877,-1.02586
16.655,364.894,-1.0259
16.6567,364.91,-1.02594
16.6583,364.927,-1.02596
16.66,364.943,-1.02597
16.6617,364.96,-1.026
16.6633,364.977,-1.02602
16.665,364.993,-1.02603
16.6667,365.01,-1.02604
16.6683,365.027,-1.02605
16.67,365.043,-1.02606
16.6717,365.06,-1.02607
16.6733,365.077,-1.02608
16.675,365.094,-1.0261
16.6767,365.11,-1.02611
16.6783,365.127,-1.02612
16.68,365.143,-1.02615
16.6817,365.16,-1.02617
16.6833,365.177,-1.0262
16.685,365.193,-1.02622
16.6867,365.21,-1.02625
16.6883,365.227,-1.02627
16.69,365.243,-1.02628
16.6917,365.26,-1.0263
16.6933,365.277,-1.02631
16.695,365.293,-1.02632
16.6967,365.31,-1.02633
16.6983,365.327,-1.02634
16.7,365.343,-1.02636
16.7017,365.36,-1.02638
16.7033,365.377,-1.0264
16.705,365.393,-1.02644
16.7067,365.41,-1.02649
16.7083,365.426,-1.02653
16.71,365.443,-1.02657
16.7117,365.46,-1.0266
16.7133,365.476,-1.02661
16.715,365.493,-1.02662
16.7167,365.509,-1.02661
16.7183,365.526,-1.02661
16.72,365.543,-1.02659
16.7217,365.56,-1.02658
16.7233,365.576,-1.02658
16.725,365.593,-1.02659
16.7267,365.61,-1.02661
16.7283,365.626,-1.02664
16.73,365.643,-1.02668
16.7317,365.66,-1.02672
16.7333,365.676,-1.02675
16.735,365.693,-1.02679
16.7367,365.71,-1.02682
16.7383,365.726,-1.02683
16.74,365.743,-1.02685
16.7417,365.759,-1.02686
16.7433,365.776,-1.02686
16.745,365.793,-1.02687
16.7467,365.809,-1.02687
16.7483,365.826,-1.02688
16.75,365.843,-1.02691
16.7517,365.859,-1.02694
16.7533,365.876,-1.02696
16.755,365.893,-1.02699
16.7567,365.91,-1.02701
16.7583,365.926,-1.02704
16.76,365.943,-1.02707
16.7617,365.96,-1.02709
16.7633,365.976,-1.02711
16.765,365.993,-1.02711
16.7667,366.009,-1.02712
16.7683,366.026,-1.02713
16.77,366.042,-1.02715
16.7717,366.059,-1.02717
16.7733,366.075,-1.02719
16.775,366.092,-1.0272
16.7767,366.109,-1.02721
16.7783,366.125,-1.02722
16.78,366.142,-1.02723
16.7817,366.158,-1.02724
16.7833,366.175,-1.02725
16.785,366.191,-1.02726
16.7867,366.208,-1.02728
16.7883,366.225,-1.0273
16.79,366.241,-1.02732
16.7917,366.258,-1.02734
16.7933,366.275,-1.02737
16.795,366.292,-1.02741
16.7967,366.308,-1.02746
16.7983,366.324,-1.0275
16.8,366.341,-1.02753
16.8017,366.358,-1.02757
16.8033,366.374,-1.02761
16.805,366.391,-1.02764
16.8067,366.408,-1.02766
16.8083,366.425,-1.02768
16.81,366.441,-1.02769
16.8117,366.458,-1.02771
16.8133,366.475,-1.02773
16.815,366.492,-1.02777
16.8167,366.508,-1.0278
16.8183,366.525,-1.02782
16.82,366.542,-1.02786
16.8217,366.558,-1.02789
16.8233,366.575,-1.02793
16.825,366.591,-1.02796
16.8267,366.608,-1.028
16.8283,366.625,-1.02804
16.83,366.641,-1.02807
16.8317,366.658,-1.0281
16.8333,366.674,-1.02813
16.835,366.691,-1.02816
16.8367,366.708,-1.02817
16.8383,366.725,-1.02818
16.84,366.742,-1.02817
16.8417,366.758,-1.02816
16.8433,366.775,-1.02816
16.845,366.792,-1.02815
16.8467,366.809,-1.02814
16.8483,366.825,-1.02814
16.85,366.841,-1.02814
16.8517,366.858,-1.02814
16.8533,366.875,-1.02816
16.855,366.892,-1.02817
16.8567,366.908,-1.02819
16.8583,366.925,-1.02821
16.86,366.941,-1.02823
16.8617,366.958,-1.02826
16.8633,366.975,-1.02828
16.865,366.991,-1.02832
16.8667,367.008,-1.02835
16.8683,367.024,-1.02838
16.87,367.041,-1.02843
16.8717,367.058,-1.02846
16.8733,367.074,-1.02851
16.875,367.091,-1.02855
16.8767,367.108,-1.02859
16.8783,367.125,-1.02863
16.88,367.141,-1.02866
16.8817,367.158,-1.0287
16.8833,367.175,-1.02873
16.885,367.191,-1.02876
16.8867,367.208,-1.02879
16.8883,367.224,-1.02882
16.89,367.241,-1.02885
16.8917,367.258,-1.02889
16.8933,367.274,-1.02893
16.895,367.291,-1.02896
16.8967,367.308,-1.02897
16.8983,367.324,-1.02897
16.9,367.341,-1.02897
16.9017,367.358,-1.02897
16.9033,367.374,-1.02896
16.905,367.391,-1.02895
16.9067,367.407,-1.02895
16.9083,367.424,-1.02896
16.91,367.441,-1.02898
16.9117,367.457,-1.02901
16.9133,367.474,-1.02903
16.915,367.491,-1.02904
16.9167,367.508,-1.02907
16.9183,367.524,-1.02909
16.92,367.541,-1.02911
16.9217,367.558,-1.02912
16.9233,367.574,-1.02913
16.925,367.591,-1.02914
16.9267,367.607,-1.02916
16.9283,367.624,-1.02917
16.93,367.64,-1.02919
16.9317,367.657,-1.02921
16.9333,367.674,-1.02923
16.935,367.69,-1.02925
16.9367,367.707,-1.02928
16.9383,367.724,-1.02931
16.94,367.74,-1.02935
16.9417,367.757,-1.02939
16.9433,367.774,-1.02943
16.945,367.79,-1.02947
16.9467,367.807,-1.0295
16.9483,367.824,-1.02953
16.95,367.84,-1.02955
16.9517,367.857,-1.02956
16.9533,367.874,-1.02957
16.955,367.89,-1.02959
16.9567,367.907,-1.02961
16.9583,367.923,-1.02962
16.96,367.939,-1.02963
16.9617,367.956,-1.02965
16.9633,367.973,-1.02967
16.965,367.99,-1.02968
16.9667,368.006,-1.02969
16.9683,368.023,-1.0297
16.97,368.04,-1.02971
16.9717,368.056,-1.02971
16.9733,368.073,-1.02971
16.975,368.09,-1.02972
16.9767,368.106,-1.02973
16.9783,368.123,-1.02974
16.98,368.14,-1.02975
16.9817,368.157,-1.02977
16.9833,368.173,-1.02979
16.985,368.19,-1.02981
16.9867,368.206,-1.02982
16.9883,368.223,-1.02984
16.99,368.24,-1.02986
16.9917,368.256,-1.02988
16.9933,368.273,-1.0299
16.995,368.29,-1.02992
16.9967,368.306,-1.02995
16.9983,368.323,-1.02999
17,368.339,-1.03003
17.0017,368.356,-1.03007
17.0033,368.373,-1.03012
17.005,368.39,-1.03016
17.0067,368.406,-1.03019
17.0083,368.423,-1.03022
17.01,368.439,-1.03025
17.0117,368.456,-1.03027
17.0133,368.473,-1.0303
17.015,368.49,-1.03032
17.0167,368.506,-1.03034
17.0183,368.522,-1.03037
17.02,368.539,-1.0304
17.0217,368.556,-1.03042
17.0233,368.572,-1.03045
17.025,368.589,-1.03048
17.0267,368.606,-1.0305
17.0283,368.623,-1.03052
17.03,368.639,-1.03054
17.0317,368.656,-1.03056
17.0333,368.672,-1.03058
17.035,368.689,-1.0306
17.0367,368.706,-1.03064
17.0383,368.723,-1.03067
17.04,368.739,-1.03071
17.0417,368.756,-1.03075
17.0433,368.773,-1.03079
17.045,368.789,-1.03083
17.0467,368.806,-1.03086
17.0483,368.822,-1.03088
17.05,368.839,-1.0309
17.0517,368.856,-1.03091
17.0533,368.873,-1.03093
17.055,368.889,-1.03094
17.0567,368.906,-1.03094
17.0583,368.923,-1.03094
17.06,368.939,-1.03095
17.0617,368.956,-1.03096
17.0633,368.972,-1.03097
17.065,368.989,-1.03099
17.0667,369.006,-1.03103
17.0683,369.022,-1.03107
17.07,369.039,-1.03112
17.0717,369.056,-1.03117
17.0733,369.072,-1.03121
17.075,369.089,-1.03125
17.0767,369.106,-1.03129
17.0783,369.122,-1.03132
17.08,369.139,-1.03135
17.0817,369.156,-1.03138
17.0833,369.172,-1.03141
17.085,369.189,-1.03143
17.0867,369.206,-1.03144
17.0883,369.222,-1.03145
17.09,369.239,-1.03146
17.0917,369.255,-1.03145
17.0933,369.272,-1.03145
17.095,369.288,-1.03145
17.0967,369.305,-1.03145
17.0983,369.322,-1.03146
17.1,369.339,-1.03147
17.1017,369.355,-1.03149
17.1033,369.372,-1.03151
17.105,369.389,-1.03153
17.1067,369.405,-1.03155
17.1083,369.422,-1.03157
17.11,369.438,-1.03158
17.1117,369.455,-1.03159
17.1133,369.472,-1.0316
17.115,369.488,-1.0316
17.1167,369.505,-1.03161
17.1183,369.521,-1.03162
17.12,369.538,-1.03164
17.1217,369.555,-1.03166
17.1233,369.571,-1.03169
17.125,369.588,-1.03174
17.1267,369.604,-1.03178
17.1283,369.621,-1.03183
17.13,369.638,-1.03187
17.1317,369.654,-1.0319
17.1333,369.671,-1.03193
17.135,369.688,-1.03195
17.1367,369.705,-1.03196
17.1383,369.721,-1.03197
17.14,369.738,-1.03196
17.1417,369.755,-1.03193
17.1433,369.771,-1.03191
17.145,369.788,-1.03189
17.1467,369.805,-1.03188
17.1483,369.821,-1.03187
17.15,369.838,-1.03187
17.1517,369.855,-1.03189
17.1533,369.871,-1.03191
17.155,369.888,-1.03194
17.1567,369.905,-1.03197
17.1583,369.921,-1.032
17.16,369.938,-1.03203
17.1617,369.955,-1.03205
17.1633,369.971,-1.03207
17.165,369.987,-1.03209
17.1667,370.004,-1.03212
17.1683,370.021,-1.03215
17.17,370.038,-1.03218
17.1717,370.054,-1.03221
17.1733,370.071,-1.03223
17.175,370.088,-1.03227
17.1767,370.104,-1.0323
17.1783,370.121,-1.03233
17.18,370.137,-1.03234
17.1817,370.154,-1.03236
17.1833,370.171,-1.03236
17.185,370.188,-1.03236
17.1867,370.204,-1.03235
17.1883,370.221,-1.03233
17.19,370.237,-1.03232
17.1917,370.254,-1.03231
17.1933,370.271,-1.03232
17.195,370.287,-1.03234
17.1967,370.304,-1.03237
17.1983,370.321,-1.03244
17.2,370.337,-1.03249
17.2017,370.354,-1.03254
17.2033,370.371,-1.03259
17.205,370.388,-1.03264
17.2067,370.404,-1.03266
17.2083,370.421,-1.03267
17.21,370.437,-1.03269
17.2117,370.454,-1.0327
17.2133,370.471,-1.03272
17.215,370.488,-1.03275
17.2167,370.504,-1.03278
17.2183,370.521,-1.0328
17.22,370.537,-1.03282
17.2217,370.554,-1.03284
17.2233,370.57,-1.03287
17.225,370.587,-1.03289
17.2267,370.604,-1.03291
17.2283,370.62,-1.03293
17.23,370.637,-1.03294
17.2317,370.653,-1.03295
17.2333,370.67,-1.03298
17.235,370.687,-1.03299
17.2367,370.704,-1.033
17.2383,370.72,-1.03301
17.24,370.737,-1.03302
17.2417,370.754,-1.03302
17.2433,370.77,-1.03301
17.245,370.786,-1.033
17.2467,370.804,-1.03299
17.2483,370.82,-1.03298
17.25,370.837,-1.03298
17.2517,370.853,-1.03298
17.2533,370.87,-1.03299
17.255,370.886,-1.03301
17.2567,370.903,-1.03303
17.2583,370.92,-1.03305
17.26,370.937,-1.03308
17.2617,370.953,-1.03311
17.2633,370.97,-1.03314
17.265,370.986,-1.03318
17.2667,371.003,-1.03322
17.2683,371.02,-1.03325
17.27,371.037,-1.03326
17.2717,371.053,-1.03328
17.2733,371.07,-1.03329
17.275,371.087,-1.0333
17.2767,371.103,-1.03331
17.2783,371.12,-1.03331
17.28,371.137,-1.0333
17.2817,371.154,-1.0333
17.2833,371.17,-1.03329
17.285,371.187,-1.03327
17.2867,371.203,-1.03326
17.2883,371.22,-1.03324
17.29,371.236,-1.03323
17.2917,371.253,-1.03322
17.2933,371.27,-1.03321
17.295,371.286,-1.03322
17.2967,371.303,-1.03325
17.2983,371.32,-1.03328
17.3,371.336,-1.03331
17.3017,371.353,-1.03335
17.3033,371.37,-1.03339
17.305,371.386,-1.03342
17.3067,371.403,-1.03344
17.3083,371.42,-1.03347
17.31,371.436,-1.03349
17.3117,371.453,-1.03351
17.3133,371.47,-1.03353
17.315,371.486,-1.03354
17.3167,371.503,-1.03356
17.3183,371.52,-1.03358
17.32,371.536,-1.0336
17.3217,371.553,-1.03363
17.3233,371.569,-1.03365
17.325,371.586,-1.03367
17.3267,371.603,-1.03371
17.3283,371.619,-1.03374
17.33,371.636,-1.03377
17.3317,371.653,-1.03379
17.3333,371.669,-1.03381
17.335,371.686,-1.03383
17.3367,371.702,-1.03384
17.3383,371.719,-1.03385
17.34,371.736,-1.03385
17.3417,371.752,-1.03386
17.3433,371.769,-1.03386
17.345,371.786,-1.03386
17.3467,371.803,-1.03385
17.3483,371.819,-1.03384
17.35,371.836,-1.03384
17.3517,371.852,-1.03385
17.3533,371.869,-1.03386
17.355,371.886,-1.03388
17.3567,371.902,-1.03391
17.3583,371.919,-1.03395
17.36,371.936,-1.03397
17.3617,371.953,-1.034
17.3633,371.969,-1.03403
17.365,371.986,-1.03405
17.3667,372.002,-1.03406
17.3683,372.019,-1.03407
17.37,372.035,-1.03407
17.3717,372.052,-1.03407
17.3733,372.069,-1.03406
17.375,372.086,-1.03406
17.3767,372.102,-1.03408
17.3783,372.119,-1.03409
17.38,372.135,-1.03412
17.3817,372.152,-1.03415
17.3833,372.169,-1.03419
17.385,372.185,-1.03422
17.3867,372.202,-1.03426
17.3883,372.218,-1.03429
17.39,372.235,-1.03433
17.3917,372.252,-1.03435
17.3933,372.268,-1.03436
17.395,372.285,-1.03437
17.3967,372.302,-1.03437
17.3983,372.318,-1.03438
17.4,372.335,-1.03438
17.4017,372.352,-1.03438
17.4033,372.368,-1.03438
17.405,372.385,-1.03438
17.4067,372.402,-1.03439
17.4083,372.418,-1.0344
17.41,372.435,-1.0344
17.4117,372.451,-1.0344
17.4133,372.468,-1.03439
17.415,372.485,-1.03439
17.4167,372.501,-1.03439
17.4183,372.518,-1.0344
17.42,372.534,-1.03441
17.4217,372.551,-1.03442
17.4233,372.568,-1.03444
17.425,372.584,-1.03446
17.4267,372.601,-1.03449
17.4283,372.618,-1.03452
17.43,372.634,-1.03455
17.4317,372.651,-1.03458
17.4333,372.668,-1.03459
17.435,372.685,-1.0346
17.4367,372.701,-1.03461
17.4383,372.718,-1.03461
17.44,372.735,-1.0346
17.4417,372.751,-1.0346
17.4433,372.768,-1.03461
17.445,372.785,-1.03461
17.4467,372.802,-1.03462
17.4483,372.818,-1.03464
17.45,372.834,-1.03466
17.4517,372.851,-1.03468
17.4533,372.868,-1.03471
17.455,372.884,-1.03474
17.4567,372.901,-1.03477
17.4583,372.917,-1.0348
17.46,372.934,-1.03482
17.4617,372.951,-1.03485
17.4633,372.968,-1.03488
17.465,372.985,-1.03491
17.4667,373.001,-1.03492
17.4683,373.018,-1.03494
17.47,373.034,-1.03496
17.4717,373.052,-1.03497
17.4733,373.068,-1.03498
17.475,373.085,-1.035
17.4767,373.101,-1.03501
17.4783,373.118,-1.03504
17.48,373.135,-1.03506
17.4817,373.151,-1.03508
17.4833,373.168,-1.0351
17.485,373.184,-1.03512
17.4867,373.201,-1.03513
17.4883,373.217,-1.03514
17.49,373.234,-1.03515
17.4917,373.251,-1.03515
17.4933,373.267,-1.03516
17.495,373.284,-1.03517
17.4967,373.301,-1.03518
17.4983,373.318,-1.0352
17.5,373.334,-1.03522
17.5017,373.351,-1.03523
17.5033,373.367,-1.03524
17.505,373.384,-1.03525
17.5067,373.4,-1.03526
