Ramp 10.00 °C/min to 375.00 °C,,
Time,Temperature,Heat Flow (Normalized)
min,°C,W/g
5.00333,249.864,-0.198023
5.005,249.864,-0.198021
5.00667,249.864,-0.19802
5.00833,249.864,-0.198013
5.01,249.864,-0.198005
5.01167,249.864,-0.197999
5.01333,249.864,-0.198
5.015,249.865,-0.197997
5.01667,249.865,-0.197992
5.01833,249.865,-0.197989
5.02,249.865,-0.197995
5.02167,249.865,-0.198006
5.02333,249.865,-0.198022
5.025,249.865,-0.198046
5.02667,249.866,-0.198067
5.02833,249.867,-0.198095
5.03,249.867,-0.19813
5.03167,249.868,-0.198193
5.03333,249.868,-0.198271
5.035,249.869,-0.198333
5.03667,249.871,-0.198372
5.03833,249.871,-0.198409
5.04,249.873,-0.19845
5.04167,249.874,-0.19849
5.04333,249.875,-0.198526
5.045,249.876,-0.198554
5.04667,249.878,-0.198569
5.04833,249.879,-0.198581
5.05,249.881,-0.198592
5.05167,249.883,-0.198586
5.05333,249.885,-0.198533
5.055,249.887,-0.19839
5.05667,249.888,-0.19801
5.05833,249.891,-0.197206
5.06,249.894,-0.196108
5.06167,249.897,-0.194536
5.06333,249.899,-0.191821
5.065,249.902,-0.188185
5.06667,249.905,-0.184135
5.06833,249.909,-0.179508
5.07,249.912,-0.174967
5.07167,249.916,-0.170897
5.07333,249.92,-0.167103
5.075,249.924,-0.163737
5.07667,249.928,-0.161361
5.07833,249.932,-0.159171
5.08,249.937,-0.156908
5.08167,249.942,-0.155289
5.08333,249.947,-0.153705
5.085,249.952,-0.152511
5.08667,249.957,-0.151101
5.08833,249.963,-0.149914
5.09,249.969,-0.149092
5.09167,249.975,-0.14855
5.09333,249.981,-0.147991
5.095,249.987,-0.147749
5.09667,249.994,-0.147804
5.09833,250.001,-0.148089
5.1,250.008,-0.148447
5.10167,250.014,-0.149674
5.10333,250.022,-0.150364
5.105,250.029,-0.15062
5.10667,250.037,-0.150943
5.10833,250.045,-0.151494
5.11,250.053,-0.152521
5.11167,250.062,-0.154895
5.11333,250.07,-0.159018
5.115,250.079,-0.165081
5.11667,250.088,-0.174192
5.11833,250.096,-0.185491
5.12,250.105,-0.198108
5.12167,250.114,-0.21279
5.12333,250.124,-0.224091
5.125,250.133,-0.233527
5.12667,250.143,-0.240529
5.12833,250.153,-0.248155
5.13,250.163,-0.255799
5.13167,250.174,-0.264812
5.13333,250.184,-0.273181
5.135,250.195,-0.281801
5.13667,250.205,-0.288988
5.13833,250.216,-0.297001
5.14,250.226,-0.306159
5.14167,250.237,-0.314649
5.14333,250.248,-0.32235
5.145,250.259,-0.328431
5.14667,250.271,-0.336608
5.14833,250.282,-0.344186
5.15,250.294,-0.352302
5.15167,250.306,-0.361554
5.15333,250.317,-0.369275
5.155,250.329,-0.376046
5.15667,250.341,-0.38367
5.15833,250.353,-0.390767
5.16,250.365,-0.399345
5.16167,250.378,-0.407321
5.16333,250.39,-0.414979
5.165,250.402,-0.422004
5.16667,250.415,-0.430618
5.16833,250.428,-0.437146
5.17,250.44,-0.444404
5.17167,250.453,-0.450609
5.17333,250.466,-0.455798
5.175,250.479,-0.462624
5.17667,250.492,-0.468159
5.17833,250.505,-0.47346
5.18,250.518,-0.480502
5.18167,250.531,-0.486186
5.18333,250.545,-0.491372
5.185,250.558,-0.497015
5.18667,250.571,-0.502509
5.18833,250.585,-0.508341
5.19,250.599,-0.513433
5.19167,250.612,-0.519542
5.19333,250.625,-0.525224
5.195,250.639,-0.530837
5.19667,250.653,-0.535862
5.19833,250.667,-0.541164
5.2,250.681,-0.546703
5.20167,250.694,-0.551021
5.20333,250.708,-0.555443
5.205,250.722,-0.559122
5.20667,250.736,-0.56363
5.20833,250.75,-0.567168
5.21,250.765,-0.569225
5.21167,250.779,-0.57268
5.21333,250.793,-0.577511
5.215,250.807,-0.581888
5.21667,250.822,-0.585654
5.21833,250.836,-0.589351
5.22,250.851,-0.594668
5.22167,250.865,-0.599387
5.22333,250.88,-0.602436
5.225,250.894,-0.606984
5.22667,250.909,-0.610449
5.22833,250.924,-0.614024
5.23,250.939,-0.615966
5.23167,250.953,-0.61677
5.23333,250.968,-0.619321
5.235,250.983,-0.62199
5.23667,250.998,-0.624211
5.23833,251.013,-0.626929
5.24,251.027,-0.627803
5.24167,251.042,-0.63029
5.24333,251.057,-0.633354
5.245,251.073,-0.636107
5.24667,251.088,-0.639292
5.24833,251.103,-0.6427
5.25,251.118,-0.646243
5.25167,251.133,-0.64945
5.25333,251.148,-0.653327
5.255,251.163,-0.656761
5.25667,251.178,-0.660763
5.25833,251.193,-0.662877
5.26,251.209,-0.665548
5.26167,251.224,-0.668154
5.26333,251.24,-0.670518
5.265,251.255,-0.673498
5.26667,251.27,-0.675436
5.26833,251.285,-0.677416
5.27,251.301,-0.680265
5.27167,251.316,-0.681617
5.27333,251.332,-0.683162
5.275,251.347,-0.683824
5.27667,251.363,-0.684048
5.27833,251.378,-0.686008
5.28,251.394,-0.687254
5.28167,251.409,-0.687675
5.28333,251.425,-0.689135
5.285,251.441,-0.690828
5.28667,251.456,-0.692273
5.28833,251.472,-0.694901
5.29,251.488,-0.69708
5.29167,251.503,-0.698169
5.29333,251.519,-0.700083
5.295,251.534,-0.701979
5.29667,251.55,-0.70344
5.29833,251.566,-0.705281
5.3,251.582,-0.707029
5.30167,251.597,-0.710078
5.30333,251.613,-0.711684
5.305,251.629,-0.71284
5.30667,251.645,-0.71412
5.30833,251.66,-0.715957
5.31,251.676,-0.717684
5.31167,251.692,-0.718836
5.31333,251.708,-0.719744
5.315,251.724,-0.721266
5.31667,251.74,-0.723028
5.31833,251.755,-0.724646
5.32,251.771,-0.725948
5.32167,251.787,-0.727259
5.32333,251.803,-0.727726
5.325,251.819,-0.727905
5.32667,251.835,-0.728291
5.32833,251.851,-0.729305
5.33,251.867,-0.729874
5.33167,251.883,-0.73024
5.33333,251.899,-0.730566
5.335,251.915,-0.731264
5.33667,251.931,-0.73211
5.33833,251.947,-0.73338
5.34,251.963,-0.734504
5.34167,251.979,-0.735571
5.34333,251.996,-0.736125
5.345,252.011,-0.736369
5.34667,252.027,-0.736709
5.34833,252.044,-0.736814
5.35,252.059,-0.736838
5.35167,252.075,-0.737023
5.35333,252.091,-0.737306
5.355,252.107,-0.737656
5.35667,252.123,-0.738368
5.35833,252.139,-0.739317
5.36,252.155,-0.740829
5.36167,252.172,-0.742694
5.36333,252.188,-0.744486
5.365,252.204,-0.746038
5.36667,252.22,-0.747312
5.36833,252.236,-0.748458
5.37,252.252,-0.749411
5.37167,252.268,-0.750212
5.37333,252.284,-0.750903
5.375,252.301,-0.751404
5.37667,252.317,-0.751674
5.37833,252.333,-0.75182
5.38,252.349,-0.752004
5.38167,252.366,-0.75215
5.38333,252.381,-0.752435
5.385,252.398,-0.752938
5.38667,252.414,-0.75346
5.38833,252.43,-0.754016
5.39,252.447,-0.754727
5.39167,252.463,-0.755716
5.39333,252.479,-0.756853
5.395,252.495,-0.758266
5.39667,252.511,-0.759505
5.39833,252.527,-0.760915
5.4,252.544,-0.762387
5.40167,252.56,-0.763669
5.40333,252.576,-0.764911
5.405,252.592,-0.765794
5.40667,252.608,-0.766483
5.40833,252.625,-0.766797
5.41,252.641,-0.766933
5.41167,252.657,-0.767231
5.41333,252.674,-0.767371
5.415,252.689,-0.767531
5.41667,252.706,-0.767659
5.41833,252.722,-0.767751
5.42,252.738,-0.767887
5.42167,252.755,-0.768075
5.42333,252.771,-0.768293
5.425,252.787,-0.768515
5.42667,252.804,-0.768612
5.42833,252.82,-0.768687
5.43,252.836,-0.768781
5.43167,252.853,-0.768849
5.43333,252.869,-0.768939
5.435,252.885,-0.768997
5.43667,252.901,-0.769045
5.43833,252.918,-0.769093
5.44,252.934,-0.769114
5.44167,252.95,-0.769135
5.44333,252.966,-0.769179
5.445,252.983,-0.769193
5.44667,252.999,-0.769219
5.44833,253.015,-0.76925
5.45,253.032,-0.769296
5.45167,253.048,-0.769419
5.45333,253.065,-0.769555
5.455,253.081,-0.76967
5.45667,253.097,-0.769851
5.45833,253.114,-0.770091
5.46,253.13,-0.770251
5.46167,253.146,-0.770457
5.46333,253.163,-0.770691
5.465,253.179,-0.770908
5.46667,253.196,-0.77104
5.46833,253.212,-0.771172
5.47,253.228,-0.771329
5.47167,253.245,-0.771484
5.47333,253.261,-0.771627
5.475,253.277,-0.771692
5.47667,253.293,-0.7718
5.47833,253.31,-0.77185
5.48,253.326,-0.771936
5.48167,253.343,-0.772001
5.48333,253.359,-0.772046
5.485,253.376,-0.7721
5.48667,253.392,-0.772156
5.48833,253.408,-0.772267
5.49,253.424,-0.772436
5.49167,253.441,-0.772602
5.49333,253.457,-0.772729
5.495,253.473,-0.773062
5.49667,253.489,-0.773509
5.49833,253.506,-0.773914
5.5,253.523,-0.774329
5.50167,253.539,-0.774554
5.50333,253.555,-0.774782
5.505,253.572,-0.774976
5.50667,253.588,-0.775163
5.50833,253.605,-0.775343
5.51,253.621,-0.775538
5.51167,253.637,-0.775717
5.51333,253.654,-0.77588
5.515,253.67,-0.77602
5.51667,253.687,-0.776152
5.51833,253.703,-0.77634
5.52,253.719,-0.776446
5.52167,253.736,-0.776519
5.52333,253.752,-0.776606
5.525,253.769,-0.776689
5.52667,253.785,-0.77683
5.52833,253.801,-0.776981
5.53,253.818,-0.777202
5.53167,253.834,-0.777409
5.53333,253.851,-0.777628
5.535,253.867,-0.777851
5.53667,253.884,-0.777994
5.53833,253.9,-0.778136
5.54,253.916,-0.778226
5.54167,253.932,-0.778307
5.54333,253.949,-0.778389
5.545,253.966,-0.77847
5.54667,253.982,-0.778583
5.54833,253.999,-0.778731
5.55,254.015,-0.778907
5.55167,254.031,-0.779029
5.55333,254.048,-0.779215
5.555,254.064,-0.779397
5.55667,254.08,-0.779528
5.55833,254.097,-0.779619
5.56,254.113,-0.779713
5.56167,254.129,-0.779812
5.56333,254.146,-0.779927
5.565,254.162,-0.780026
5.56667,254.179,-0.780136
5.56833,254.195,-0.780234
5.57,254.212,-0.780331
5.57167,254.228,-0.78043
5.57333,254.245,-0.780525
5.575,254.261,-0.78071
5.57667,254.277,-0.78084
5.57833,254.294,-0.780984
5.58,254.31,-0.78114
5.58167,254.327,-0.781229
5.58333,254.343,-0.781328
5.585,254.359,-0.781424
5.58667,254.376,-0.781603
5.58833,254.393,-0.781952
5.59,254.409,-0.782454
5.59167,254.425,-0.782697
5.59333,254.442,-0.782857
5.595,254.458,-0.782977
5.59667,254.475,-0.783074
5.59833,254.491,-0.783166
5.6,254.508,-0.783279
5.60167,254.524,-0.783358
5.60333,254.541,-0.7835
5.605,254.557,-0.783596
5.60667,254.574,-0.7837
5.60833,254.59,-0.783834
5.61,254.607,-0.783997
5.61167,254.623,-0.784149
5.61333,254.639,-0.784345
5.615,254.655,-0.784516
5.61667,254.672,-0.784637
5.61833,254.688,-0.784741
5.62,254.705,-0.784843
5.62167,254.721,-0.784946
5.62333,254.738,-0.785045
5.625,254.755,-0.785147
5.62667,254.771,-0.785254
5.62833,254.787,-0.785363
5.63,254.804,-0.785474
5.63167,254.821,-0.785586
5.63333,254.837,-0.785689
5.635,254.853,-0.785826
5.63667,254.87,-0.785927
5.63833,254.887,-0.786029
5.64,254.903,-0.786134
5.64167,254.919,-0.786242
5.64333,254.935,-0.786345
5.645,254.952,-0.786455
5.64667,254.969,-0.78657
5.64833,254.985,-0.786688
5.65,255.001,-0.786825
5.65167,255.018,-0.78696
5.65333,255.034,-0.78711
5.655,255.051,-0.78741
5.65667,255.067,-0.787837
5.65833,255.084,-0.78814
5.66,255.1,-0.788417
5.66167,255.117,-0.788547
5.66333,255.134,-0.788669
5.665,255.15,-0.788779
5.66667,255.166,-0.788921
5.66833,255.183,-0.789016
5.67,255.199,-0.789111
5.67167,255.216,-0.789208
5.67333,255.232,-0.78932
5.675,255.249,-0.789431
5.67667,255.265,-0.789542
5.67833,255.282,-0.789655
5.68,255.298,-0.789764
5.68167,255.315,-0.789871
5.68333,255.331,-0.789963
5.685,255.348,-0.790053
5.68667,255.364,-0.790142
5.68833,255.381,-0.790229
5.69,255.397,-0.790324
5.69167,255.413,-0.790421
5.69333,255.43,-0.79052
5.695,255.447,-0.790622
5.69667,255.463,-0.790722
5.69833,255.479,-0.790832
5.7,255.496,-0.790944
5.70167,255.512,-0.791055
5.70333,255.529,-0.791161
5.705,255.545,-0.791276
5.70667,255.562,-0.791388
5.70833,255.579,-0.791501
5.71,255.595,-0.791615
5.71167,255.612,-0.791731
5.71333,255.628,-0.791845
5.715,255.645,-0.791953
5.71667,255.661,-0.792066
5.71833,255.678,-0.792173
5.72,255.694,-0.792283
5.72167,255.711,-0.792403
5.72333,255.727,-0.792527
5.725,255.744,-0.792654
5.72667,255.76,-0.792777
5.72833,255.777,-0.792901
5.73,255.793,-0.793018
5.73167,255.809,-0.793142
5.73333,255.826,-0.793253
5.735,255.842,-0.793358
5.73667,255.859,-0.793464
5.73833,255.875,-0.79356
5.74,255.892,-0.793659
5.74167,255.908,-0.79376
5.74333,255.925,-0.793864
5.745,255.941,-0.793967
5.74667,255.958,-0.794064
5.74833,255.975,-0.794166
5.75,255.991,-0.794276
5.75167,256.007,-0.794387
5.75333,256.024,-0.794508
5.755,256.04,-0.794628
5.75667,256.057,-0.794782
5.75833,256.074,-0.795016
5.76,256.091,-0.795343
5.76167,256.107,-0.795653
5.76333,256.123,-0.795982
5.765,256.14,-0.796116
5.76667,256.157,-0.796237
5.76833,256.173,-0.796355
5.77,256.189,-0.796469
5.77167,256.206,-0.796577
5.77333,256.223,-0.796684
5.775,256.239,-0.796781
5.77667,256.255,-0.79688
5.77833,256.272,-0.796976
5.78,256.288,-0.797072
5.78167,256.305,-0.797165
5.78333,256.321,-0.797264
5.785,256.338,-0.797366
5.78667,256.354,-0.797468
5.78833,256.371,-0.797568
5.79,256.387,-0.797674
5.79167,256.404,-0.79778
5.79333,256.421,-0.797882
5.795,256.437,-0.797993
5.79667,256.453,-0.798099
5.79833,256.47,-0.798199
5.8,256.486,-0.7983
5.80167,256.503,-0.798401
5.80333,256.519,-0.798501
5.805,256.536,-0.798603
5.80667,256.553,-0.798699
5.80833,256.569,-0.798796
5.81,256.585,-0.798895
5.81167,256.602,-0.798997
5.81333,256.619,-0.799104
5.815,256.635,-0.799212
5.81667,256.652,-0.799329
5.81833,256.668,-0.799448
5.82,256.684,-0.799568
5.82167,256.701,-0.799764
5.82333,256.718,-0.799996
5.825,256.734,-0.800217
5.82667,256.751,-0.800383
5.82833,256.768,-0.800508
5.83,256.784,-0.800633
5.83167,256.801,-0.800742
5.83333,256.817,-0.800857
5.835,256.833,-0.80096
5.83667,256.85,-0.801062
5.83833,256.867,-0.801162
5.84,256.883,-0.801255
5.84167,256.899,-0.801344
5.84333,256.916,-0.801435
5.845,256.932,-0.801521
5.84667,256.948,-0.801604
5.84833,256.965,-0.801697
5.85,256.982,-0.801792
5.85167,256.999,-0.8019
5.85333,257.015,-0.80201
5.855,257.032,-0.802123
5.85667,257.048,-0.802237
5.85833,257.065,-0.802355
5.86,257.081,-0.802475
5.86167,257.098,-0.802593
5.86333,257.114,-0.802709
5.865,257.131,-0.802819
5.86667,257.147,-0.802924
5.86833,257.164,-0.80302
5.87,257.181,-0.803118
5.87167,257.197,-0.803222
5.87333,257.214,-0.803323
5.875,257.23,-0.803411
5.87667,257.247,-0.803493
5.87833,257.263,-0.803576
5.88,257.28,-0.80367
5.88167,257.297,-0.803759
5.88333,257.313,-0.803852
5.885,257.33,-0.80395
5.88667,257.346,-0.804051
5.88833,257.363,-0.804157
5.89,257.379,-0.804261
5.89167,257.396,-0.804361
5.89333,257.413,-0.804459
5.895,257.429,-0.804557
5.89667,257.445,-0.804646
5.89833,257.462,-0.80473
5.9,257.478,-0.804816
5.90167,257.495,-0.804898
5.90333,257.512,-0.804994
5.905,257.528,-0.805094
5.90667,257.545,-0.805195
5.90833,257.561,-0.805299
5.91,257.578,-0.805398
5.91167,257.594,-0.805494
5.91333,257.611,-0.805592
5.915,257.628,-0.805688
5.91667,257.644,-0.805783
5.91833,257.661,-0.805878
5.92,257.677,-0.805973
5.92167,257.694,-0.806062
5.92333,257.71,-0.806155
5.925,257.727,-0.806246
5.92667,257.743,-0.806337
5.92833,257.76,-0.806432
5.93,257.776,-0.806527
5.93167,257.793,-0.80661
5.93333,257.81,-0.80669
5.935,257.826,-0.806763
5.93667,257.843,-0.806844
5.93833,257.859,-0.806928
5.94,257.876,-0.807027
5.94167,257.892,-0.807136
5.94333,257.909,-0.807249
5.945,257.925,-0.80736
5.94667,257.942,-0.807515
5.94833,257.959,-0.807726
5.95,257.975,-0.807958
5.95167,257.992,-0.808076
5.95333,258.009,-0.808184
5.955,258.025,-0.80828
5.95667,258.042,-0.808365
5.95833,258.058,-0.80844
5.96,258.074,-0.808513
5.96167,258.091,-0.808585
5.96333,258.108,-0.80866
5.965,258.124,-0.808749
5.96667,258.141,-0.808841
5.96833,258.158,-0.80894
5.97,258.174,-0.809044
5.97167,258.191,-0.809147
5.97333,258.207,-0.809254
5.975,258.223,-0.809391
5.97667,258.24,-0.809502
5.97833,258.258,-0.809607
5.98,258.274,-0.809707
5.98167,258.29,-0.809808
5.98333,258.307,-0.809914
5.985,258.323,-0.810017
5.98667,258.34,-0.810116
5.98833,258.357,-0.810205
5.99,258.373,-0.810283
5.99167,258.389,-0.810358
5.99333,258.406,-0.810437
5.995,258.423,-0.810518
5.99667,258.439,-0.810606
5.99833,258.456,-0.810689
6,258.472,-0.81077
6.00167,258.489,-0.810851
6.00333,258.505,-0.810923
6.005,258.521,-0.810993
6.00667,258.538,-0.811056
6.00833,258.554,-0.811107
6.01,258.571,-0.811166
6.01167,258.588,-0.811229
6.01333,258.605,-0.811296
6.015,258.621,-0.811366
6.01667,258.638,-0.811446
6.01833,258.655,-0.81153
6.02,258.671,-0.811624
6.02167,258.688,-0.811727
6.02333,258.704,-0.811889
6.025,258.721,-0.81209
6.02667,258.737,-0.81223
6.02833,258.754,-0.81235
6.03,258.771,-0.812455
6.03167,258.787,-0.812552
6.03333,258.804,-0.812632
6.035,258.821,-0.812702
6.03667,258.837,-0.812767
6.03833,258.854,-0.812834
6.04,258.871,-0.812898
6.04167,258.887,-0.812966
6.04333,258.904,-0.81304
6.045,258.92,-0.813128
6.04667,258.937,-0.813214
6.04833,258.953,-0.813296
6.05,258.969,-0.813385
6.05167,258.986,-0.813475
6.05333,259.003,-0.813563
6.055,259.019,-0.813651
6.05667,259.036,-0.813734
6.05833,259.052,-0.813819
6.06,259.069,-0.813908
6.06167,259.086,-0.813999
6.06333,259.103,-0.814095
6.065,259.119,-0.814194
6.06667,259.136,-0.81429
6.06833,259.153,-0.814392
6.07,259.169,-0.814499
6.07167,259.185,-0.81459
6.07333,259.202,-0.814666
6.075,259.219,-0.814746
6.07667,259.236,-0.814814
6.07833,259.252,-0.814875
6.08,259.268,-0.814933
6.08167,259.285,-0.814999
6.08333,259.302,-0.815071
6.085,259.318,-0.815155
6.08667,259.335,-0.815248
6.08833,259.351,-0.815341
6.09,259.368,-0.81544
6.09167,259.385,-0.815538
6.09333,259.401,-0.81564
6.095,259.418,-0.815738
6.09667,259.435,-0.81583
6.09833,259.451,-0.815904
6.1,259.468,-0.815978
6.10167,259.484,-0.816048
6.10333,259.501,-0.816114
6.105,259.517,-0.816171
6.10667,259.534,-0.816224
6.10833,259.551,-0.816279
6.11,259.567,-0.816339
6.11167,259.584,-0.816406
6.11333,259.6,-0.816477
6.115,259.617,-0.816557
6.11667,259.633,-0.816641
6.11833,259.65,-0.816739
6.12,259.667,-0.816839
6.12167,259.683,-0.81693
6.12333,259.7,-0.817013
6.125,259.716,-0.8171
6.12667,259.733,-0.817178
6.12833,259.75,-0.817249
6.13,259.767,-0.817328
6.13167,259.783,-0.817404
6.13333,259.799,-0.817488
6.135,259.816,-0.817577
6.13667,259.833,-0.817655
6.13833,259.849,-0.817728
6.14,259.866,-0.817788
6.14167,259.882,-0.817843
6.14333,259.899,-0.81789
6.145,259.915,-0.817939
6.14667,259.932,-0.817997
6.14833,259.949,-0.81806
6.15,259.965,-0.818133
6.15167,259.982,-0.818215
6.15333,259.998,-0.818306
6.155,260.015,-0.818399
6.15667,260.032,-0.81849
6.15833,260.048,-0.81858
6.16,260.065,-0.818662
6.16167,260.082,-0.818734
6.16333,260.098,-0.818802
6.165,260.115,-0.818866
6.16667,260.131,-0.818925
6.16833,260.148,-0.818976
6.17,260.165,-0.819023
6.17167,260.181,-0.81907
6.17333,260.198,-0.819115
6.175,260.214,-0.819165
6.17667,260.231,-0.819215
6.17833,260.247,-0.819272
6.18,260.264,-0.819328
6.18167,260.281,-0.819387
6.18333,260.297,-0.819461
6.185,260.314,-0.81954
6.18667,260.33,-0.819619
6.18833,260.347,-0.819692
6.19,260.364,-0.819761
6.19167,260.38,-0.81983
6.19333,260.397,-0.8199
6.195,260.414,-0.819957
6.19667,260.43,-0.820017
6.19833,260.447,-0.82008
6.2,260.464,-0.820144
6.20167,260.48,-0.820203
6.20333,260.497,-0.820263
6.205,260.513,-0.820326
6.20667,260.53,-0.820388
6.20833,260.546,-0.820451
6.21,260.563,-0.820511
6.21167,260.579,-0.820572
6.21333,260.596,-0.820633
6.215,260.613,-0.820701
6.21667,260.629,-0.820777
6.21833,260.646,-0.820858
6.22,260.663,-0.820942
6.22167,260.679,-0.821025
6.22333,260.696,-0.82111
6.225,260.712,-0.821185
6.22667,260.729,-0.821252
6.22833,260.745,-0.821303
6.23,260.762,-0.821356
6.23167,260.779,-0.821397
6.23333,260.795,-0.821437
6.235,260.812,-0.82148
6.23667,260.829,-0.821523
6.23833,260.845,-0.821569
6.24,260.862,-0.821627
6.24167,260.878,-0.821696
6.24333,260.895,-0.821774
6.245,260.911,-0.821875
6.24667,260.928,-0.821965
6.24833,260.945,-0.822049
6.25,260.962,-0.822138
6.25167,260.979,-0.822213
6.25333,260.995,-0.822278
6.255,261.011,-0.822336
6.25667,261.028,-0.822394
6.25833,261.045,-0.822449
6.26,261.061,-0.822501
6.26167,261.078,-0.822554
6.26333,261.094,-0.82262
6.265,261.111,-0.822696
6.26667,261.128,-0.82277
6.26833,261.144,-0.822851
6.27,261.161,-0.822923
6.27167,261.177,-0.822989
6.27333,261.194,-0.823044
6.275,261.21,-0.823089
6.27667,261.227,-0.823131
6.27833,261.243,-0.823177
6.28,261.26,-0.823218
6.28167,261.277,-0.823266
6.28333,261.293,-0.823315
6.285,261.31,-0.823367
6.28667,261.326,-0.823434
6.28833,261.343,-0.823499
6.29,261.36,-0.823556
6.29167,261.376,-0.823619
6.29333,261.393,-0.823682
6.295,261.409,-0.823746
6.29667,261.426,-0.823807
6.29833,261.443,-0.823862
6.3,261.46,-0.823927
6.30167,261.476,-0.823991
6.30333,261.492,-0.824047
6.305,261.509,-0.824109
6.30667,261.526,-0.824162
6.30833,261.542,-0.824212
6.31,261.559,-0.824255
6.31167,261.576,-0.8243
6.31333,261.592,-0.824351
6.315,261.609,-0.824401
6.31667,261.625,-0.824439
6.31833,261.642,-0.824478
6.32,261.658,-0.824525
6.32167,261.675,-0.82458
6.32333,261.692,-0.824646
6.325,261.708,-0.824711
6.32667,261.725,-0.824775
6.32833,261.741,-0.824844
6.33,261.758,-0.824899
6.33167,261.775,-0.82495
6.33333,261.791,-0.82499
6.335,261.808,-0.825029
6.33667,261.824,-0.825071
6.33833,261.841,-0.825114
6.34,261.858,-0.825156
6.34167,261.874,-0.825204
6.34333,261.891,-0.825256
6.345,261.908,-0.825308
6.34667,261.924,-0.825363
6.34833,261.941,-0.825423
6.35,261.958,-0.825481
6.35167,261.974,-0.825532
6.35333,261.991,-0.82559
6.355,262.008,-0.825644
6.35667,262.024,-0.825695
6.35833,262.041,-0.825745
6.36,262.058,-0.825795
6.36167,262.074,-0.825842
6.36333,262.09,-0.825879
6.365,262.107,-0.825915
6.36667,262.123,-0.825952
6.36833,262.14,-0.825995
6.37,262.158,-0.826032
6.37167,262.174,-0.826079
6.37333,262.191,-0.826135
6.375,262.207,-0.826202
6.37667,262.224,-0.826277
6.37833,262.24,-0.826354
6.38,262.257,-0.826446
6.38167,262.273,-0.826527
6.38333,262.29,-0.826593
6.385,262.307,-0.826651
6.38667,262.323,-0.826706
6.38833,262.34,-0.826748
6.39,262.357,-0.826779
6.39167,262.373,-0.826795
6.39333,262.39,-0.826815
6.395,262.406,-0.82684
6.39667,262.423,-0.82687
6.39833,262.439,-0.826908
6.4,262.456,-0.826954
6.40167,262.472,-0.827005
6.40333,262.489,-0.827056
6.405,262.506,-0.827108
6.40667,262.523,-0.827159
6.40833,262.539,-0.827204
6.41,262.556,-0.827241
6.41167,262.572,-0.827286
6.41333,262.589,-0.827328
6.415,262.606,-0.827375
6.41667,262.623,-0.827418
6.41833,262.639,-0.827467
6.42,262.656,-0.827518
6.42167,262.672,-0.827564
6.42333,262.689,-0.827614
6.425,262.706,-0.827661
6.42667,262.722,-0.827704
6.42833,262.739,-0.827748
6.43,262.755,-0.827786
6.43167,262.772,-0.827815
6.43333,262.788,-0.827837
6.435,262.805,-0.827851
6.43667,262.822,-0.827882
6.43833,262.839,-0.827915
6.44,262.855,-0.827944
6.44167,262.872,-0.827981
6.44333,262.888,-0.828021
6.445,262.905,-0.828061
6.44667,262.922,-0.828105
6.44833,262.938,-0.828152
6.45,262.955,-0.828204
6.45167,262.972,-0.828262
6.45333,262.988,-0.828311
6.455,263.005,-0.828361
6.45667,263.021,-0.828411
6.45833,263.038,-0.828458
6.46,263.055,-0.828499
6.46167,263.071,-0.828544
6.46333,263.088,-0.828585
6.465,263.105,-0.828621
6.46667,263.121,-0.828653
6.46833,263.138,-0.828686
6.47,263.155,-0.828721
6.47167,263.171,-0.828751
6.47333,263.188,-0.828784
6.475,263.205,-0.828818
6.47667,263.221,-0.828854
6.47833,263.238,-0.828892
6.48,263.255,-0.828933
6.48167,263.271,-0.828975
6.48333,263.288,-0.829024
6.485,263.304,-0.82907
6.48667,263.321,-0.82912
6.48833,263.338,-0.829176
6.49,263.354,-0.82923
6.49167,263.37,-0.829288
6.49333,263.387,-0.829346
6.495,263.404,-0.829415
6.49667,263.42,-0.829489
6.49833,263.437,-0.829561
6.5,263.453,-0.829614
6.50167,263.47,-0.829657
6.50333,263.487,-0.829698
6.505,263.503,-0.829742
6.50667,263.52,-0.829781
6.50833,263.536,-0.82982
6.51,263.553,-0.829863
6.51167,263.57,-0.829905
6.51333,263.587,-0.829953
6.515,263.603,-0.83
6.51667,263.62,-0.830052
6.51833,263.637,-0.830092
6.52,263.654,-0.830118
6.52167,263.67,-0.830138
6.52333,263.687,-0.830155
6.525,263.703,-0.830169
6.52667,263.72,-0.830183
6.52833,263.736,-0.830201
6.53,263.753,-0.830217
6.53167,263.77,-0.830246
6.53333,263.786,-0.830285
6.535,263.803,-0.830329
6.53667,263.82,-0.830371
6.53833,263.836,-0.830412
6.54,263.853,-0.830448
6.54167,263.87,-0.830473
6.54333,263.886,-0.830484
6.545,263.902,-0.830494
6.54667,263.919,-0.830504
6.54833,263.935,-0.830516
6.55,263.952,-0.830539
6.55167,263.969,-0.830567
6.55333,263.985,-0.830608
6.555,264.002,-0.830654
6.55667,264.019,-0.830716
6.55833,264.035,-0.830833
6.56,264.051,-0.830926
6.56167,264.068,-0.830985
6.56333,264.084,-0.831045
6.565,264.102,-0.8311
6.56667,264.118,-0.831153
6.56833,264.135,-0.831195
6.57,264.151,-0.831231
6.57167,264.168,-0.831268
6.57333,264.185,-0.831298
6.575,264.201,-0.831325
6.57667,264.218,-0.831361
6.57833,264.235,-0.831396
6.58,264.251,-0.831433
6.58167,264.268,-0.831465
6.58333,264.284,-0.831497
6.585,264.301,-0.831528
6.58667,264.317,-0.83155
6.58833,264.334,-0.831568
6.59,264.351,-0.83158
6.59167,264.367,-0.831594
6.59333,264.384,-0.831608
6.595,264.401,-0.831617
6.59667,264.417,-0.831622
6.59833,264.434,-0.831626
6.6,264.451,-0.831634
6.60167,264.468,-0.831652
6.60333,264.484,-0.831676
6.605,264.501,-0.831701
6.60667,264.517,-0.831733
6.60833,264.534,-0.831785
6.61,264.551,-0.83184
6.61167,264.567,-0.8319
6.61333,264.584,-0.831962
6.615,264.6,-0.832018
6.61667,264.617,-0.832069
6.61833,264.633,-0.832112
6.62,264.65,-0.832147
6.62167,264.667,-0.832177
6.62333,264.684,-0.832201
6.625,264.701,-0.832217
6.62667,264.717,-0.832235
6.62833,264.734,-0.832246
6.63,264.751,-0.832261
6.63167,264.767,-0.832277
6.63333,264.784,-0.832288
6.635,264.8,-0.832305
6.63667,264.817,-0.832328
6.63833,264.834,-0.832351
6.64,264.85,-0.832375
6.64167,264.867,-0.832412
6.64333,264.883,-0.832453
6.645,264.9,-0.8325
6.64667,264.917,-0.83254
6.64833,264.933,-0.832581
6.65,264.95,-0.832627
6.65167,264.967,-0.832669
6.65333,264.983,-0.832709
6.655,265,-0.832756
6.65667,265.016,-0.832807
6.65833,265.033,-0.832864
6.66,265.05,-0.832927
6.66167,265.066,-0.83299
6.66333,265.083,-0.833051
6.665,265.1,-0.833107
6.66667,265.117,-0.833155
6.66833,265.134,-0.833204
6.67,265.15,-0.833249
6.67167,265.167,-0.833283
6.67333,265.184,-0.833305
6.675,265.201,-0.833326
6.67667,265.217,-0.833348
6.67833,265.233,-0.833373
6.68,265.25,-0.833406
6.68167,265.266,-0.833437
6.68333,265.283,-0.833474
6.685,265.299,-0.833509
6.68667,265.316,-0.833548
6.68833,265.333,-0.833591
6.69,265.35,-0.833639
6.69167,265.367,-0.833688
6.69333,265.383,-0.83374
6.695,265.4,-0.833792
6.69667,265.417,-0.833843
6.69833,265.433,-0.833896
6.7,265.45,-0.833947
6.70167,265.466,-0.834003
6.70333,265.483,-0.834052
6.705,265.499,-0.834096
6.70667,265.516,-0.834137
6.70833,265.533,-0.834172
6.71,265.55,-0.834198
6.71167,265.566,-0.834219
6.71333,265.583,-0.834235
6.715,265.6,-0.83425
6.71667,265.616,-0.834265
6.71833,265.633,-0.834277
6.72,265.65,-0.834293
6.72167,265.666,-0.834314
6.72333,265.683,-0.834331
6.725,265.7,-0.834341
6.72667,265.716,-0.834352
6.72833,265.733,-0.834368
6.73,265.75,-0.834374
6.73167,265.766,-0.834375
6.73333,265.783,-0.834375
6.735,265.8,-0.834384
6.73667,265.816,-0.834406
6.73833,265.833,-0.834426
6.74,265.849,-0.834455
6.74167,265.866,-0.834487
6.74333,265.883,-0.83452
6.745,265.899,-0.834559
6.74667,265.916,-0.834609
6.74833,265.933,-0.834662
6.75,265.949,-0.834713
6.75167,265.966,-0.834754
6.75333,265.982,-0.834788
6.755,265.999,-0.83482
6.75667,266.016,-0.834845
6.75833,266.032,-0.834872
6.76,266.049,-0.834893
6.76167,266.066,-0.834914
6.76333,266.082,-0.834933
6.765,266.099,-0.834953
6.76667,266.115,-0.834976
6.76833,266.132,-0.835003
6.77,266.149,-0.835031
6.77167,266.166,-0.835069
6.77333,266.182,-0.835109
6.775,266.199,-0.835151
6.77667,266.216,-0.835196
6.77833,266.232,-0.835236
6.78,266.249,-0.835274
6.78167,266.265,-0.83531
6.78333,266.282,-0.83534
6.785,266.299,-0.83537
6.78667,266.316,-0.835392
6.78833,266.332,-0.83542
6.79,266.349,-0.835439
6.79167,266.365,-0.835461
6.79333,266.382,-0.835482
6.795,266.399,-0.835499
6.79667,266.415,-0.83552
6.79833,266.432,-0.835538
6.8,266.449,-0.835557
6.80167,266.465,-0.835579
6.80333,266.482,-0.835602
6.805,266.499,-0.835632
6.80667,266.515,-0.835656
6.80833,266.532,-0.835675
6.81,266.548,-0.835691
6.81167,266.565,-0.835711
6.81333,266.582,-0.83573
6.815,266.599,-0.835748
6.81667,266.615,-0.835776
6.81833,266.632,-0.835802
6.82,266.649,-0.835825
6.82167,266.665,-0.835852
6.82333,266.682,-0.835877
6.825,266.699,-0.835899
6.82667,266.715,-0.835923
6.82833,266.732,-0.835945
6.83,266.748,-0.83597
6.83167,266.765,-0.836002
6.83333,266.781,-0.836033
6.835,266.798,-0.836065
6.83667,266.815,-0.836099
6.83833,266.831,-0.836141
6.84,266.848,-0.836188
6.84167,266.865,-0.836227
6.84333,266.882,-0.836254
6.845,266.898,-0.836278
6.84667,266.915,-0.836297
6.84833,266.932,-0.836323
6.85,266.948,-0.836346
6.85167,266.965,-0.836367
6.85333,266.982,-0.836381
6.855,266.998,-0.836393
6.85667,267.015,-0.836403
6.85833,267.031,-0.836413
6.86,267.048,-0.836429
6.86167,267.065,-0.836455
6.86333,267.082,-0.83649
6.865,267.098,-0.836531
6.86667,267.115,-0.836575
6.86833,267.132,-0.836625
6.87,267.148,-0.83668
6.87167,267.165,-0.836722
6.87333,267.181,-0.836756
6.875,267.198,-0.836789
6.87667,267.215,-0.836824
6.87833,267.231,-0.836862
6.88,267.248,-0.836899
6.88167,267.265,-0.836935
6.88333,267.281,-0.836973
6.885,267.298,-0.837006
6.88667,267.314,-0.837038
6.88833,267.331,-0.837072
6.89,267.348,-0.837106
6.89167,267.365,-0.837139
6.89333,267.381,-0.837174
6.895,267.398,-0.837211
6.89667,267.415,-0.837248
6.89833,267.431,-0.83728
6.9,267.448,-0.837316
6.90167,267.464,-0.83735
6.90333,267.481,-0.837376
6.905,267.498,-0.8374
6.90667,267.514,-0.837418
6.90833,267.531,-0.837432
6.91,267.548,-0.837444
6.91167,267.565,-0.837463
6.91333,267.582,-0.837485
6.915,267.598,-0.837509
6.91667,267.615,-0.837533
6.91833,267.632,-0.837558
6.92,267.648,-0.837578
6.92167,267.665,-0.837596
6.92333,267.681,-0.837616
6.925,267.698,-0.837638
6.92667,267.715,-0.837661
6.92833,267.731,-0.837693
6.93,267.748,-0.837724
6.93167,267.764,-0.837751
6.93333,267.781,-0.837778
6.935,267.798,-0.837806
6.93667,267.814,-0.837832
6.93833,267.831,-0.837852
6.94,267.848,-0.837868
6.94167,267.865,-0.837885
6.94333,267.881,-0.837905
6.945,267.897,-0.837927
6.94667,267.914,-0.837948
6.94833,267.931,-0.837973
6.95,267.947,-0.838
6.95167,267.964,-0.838039
6.95333,267.981,-0.83808
6.955,267.997,-0.838119
6.95667,268.015,-0.838162
6.95833,268.031,-0.838214
6.96,268.048,-0.838259
6.96167,268.065,-0.8383
6.96333,268.082,-0.838337
6.965,268.098,-0.83836
6.96667,268.115,-0.83838
6.96833,268.131,-0.838398
6.97,268.148,-0.838414
6.97167,268.165,-0.838418
6.97333,268.181,-0.838424
6.975,268.198,-0.838435
6.97667,268.215,-0.838445
6.97833,268.231,-0.838452
6.98,268.248,-0.838458
6.98167,268.264,-0.838468
6.98333,268.281,-0.838473
6.985,268.297,-0.838489
6.98667,268.314,-0.838511
6.98833,268.33,-0.838538
6.99,268.347,-0.838567
6.99167,268.364,-0.8386
6.99333,268.38,-0.838637
6.995,268.397,-0.838681
6.99667,268.414,-0.838722
6.99833,268.431,-0.838751
7,268.447,-0.838772
7.00167,268.464,-0.838789
7.00333,268.481,-0.838816
7.005,268.497,-0.838837
7.00667,268.514,-0.838854
7.00833,268.53,-0.838875
7.01,268.547,-0.838904
7.01167,268.564,-0.838931
7.01333,268.581,-0.838958
7.015,268.597,-0.838986
7.01667,268.614,-0.839009
7.01833,268.63,-0.839024
7.02,268.647,-0.839032
7.02167,268.664,-0.839031
7.02333,268.68,-0.839028
7.025,268.697,-0.839027
7.02667,268.714,-0.839038
7.02833,268.731,-0.839063
7.03,268.747,-0.839101
7.03167,268.764,-0.839147
7.03333,268.78,-0.8392
7.035,268.797,-0.839271
7.03667,268.814,-0.839329
7.03833,268.83,-0.839383
7.04,268.847,-0.839429
7.04167,268.864,-0.839465
7.04333,268.88,-0.839493
7.045,268.897,-0.839505
7.04667,268.914,-0.839514
7.04833,268.931,-0.839518
7.05,268.947,-0.839524
7.05167,268.964,-0.839526
7.05333,268.98,-0.839521
7.055,268.997,-0.839514
7.05667,269.013,-0.839511
7.05833,269.03,-0.839514
7.06,269.047,-0.839519
7.06167,269.064,-0.839528
7.06333,269.08,-0.839546
7.065,269.097,-0.839566
7.06667,269.114,-0.839595
7.06833,269.13,-0.839626
7.07,269.147,-0.839655
7.07167,269.164,-0.839688
7.07333,269.181,-0.839722
7.075,269.197,-0.839762
7.07667,269.214,-0.839803
7.07833,269.23,-0.839836
7.08,269.248,-0.839868
7.08167,269.265,-0.839898
7.08333,269.281,-0.839912
7.085,269.298,-0.839919
7.08667,269.314,-0.839927
7.08833,269.331,-0.839942
7.09,269.347,-0.839955
7.09167,269.364,-0.839967
7.09333,269.381,-0.839984
7.095,269.397,-0.840006
7.09667,269.414,-0.840032
7.09833,269.431,-0.840065
7.1,269.448,-0.840096
7.10167,269.464,-0.840131
7.10333,269.481,-0.840158
7.105,269.498,-0.840188
7.10667,269.515,-0.840219
7.10833,269.531,-0.840249
7.11,269.547,-0.840277
7.11167,269.564,-0.840304
7.11333,269.58,-0.840333
7.115,269.597,-0.840368
7.11667,269.614,-0.840403
7.11833,269.63,-0.840439
7.12,269.647,-0.840466
7.12167,269.664,-0.840486
7.12333,269.68,-0.840497
7.125,269.697,-0.840517
7.12667,269.714,-0.840535
7.12833,269.731,-0.840553
7.13,269.748,-0.840573
7.13167,269.764,-0.840593
7.13333,269.781,-0.840622
7.135,269.797,-0.840643
7.13667,269.814,-0.840664
7.13833,269.83,-0.840685
7.14,269.847,-0.840708
7.14167,269.863,-0.84073
7.14333,269.88,-0.840753
7.145,269.896,-0.840773
7.14667,269.913,-0.840801
7.14833,269.93,-0.84083
7.15,269.947,-0.840859
7.15167,269.964,-0.840881
7.15333,269.98,-0.840898
7.155,269.997,-0.840912
7.15667,270.013,-0.840927
7.15833,270.03,-0.840942
7.16,270.047,-0.840961
7.16167,270.063,-0.840976
7.16333,270.08,-0.840989
7.165,270.097,-0.840995
7.16667,270.113,-0.840996
7.16833,270.13,-0.840996
7.17,270.146,-0.840989
7.17167,270.163,-0.84098
7.17333,270.18,-0.840968
7.175,270.197,-0.840948
7.17667,270.213,-0.84093
7.17833,270.23,-0.840921
7.18,270.246,-0.840926
7.18167,270.262,-0.840939
7.18333,270.279,-0.840954
7.185,270.296,-0.840974
7.18667,270.313,-0.841002
7.18833,270.329,-0.841034
7.19,270.346,-0.841071
7.19167,270.363,-0.841098
7.19333,270.38,-0.841118
7.195,270.396,-0.841136
7.19667,270.413,-0.841163
7.19833,270.43,-0.841185
7.2,270.447,-0.841215
7.20167,270.463,-0.841233
7.20333,270.48,-0.841242
7.205,270.497,-0.841251
7.20667,270.513,-0.841263
7.20833,270.529,-0.841271
7.21,270.546,-0.84127
7.21167,270.563,-0.84127
7.21333,270.58,-0.841271
7.215,270.596,-0.84128
7.21667,270.613,-0.841295
7.21833,270.63,-0.841314
7.22,270.646,-0.841337
7.22167,270.663,-0.841361
7.22333,270.679,-0.841385
7.225,270.696,-0.841419
7.22667,270.713,-0.84146
7.22833,270.73,-0.841496
7.23,270.746,-0.841535
7.23167,270.763,-0.841573
7.23333,270.78,-0.841606
7.235,270.796,-0.841639
7.23667,270.813,-0.841674
7.23833,270.83,-0.841706
7.24,270.846,-0.841732
7.24167,270.863,-0.841746
7.24333,270.879,-0.841761
7.245,270.896,-0.841776
7.24667,270.913,-0.841794
7.24833,270.929,-0.841814
7.25,270.946,-0.841838
7.25167,270.962,-0.841863
7.25333,270.979,-0.841897
7.255,270.996,-0.841926
7.25667,271.013,-0.841962
7.25833,271.029,-0.841989
7.26,271.046,-0.842007
7.26167,271.063,-0.842018
7.26333,271.079,-0.842034
7.265,271.096,-0.842048
7.26667,271.113,-0.842058
7.26833,271.129,-0.842073
7.27,271.146,-0.842095
7.27167,271.163,-0.842126
7.27333,271.179,-0.842149
7.275,271.195,-0.842176
7.27667,271.212,-0.842204
7.27833,271.229,-0.842224
7.28,271.246,-0.842248
7.28167,271.262,-0.842268
7.28333,271.279,-0.842286
7.285,271.296,-0.842302
7.28667,271.312,-0.842324
7.28833,271.329,-0.84235
7.29,271.346,-0.842376
7.29167,271.363,-0.842403
7.29333,271.379,-0.842434
7.295,271.396,-0.842464
7.29667,271.412,-0.842483
7.29833,271.429,-0.842495
7.3,271.446,-0.842499
7.30167,271.462,-0.842503
7.30333,271.479,-0.842507
7.305,271.495,-0.842506
7.30667,271.512,-0.842496
7.30833,271.529,-0.842485
7.31,271.545,-0.842483
7.31167,271.562,-0.842487
7.31333,271.579,-0.842497
7.315,271.595,-0.842512
7.31667,271.612,-0.842528
7.31833,271.629,-0.842546
7.32,271.645,-0.842563
7.32167,271.662,-0.842584
7.32333,271.679,-0.84261
7.325,271.696,-0.842626
7.32667,271.712,-0.842638
7.32833,271.729,-0.842648
7.33,271.745,-0.842657
7.33167,271.762,-0.842664
7.33333,271.779,-0.842675
7.335,271.795,-0.842686
7.33667,271.812,-0.842701
7.33833,271.829,-0.842713
7.34,271.845,-0.842722
7.34167,271.862,-0.842731
7.34333,271.878,-0.842748
7.345,271.895,-0.842762
7.34667,271.912,-0.84278
7.34833,271.928,-0.842798
7.35,271.945,-0.84282
7.35167,271.961,-0.84285
7.35333,271.978,-0.842881
7.355,271.995,-0.842923
7.35667,272.012,-0.842968
7.35833,272.028,-0.843016
7.36,272.045,-0.843061
7.36167,272.061,-0.843112
7.36333,272.078,-0.84318
7.365,272.094,-0.843257
7.36667,272.111,-0.843326
7.36833,272.128,-0.843377
7.37,272.145,-0.843423
7.37167,272.161,-0.843451
7.37333,272.178,-0.843472
7.375,272.195,-0.843483
7.37667,272.211,-0.843491
7.37833,272.228,-0.843506
7.38,272.245,-0.843513
7.38167,272.261,-0.843515
7.38333,272.278,-0.84351
7.385,272.295,-0.843507
7.38667,272.311,-0.843506
7.38833,272.328,-0.843505
7.39,272.345,-0.843501
7.39167,272.362,-0.843505
7.39333,272.378,-0.843513
7.395,272.395,-0.843526
7.39667,272.411,-0.843556
7.39833,272.428,-0.843595
7.4,272.445,-0.843638
7.40167,272.461,-0.843684
7.40333,272.478,-0.843733
7.405,272.495,-0.843776
7.40667,272.511,-0.843806
7.40833,272.528,-0.84383
7.41,272.544,-0.843858
7.41167,272.561,-0.843878
7.41333,272.578,-0.843898
7.415,272.594,-0.843927
7.41667,272.611,-0.843957
7.41833,272.628,-0.843985
7.42,272.645,-0.844007
7.42167,272.661,-0.844031
7.42333,272.678,-0.844045
7.425,272.694,-0.84405
7.42667,272.711,-0.84405
7.42833,272.728,-0.844054
7.43,272.744,-0.844067
7.43167,272.761,-0.844083
7.43333,272.778,-0.844094
7.435,272.794,-0.84411
7.43667,272.811,-0.844129
7.43833,272.828,-0.844152
7.44,272.844,-0.84418
7.44167,272.861,-0.844204
7.44333,272.878,-0.844224
7.445,272.894,-0.844242
7.44667,272.911,-0.844254
7.44833,272.928,-0.844276
7.45,272.944,-0.844296
7.45167,272.961,-0.844313
7.45333,272.977,-0.844326
7.455,272.994,-0.84434
7.45667,273.011,-0.844357
7.45833,273.027,-0.84438
7.46,273.044,-0.844409
7.46167,273.06,-0.84443
7.46333,273.077,-0.844452
7.465,273.094,-0.844476
7.46667,273.111,-0.844495
7.46833,273.127,-0.844501
7.47,273.144,-0.844492
7.47167,273.161,-0.844477
7.47333,273.177,-0.844462
7.475,273.194,-0.844438
7.47667,273.211,-0.844414
7.47833,273.227,-0.844403
7.48,273.244,-0.844393
7.48167,273.26,-0.844392
7.48333,273.277,-0.844398
7.485,273.294,-0.844417
7.48667,273.31,-0.844446
7.48833,273.327,-0.844487
7.49,273.344,-0.844524
7.49167,273.361,-0.844566
7.49333,273.377,-0.84462
7.495,273.394,-0.844679
7.49667,273.411,-0.844747
7.49833,273.427,-0.84482
7.5,273.444,-0.844879
7.50167,273.46,-0.844924
7.50333,273.477,-0.844962
7.505,273.494,-0.844994
7.50667,273.51,-0.845017
7.50833,273.527,-0.845038
7.51,273.544,-0.845056
7.51167,273.56,-0.84507
7.51333,273.577,-0.845077
7.515,273.594,-0.845083
7.51667,273.61,-0.845094
7.51833,273.627,-0.845105
7.52,273.644,-0.845118
7.52167,273.66,-0.845136
7.52333,273.677,-0.845167
7.525,273.694,-0.8452
7.52667,273.71,-0.845241
7.52833,273.727,-0.84528
7.53,273.744,-0.84532
7.53167,273.76,-0.845363
7.53333,273.777,-0.845407
7.535,273.793,-0.845447
7.53667,273.81,-0.845478
7.53833,273.827,-0.845501
7.54,273.843,-0.845519
7.54167,273.86,-0.845526
7.54333,273.876,-0.845523
7.545,273.893,-0.845518
7.54667,273.91,-0.845507
7.54833,273.926,-0.845493
7.55,273.943,-0.845489
7.55167,273.959,-0.845495
7.55333,273.976,-0.845507
7.555,273.993,-0.845522
7.55667,274.01,-0.845545
7.55833,274.026,-0.845581
7.56,274.043,-0.845615
7.56167,274.06,-0.845643
7.56333,274.076,-0.845673
7.565,274.093,-0.845701
7.56667,274.109,-0.845728
7.56833,274.126,-0.845758
7.57,274.143,-0.845779
7.57167,274.159,-0.845794
7.57333,274.176,-0.845806
7.575,274.193,-0.845834
7.57667,274.209,-0.845862
7.57833,274.226,-0.845883
7.58,274.242,-0.8459
7.58167,274.259,-0.845919
7.58333,274.276,-0.845929
7.585,274.292,-0.845938
7.58667,274.309,-0.845947
7.58833,274.326,-0.845955
7.59,274.343,-0.845963
7.59167,274.359,-0.845978
7.59333,274.376,-0.846005
7.595,274.392,-0.846039
7.59667,274.409,-0.846066
7.59833,274.426,-0.846101
7.6,274.442,-0.846143
7.60167,274.458,-0.846186
7.60333,274.475,-0.846225
7.605,274.492,-0.846253
7.60667,274.508,-0.846281
7.60833,274.525,-0.846297
7.61,274.542,-0.846311
7.61167,274.558,-0.846323
7.61333,274.576,-0.84634
7.615,274.592,-0.846359
7.61667,274.609,-0.846378
7.61833,274.625,-0.846407
7.62,274.642,-0.846443
7.62167,274.659,-0.846475
7.62333,274.676,-0.846506
7.625,274.692,-0.846541
7.62667,274.709,-0.846574
7.62833,274.726,-0.846602
7.63,274.742,-0.846623
7.63167,274.759,-0.84664
7.63333,274.775,-0.846654
7.635,274.792,-0.846659
7.63667,274.809,-0.846657
7.63833,274.825,-0.846647
7.64,274.842,-0.846631
7.64167,274.858,-0.846619
7.64333,274.875,-0.846615
7.645,274.892,-0.846622
7.64667,274.908,-0.846637
7.64833,274.925,-0.846651
7.65,274.942,-0.846673
7.65167,274.959,-0.846704
7.65333,274.975,-0.846746
7.655,274.992,-0.84678
7.65667,275.009,-0.846818
7.65833,275.025,-0.846845
7.66,275.042,-0.846866
7.66167,275.059,-0.846882
7.66333,275.075,-0.846894
7.665,275.092,-0.8469
7.66667,275.108,-0.846906
7.66833,275.125,-0.846902
7.67,275.142,-0.846899
7.67167,275.158,-0.8469
7.67333,275.175,-0.846908
7.675,275.191,-0.846924
7.67667,275.208,-0.846947
7.67833,275.225,-0.846974
7.68,275.242,-0.847006
7.68167,275.258,-0.847043
7.68333,275.275,-0.847078
7.685,275.291,-0.847113
7.68667,275.308,-0.847144
7.68833,275.325,-0.847179
7.69,275.341,-0.847216
7.69167,275.358,-0.84725
7.69333,275.375,-0.84729
7.695,275.391,-0.847331
7.69667,275.408,-0.847368
7.69833,275.425,-0.847407
7.7,275.442,-0.847442
7.70167,275.458,-0.847472
7.70333,275.475,-0.847492
7.705,275.491,-0.847504
7.70667,275.508,-0.847521
7.70833,275.525,-0.847535
7.71,275.541,-0.847553
7.71167,275.558,-0.84757
7.71333,275.574,-0.847585
7.715,275.591,-0.847597
7.71667,275.608,-0.847608
7.71833,275.625,-0.84762
7.72,275.642,-0.847644
7.72167,275.658,-0.847663
7.72333,275.675,-0.847682
7.725,275.692,-0.847709
7.72667,275.708,-0.847738
7.72833,275.725,-0.847768
7.73,275.742,-0.847799
7.73167,275.758,-0.847824
7.73333,275.775,-0.847853
7.735,275.791,-0.847884
7.73667,275.808,-0.847917
7.73833,275.825,-0.847957
7.74,275.841,-0.847997
7.74167,275.858,-0.848026
7.74333,275.875,-0.848053
7.745,275.891,-0.848073
7.74667,275.908,-0.848088
7.74833,275.924,-0.848096
7.75,275.941,-0.848105
7.75167,275.958,-0.84812
7.75333,275.974,-0.848141
7.755,275.991,-0.848167
7.75667,276.008,-0.848203
7.75833,276.025,-0.848247
7.76,276.041,-0.848283
7.76167,276.058,-0.848326
7.76333,276.075,-0.848353
7.765,276.091,-0.848381
7.76667,276.108,-0.848402
7.76833,276.125,-0.84842
7.77,276.141,-0.848426
7.77167,276.158,-0.848421
7.77333,276.175,-0.848429
7.775,276.191,-0.848434
7.77667,276.208,-0.848447
7.77833,276.225,-0.84847
7.78,276.242,-0.848501
7.78167,276.258,-0.848532
7.78333,276.275,-0.848562
7.785,276.291,-0.848601
7.78667,276.308,-0.848639
7.78833,276.325,-0.848666
7.79,276.341,-0.848682
7.79167,276.358,-0.848691
7.79333,276.374,-0.848708
7.795,276.391,-0.848726
7.79667,276.408,-0.848747
7.79833,276.425,-0.84877
7.8,276.441,-0.848793
7.80167,276.458,-0.848826
7.80333,276.474,-0.848866
7.805,276.491,-0.848904
7.80667,276.508,-0.848945
7.80833,276.525,-0.848995
7.81,276.541,-0.849045
7.81167,276.558,-0.849098
7.81333,276.574,-0.849144
7.815,276.591,-0.849185
7.81667,276.608,-0.849219
7.81833,276.625,-0.849252
7.82,276.641,-0.849278
7.82167,276.658,-0.849291
7.82333,276.674,-0.849306
7.825,276.691,-0.849322
7.82667,276.708,-0.849346
7.82833,276.724,-0.849368
7.83,276.741,-0.849393
7.83167,276.757,-0.849414
7.83333,276.774,-0.849427
7.835,276.791,-0.84944
7.83667,276.808,-0.849449
7.83833,276.824,-0.84945
7.84,276.841,-0.849457
7.84167,276.858,-0.849467
7.84333,276.874,-0.849484
7.845,276.891,-0.84951
7.84667,276.907,-0.849542
7.84833,276.925,-0.849588
7.85,276.941,-0.849626
7.85167,276.958,-0.849668
7.85333,276.975,-0.849702
7.855,276.991,-0.849741
7.85667,277.008,-0.849762
7.85833,277.025,-0.849782
7.86,277.041,-0.849797
7.86167,277.058,-0.849804
7.86333,277.074,-0.84981
7.865,277.091,-0.849818
7.86667,277.107,-0.849828
7.86833,277.124,-0.849843
7.87,277.141,-0.849868
7.87167,277.158,-0.8499
7.87333,277.174,-0.849938
7.875,277.191,-0.849979
7.87667,277.208,-0.850028
7.87833,277.225,-0.85008
7.88,277.242,-0.850124
7.88167,277.258,-0.850161
7.88333,277.275,-0.85019
7.885,277.291,-0.850209
7.88667,277.308,-0.850228
7.88833,277.325,-0.850243
7.89,277.341,-0.85026
7.89167,277.358,-0.850276
7.89333,277.374,-0.850305
7.895,277.391,-0.850334
7.89667,277.408,-0.850373
7.89833,277.424,-0.850412
7.9,277.441,-0.850449
7.90167,277.458,-0.850481
7.90333,277.475,-0.850515
7.905,277.491,-0.850542
7.90667,277.508,-0.850565
7.90833,277.525,-0.850589
7.91,277.541,-0.850615
7.91167,277.558,-0.850647
7.91333,277.574,-0.850679
7.915,277.591,-0.850712
7.91667,277.608,-0.85074
7.91833,277.624,-0.850759
7.92,277.641,-0.850775
7.92167,277.657,-0.850792
7.92333,277.674,-0.850804
7.925,277.691,-0.850812
7.92667,277.708,-0.85083
7.92833,277.724,-0.850847
7.93,277.741,-0.850862
7.93167,277.758,-0.850878
7.93333,277.774,-0.8509
7.935,277.791,-0.850925
7.93667,277.807,-0.850954
7.93833,277.824,-0.850989
7.94,277.84,-0.85103
7.94167,277.857,-0.851066
7.94333,277.874,-0.851108
7.945,277.89,-0.851155
7.94667,277.907,-0.851208
7.94833,277.924,-0.851249
7.95,277.94,-0.851291
7.95167,277.957,-0.851327
7.95333,277.974,-0.851362
7.955,277.991,-0.851397
7.95667,278.008,-0.851434
7.95833,278.024,-0.851474
7.96,278.041,-0.851501
7.96167,278.057,-0.851525
7.96333,278.074,-0.851542
7.965,278.091,-0.851557
7.96667,278.107,-0.851563
7.96833,278.124,-0.851572
7.97,278.14,-0.85157
7.97167,278.158,-0.851577
7.97333,278.174,-0.851587
7.975,278.191,-0.851608
7.97667,278.208,-0.851635
7.97833,278.224,-0.851662
7.98,278.241,-0.851699
7.98167,278.257,-0.851747
7.98333,278.274,-0.851798
7.985,278.291,-0.851836
7.98667,278.308,-0.851873
7.98833,278.324,-0.851904
7.99,278.341,-0.851932
7.99167,278.357,-0.851964
7.99333,278.374,-0.852001
7.995,278.391,-0.852039
7.99667,278.408,-0.852087
7.99833,278.424,-0.852144
8,278.441,-0.852204
8.00167,278.458,-0.852261
8.00333,278.474,-0.852309
8.005,278.491,-0.852362
8.00667,278.507,-0.852401
8.00833,278.524,-0.852428
8.01,278.54,-0.852443
8.01167,278.557,-0.852445
8.01333,278.574,-0.852438
8.015,278.591,-0.852433
8.01667,278.607,-0.852431
8.01833,278.624,-0.852428
8.02,278.641,-0.852421
8.02167,278.657,-0.852421
8.02333,278.674,-0.852428
8.025,278.691,-0.852444
8.02667,278.707,-0.852463
8.02833,278.724,-0.852487
8.03,278.741,-0.852508
8.03167,278.757,-0.85253
8.03333,278.774,-0.852558
8.035,278.79,-0.852585
8.03667,278.807,-0.852604
8.03833,278.824,-0.85262
8.04,278.84,-0.852634
8.04167,278.857,-0.85265
8.04333,278.874,-0.852664
8.045,278.89,-0.852673
8.04667,278.907,-0.852685
8.04833,278.924,-0.8527
8.05,278.94,-0.852728
8.05167,278.957,-0.852763
8.05333,278.974,-0.852802
8.055,278.99,-0.852838
8.05667,279.007,-0.852876
8.05833,279.024,-0.852912
8.06,279.041,-0.852943
8.06167,279.057,-0.852966
8.06333,279.074,-0.852987
8.065,279.09,-0.852995
8.06667,279.107,-0.85299
8.06833,279.123,-0.852978
8.07,279.14,-0.85296
8.07167,279.157,-0.852944
8.07333,279.173,-0.852931
8.075,279.19,-0.85292
8.07667,279.207,-0.852909
8.07833,279.224,-0.852909
8.08,279.24,-0.852913
8.08167,279.257,-0.852928
8.08333,279.274,-0.852946
8.085,279.291,-0.852961
8.08667,279.307,-0.852981
8.08833,279.324,-0.853002
8.09,279.34,-0.853015
8.09167,279.357,-0.853035
8.09333,279.374,-0.85306
8.095,279.391,-0.853084
8.09667,279.407,-0.853107
8.09833,279.424,-0.853139
8.1,279.441,-0.853164
8.10167,279.457,-0.853189
8.10333,279.474,-0.853216
8.105,279.49,-0.853248
8.10667,279.507,-0.853273
8.10833,279.523,-0.853304
8.11,279.54,-0.85334
8.11167,279.557,-0.853383
8.11333,279.573,-0.853419
8.115,279.59,-0.853455
8.11667,279.606,-0.85349
8.11833,279.623,-0.853515
8.12,279.64,-0.853531
8.12167,279.657,-0.853536
8.12333,279.674,-0.853538
8.125,279.69,-0.853536
8.12667,279.707,-0.853536
8.12833,279.724,-0.853539
8.13,279.74,-0.853545
8.13167,279.757,-0.853546
8.13333,279.774,-0.85356
8.135,279.79,-0.853583
8.13667,279.806,-0.853609
8.13833,279.823,-0.853648
8.14,279.84,-0.853685
8.14167,279.856,-0.853725
8.14333,279.873,-0.853767
8.145,279.889,-0.853816
8.14667,279.906,-0.853863
8.14833,279.923,-0.853907
8.15,279.94,-0.853942
8.15167,279.957,-0.85397
8.15333,279.973,-0.853993
8.155,279.99,-0.854008
8.15667,280.006,-0.854023
8.15833,280.023,-0.854036
8.16,280.04,-0.854037
8.16167,280.057,-0.854035
8.16333,280.073,-0.854042
8.165,280.09,-0.854053
8.16667,280.107,-0.854059
8.16833,280.123,-0.854072
8.17,280.14,-0.854095
8.17167,280.156,-0.854121
8.17333,280.173,-0.854141
8.175,280.19,-0.854166
8.17667,280.206,-0.854207
8.17833,280.223,-0.854244
8.18,280.24,-0.854287
8.18167,280.257,-0.854329
8.18333,280.273,-0.854369
8.185,280.29,-0.854405
8.18667,280.307,-0.854432
8.18833,280.323,-0.854464
8.19,280.34,-0.854488
8.19167,280.356,-0.85451
8.19333,280.373,-0.85453
8.195,280.389,-0.854545
8.19667,280.406,-0.854554
8.19833,280.423,-0.85456
8.2,280.44,-0.854569
8.20167,280.456,-0.854583
8.20333,280.473,-0.8546
8.205,280.49,-0.854617
8.20667,280.507,-0.854636
8.20833,280.523,-0.854657
8.21,280.539,-0.854675
8.21167,280.556,-0.854698
8.21333,280.573,-0.854724
8.215,280.589,-0.854749
8.21667,280.606,-0.854776
8.21833,280.623,-0.854805
8.22,280.64,-0.854823
8.22167,280.656,-0.854842
8.22333,280.673,-0.854858
8.225,280.689,-0.854857
8.22667,280.706,-0.854856
8.22833,280.722,-0.854854
8.23,280.739,-0.854854
8.23167,280.756,-0.85485
8.23333,280.773,-0.854845
8.235,280.789,-0.854849
8.23667,280.806,-0.854872
8.23833,280.822,-0.854909
8.24,280.839,-0.854948
8.24167,280.856,-0.854999
8.24333,280.872,-0.855058
8.245,280.889,-0.855104
8.24667,280.905,-0.855145
8.24833,280.923,-0.855174
8.25,280.939,-0.855199
8.25167,280.956,-0.855224
8.25333,280.972,-0.855243
8.255,280.989,-0.855255
8.25667,281.006,-0.855262
8.25833,281.023,-0.855257
8.26,281.039,-0.855247
8.26167,281.056,-0.855241
8.26333,281.072,-0.855245
8.265,281.089,-0.85524
8.26667,281.106,-0.855243
8.26833,281.123,-0.855259
8.27,281.139,-0.855286
8.27167,281.156,-0.85532
8.27333,281.173,-0.855356
8.275,281.189,-0.855402
8.27667,281.206,-0.855447
8.27833,281.222,-0.855492
8.28,281.239,-0.855533
8.28167,281.255,-0.855571
8.28333,281.272,-0.855609
8.285,281.289,-0.85565
8.28667,281.305,-0.855685
8.28833,281.322,-0.855725
8.29,281.339,-0.855761
8.29167,281.356,-0.855799
8.29333,281.373,-0.855843
8.295,281.389,-0.855878
8.29667,281.406,-0.855915
8.29833,281.423,-0.855958
8.3,281.439,-0.856
8.30167,281.456,-0.856039
8.30333,281.472,-0.856078
8.305,281.489,-0.856112
8.30667,281.506,-0.856139
8.30833,281.522,-0.856159
8.31,281.539,-0.856168
8.31167,281.556,-0.856171
8.31333,281.572,-0.856171
8.315,281.589,-0.856161
8.31667,281.606,-0.856156
8.31833,281.622,-0.856155
8.32,281.639,-0.85617
8.32167,281.655,-0.856189
8.32333,281.672,-0.856206
8.325,281.689,-0.856238
8.32667,281.706,-0.856275
8.32833,281.722,-0.856315
8.33,281.739,-0.856359
8.33167,281.755,-0.856408
8.33333,281.772,-0.85645
8.335,281.788,-0.856478
8.33667,281.805,-0.856507
8.33833,281.822,-0.856538
8.34,281.838,-0.856571
8.34167,281.855,-0.8566
8.34333,281.872,-0.856624
8.345,281.889,-0.856643
8.34667,281.905,-0.856658
8.34833,281.922,-0.856679
8.35,281.939,-0.856701
8.35167,281.955,-0.856724
8.35333,281.972,-0.856739
8.355,281.989,-0.856755
8.35667,282.005,-0.856779
8.35833,282.021,-0.856803
8.36,282.038,-0.856832
8.36167,282.055,-0.856867
8.36333,282.072,-0.856903
8.365,282.089,-0.856935
8.36667,282.105,-0.856964
8.36833,282.122,-0.856992
8.37,282.138,-0.857028
8.37167,282.155,-0.857064
8.37333,282.172,-0.857099
8.375,282.188,-0.857133
8.37667,282.205,-0.857168
8.37833,282.222,-0.857195
8.38,282.238,-0.85722
8.38167,282.255,-0.857231
8.38333,282.272,-0.857228
8.385,282.288,-0.857221
8.38667,282.305,-0.857216
8.38833,282.322,-0.857223
8.39,282.339,-0.857235
8.39167,282.355,-0.857254
8.39333,282.372,-0.857277
8.395,282.389,-0.857309
8.39667,282.405,-0.857349
8.39833,282.422,-0.857396
8.4,282.438,-0.85744
8.40167,282.455,-0.85749
8.40333,282.471,-0.85754
8.405,282.488,-0.857581
8.40667,282.505,-0.857627
8.40833,282.521,-0.857677
8.41,282.538,-0.857721
8.41167,282.555,-0.857753
8.41333,282.572,-0.857775
8.415,282.588,-0.85779
8.41667,282.605,-0.857802
8.41833,282.622,-0.857815
8.42,282.638,-0.857824
8.42167,282.655,-0.857838
8.42333,282.671,-0.85786
8.425,282.688,-0.857884
8.42667,282.705,-0.857918
8.42833,282.721,-0.857951
8.43,282.738,-0.857986
8.43167,282.754,-0.858029
8.43333,282.771,-0.858068
8.435,282.788,-0.85811
8.43667,282.805,-0.858149
8.43833,282.821,-0.858187
8.44,282.838,-0.85823
8.44167,282.855,-0.858273
8.44333,282.871,-0.858325
8.445,282.888,-0.858382
8.44667,282.904,-0.858442
8.44833,282.921,-0.858505
8.45,282.938,-0.85858
8.45167,282.954,-0.858705
8.45333,282.971,-0.858985
8.455,282.988,-0.859563
8.45667,283.004,-0.861128
8.45833,283.021,-0.865531
8.46,283.038,-0.875229
8.46167,283.054,-0.893393
8.46333,283.071,-0.922778
8.465,283.087,-0.94134
8.46667,283.104,-0.956533
8.46833,283.12,-0.97033
8.47,283.136,-0.981054
8.47167,283.152,-0.992664
8.47333,283.169,-0.99742
8.475,283.185,-0.994119
8.47667,283.201,-0.984946
8.47833,283.218,-0.969712
8.48,283.235,-0.959388
8.48167,283.252,-0.944291
8.48333,283.268,-0.942645
8.485,283.285,-0.938112
8.48667,283.301,-0.928344
8.48833,283.318,-0.912738
8.49,283.335,-0.898219
8.49167,283.351,-0.887929
8.49333,283.368,-0.880597
8.495,283.385,-0.876347
8.49667,283.402,-0.874532
8.49833,283.418,-0.873852
8.5,283.435,-0.873908
8.50167,283.452,-0.873838
8.50333,283.468,-0.873719
8.505,283.485,-0.873733
8.50667,283.502,-0.87374
8.50833,283.519,-0.873676
8.51,283.535,-0.873597
8.51167,283.552,-0.873486
8.51333,283.568,-0.873448
8.515,283.585,-0.873435
8.51667,283.602,-0.873508
8.51833,283.618,-0.873603
8.52,283.635,-0.873686
8.52167,283.652,-0.873709
8.52333,283.669,-0.873686
8.525,283.686,-0.873689
8.52667,283.702,-0.873619
8.52833,283.718,-0.87342
8.53,283.735,-0.873213
8.53167,283.752,-0.87307
8.53333,283.769,-0.872921
8.535,283.786,-0.87284
8.53667,283.802,-0.87281
8.53833,283.819,-0.872811
8.54,283.836,-0.872819
8.54167,283.853,-0.872814
8.54333,283.869,-0.872818
8.545,283.885,-0.872828
8.54667,283.902,-0.872823
8.54833,283.919,-0.872811
8.55,283.935,-0.872789
8.55167,283.952,-0.872755
8.55333,283.969,-0.872712
8.555,283.986,-0.872684
8.55667,284.002,-0.872627
8.55833,284.019,-0.87256
8.56,284.036,-0.872506
8.56167,284.052,-0.872479
8.56333,284.069,-0.872464
8.565,284.085,-0.872451
8.56667,284.102,-0.872436
8.56833,284.119,-0.872427
8.57,284.136,-0.872429
8.57167,284.152,-0.872434
8.57333,284.169,-0.872443
8.575,284.186,-0.872456
8.57667,284.202,-0.872469
8.57833,284.219,-0.872485
8.58,284.236,-0.872495
8.58167,284.252,-0.8725
8.58333,284.269,-0.872498
8.585,284.286,-0.87249
8.58667,284.302,-0.87247
8.58833,284.319,-0.87241
8.59,284.335,-0.872367
8.59167,284.352,-0.872336
8.59333,284.369,-0.872319
8.595,284.385,-0.872309
8.59667,284.402,-0.872317
8.59833,284.419,-0.872327
8.6,284.435,-0.872348
8.60167,284.452,-0.872379
8.60333,284.469,-0.872409
8.605,284.485,-0.872442
8.60667,284.502,-0.872468
8.60833,284.518,-0.872496
8.61,284.535,-0.87252
8.61167,284.552,-0.872525
8.61333,284.568,-0.872523
8.615,284.585,-0.872525
8.61667,284.602,-0.872529
8.61833,284.619,-0.872528
8.62,284.636,-0.872521
8.62167,284.652,-0.872518
8.62333,284.669,-0.872514
8.625,284.686,-0.872513
8.62667,284.702,-0.872509
8.62833,284.719,-0.872502
8.63,284.735,-0.872492
8.63167,284.752,-0.872471
8.63333,284.769,-0.872448
8.635,284.786,-0.872433
8.63667,284.803,-0.872424
8.63833,284.819,-0.872428
8.64,284.836,-0.87244
8.64167,284.853,-0.872448
8.64333,284.869,-0.87247
8.645,284.885,-0.872498
8.64667,284.902,-0.872527
8.64833,284.919,-0.872548
8.65,284.936,-0.872551
8.65167,284.952,-0.87255
8.65333,284.969,-0.872541
8.655,284.986,-0.872532
8.65667,285.002,-0.872524
8.65833,285.019,-0.872515
8.66,285.036,-0.872508
8.66167,285.053,-0.872509
8.66333,285.069,-0.872518
8.665,285.086,-0.872535
8.66667,285.103,-0.872553
8.66833,285.119,-0.872573
8.67,285.136,-0.87259
8.67167,285.152,-0.872607
8.67333,285.169,-0.87263
8.675,285.186,-0.872656
8.67667,285.203,-0.872682
8.67833,285.219,-0.872708
8.68,285.236,-0.872731
8.68167,285.252,-0.872753
8.68333,285.269,-0.872782
8.685,285.286,-0.872816
8.68667,285.302,-0.872851
8.68833,285.319,-0.872881
8.69,285.336,-0.872906
8.69167,285.352,-0.872932
8.69333,285.369,-0.872953
8.695,285.386,-0.872968
8.69667,285.402,-0.872977
8.69833,285.419,-0.872987
8.7,285.436,-0.872988
8.70167,285.452,-0.872985
8.70333,285.469,-0.87298
8.705,285.485,-0.872977
8.70667,285.502,-0.87298
8.70833,285.519,-0.872984
8.71,285.535,-0.873003
8.71167,285.552,-0.873025
8.71333,285.569,-0.87305
8.715,285.586,-0.873086
8.71667,285.602,-0.873132
8.71833,285.619,-0.873179
8.72,285.635,-0.873224
8.72167,285.652,-0.873261
8.72333,285.669,-0.873289
8.725,285.685,-0.873317
8.72667,285.702,-0.873345
8.72833,285.719,-0.873369
8.73,285.735,-0.873395
8.73167,285.752,-0.873411
8.73333,285.768,-0.873434
8.735,285.785,-0.873466
8.73667,285.801,-0.873494
8.73833,285.818,-0.873519
8.74,285.835,-0.873557
8.74167,285.852,-0.873594
8.74333,285.868,-0.873624
8.745,285.885,-0.87365
8.74667,285.902,-0.873666
8.74833,285.919,-0.873673
8.75,285.935,-0.873675
8.75167,285.952,-0.873668
8.75333,285.968,-0.873661
8.755,285.985,-0.873649
8.75667,286.001,-0.873637
8.75833,286.018,-0.87362
8.76,286.034,-0.873616
8.76167,286.051,-0.873615
8.76333,286.068,-0.873614
8.765,286.085,-0.873618
8.76667,286.102,-0.873621
8.76833,286.118,-0.873629
8.77,286.135,-0.873642
8.77167,286.152,-0.873662
8.77333,286.168,-0.873686
8.775,286.185,-0.873714
8.77667,286.201,-0.873751
8.77833,286.218,-0.873791
8.78,286.234,-0.873831
8.78167,286.251,-0.873875
8.78333,286.268,-0.873919
8.785,286.285,-0.873958
8.78667,286.302,-0.873986
8.78833,286.318,-0.87401
8.79,286.335,-0.874038
8.79167,286.352,-0.874065
8.79333,286.369,-0.874093
8.795,286.385,-0.874123
8.79667,286.402,-0.874159
8.79833,286.418,-0.874201
8.8,286.435,-0.874247
8.80167,286.452,-0.874292
8.80333,286.469,-0.87433
8.805,286.485,-0.874367
8.80667,286.502,-0.874405
8.80833,286.519,-0.874439
8.81,286.535,-0.874469
8.81167,286.552,-0.874495
8.81333,286.568,-0.874527
8.815,286.585,-0.874557
8.81667,286.602,-0.874589
8.81833,286.618,-0.874627
8.82,286.635,-0.874672
8.82167,286.652,-0.874711
8.82333,286.668,-0.87475
8.825,286.685,-0.874788
8.82667,286.702,-0.874817
8.82833,286.718,-0.874846
8.83,286.735,-0.874865
8.83167,286.752,-0.874887
8.83333,286.768,-0.8749
8.835,286.785,-0.874912
8.83667,286.802,-0.874925
8.83833,286.818,-0.874943
8.84,286.835,-0.87496
8.84167,286.851,-0.874981
8.84333,286.868,-0.875009
8.845,286.884,-0.875039
8.84667,286.901,-0.875067
8.84833,286.918,-0.875104
8.85,286.934,-0.875144
8.85167,286.951,-0.875182
8.85333,286.968,-0.875227
8.855,286.985,-0.875269
8.85667,287.001,-0.87531
8.85833,287.018,-0.875349
8.86,287.035,-0.875386
8.86167,287.052,-0.875434
8.86333,287.068,-0.875476
8.865,287.085,-0.875515
8.86667,287.102,-0.875552
8.86833,287.119,-0.875585
8.87,287.135,-0.875608
8.87167,287.152,-0.875636
8.87333,287.168,-0.875665
8.875,287.185,-0.875698
8.87667,287.201,-0.875729
8.87833,287.218,-0.87577
8.88,287.235,-0.87582
8.88167,287.251,-0.875868
8.88333,287.268,-0.875913
8.885,287.285,-0.875958
8.88667,287.301,-0.876008
8.88833,287.318,-0.87605
8.89,287.335,-0.87609
8.89167,287.351,-0.876132
8.89333,287.368,-0.876173
8.895,287.385,-0.876205
8.89667,287.402,-0.876229
8.89833,287.418,-0.876253
8.9,287.435,-0.87627
8.90167,287.451,-0.876288
8.90333,287.468,-0.876314
8.905,287.485,-0.876344
8.90667,287.501,-0.876377
8.90833,287.518,-0.876415
8.91,287.534,-0.876457
8.91167,287.551,-0.876499
8.91333,287.567,-0.876543
8.915,287.584,-0.876591
8.91667,287.601,-0.87664
8.91833,287.618,-0.876683
8.92,287.634,-0.876721
8.92167,287.651,-0.876756
8.92333,287.668,-0.876785
8.925,287.685,-0.876813
8.92667,287.701,-0.876839
8.92833,287.718,-0.876871
8.93,287.735,-0.876904
8.93167,287.751,-0.876936
8.93333,287.768,-0.876968
8.935,287.784,-0.876995
8.93667,287.801,-0.877023
8.93833,287.817,-0.877056
8.94,287.834,-0.877089
8.94167,287.851,-0.877124
8.94333,287.868,-0.877159
8.945,287.885,-0.877193
8.94667,287.901,-0.87723
8.94833,287.918,-0.877273
8.95,287.935,-0.877316
8.95167,287.951,-0.877359
8.95333,287.967,-0.877407
8.955,287.984,-0.877455
8.95667,288.001,-0.877508
8.95833,288.017,-0.877557
8.96,288.034,-0.877609
8.96167,288.051,-0.877659
8.96333,288.067,-0.877708
8.965,288.084,-0.877756
8.96667,288.101,-0.877811
8.96833,288.118,-0.877858
8.97,288.134,-0.877899
8.97167,288.15,-0.877949
8.97333,288.168,-0.878
8.975,288.184,-0.878051
8.97667,288.201,-0.878095
8.97833,288.218,-0.878142
8.98,288.235,-0.878176
8.98167,288.251,-0.878211
8.98333,288.268,-0.878245
8.985,288.284,-0.878281
8.98667,288.301,-0.878326
8.98833,288.318,-0.878372
8.99,288.334,-0.878433
8.99167,288.351,-0.878519
8.99333,288.368,-0.878589
8.995,288.384,-0.878654
8.99667,288.401,-0.87872
8.99833,288.417,-0.878776
9,288.434,-0.878829
9.00167,288.451,-0.878869
9.00333,288.467,-0.878906
9.005,288.484,-0.878941
9.00667,288.501,-0.878971
9.00833,288.517,-0.878998
9.01,288.534,-0.87902
9.01167,288.551,-0.879044
9.01333,288.567,-0.879067
9.015,288.584,-0.87909
9.01667,288.601,-0.879115
9.01833,288.617,-0.879148
9.02,288.634,-0.879189
9.02167,288.651,-0.879239
9.02333,288.667,-0.879297
9.025,288.684,-0.879354
9.02667,288.7,-0.87941
9.02833,288.717,-0.879457
9.03,288.734,-0.879506
9.03167,288.75,-0.879549
9.03333,288.767,-0.879587
9.035,288.784,-0.879616
9.03667,288.801,-0.879643
9.03833,288.817,-0.879666
9.04,288.834,-0.879694
9.04167,288.85,-0.879729
9.04333,288.867,-0.879767
9.045,288.884,-0.879812
9.04667,288.901,-0.879864
9.04833,288.918,-0.879929
9.05,288.934,-0.879993
9.05167,288.951,-0.880062
9.05333,288.967,-0.880196
9.055,288.984,-0.880268
9.05667,289.001,-0.880339
9.05833,289.018,-0.880412
9.06,289.034,-0.880475
9.06167,289.051,-0.880535
9.06333,289.067,-0.880592
9.065,289.084,-0.880652
9.06667,289.1,-0.880701
9.06833,289.117,-0.88076
9.07,289.134,-0.880819
9.07167,289.15,-0.88088
9.07333,289.167,-0.880937
9.075,289.184,-0.880998
9.07667,289.201,-0.881063
9.07833,289.217,-0.881126
9.08,289.234,-0.881185
9.08167,289.25,-0.881238
9.08333,289.267,-0.881284
9.085,289.284,-0.881321
9.08667,289.3,-0.881364
9.08833,289.317,-0.8814
9.09,289.333,-0.881435
9.09167,289.35,-0.881474
9.09333,289.367,-0.881509
9.095,289.384,-0.88155
9.09667,289.4,-0.881602
9.09833,289.417,-0.881651
9.1,289.434,-0.881696
9.10167,289.451,-0.881751
9.10333,289.467,-0.881814
9.105,289.484,-0.881879
9.10667,289.5,-0.88195
9.10833,289.517,-0.882026
9.11,289.533,-0.8821
9.11167,289.55,-0.882173
9.11333,289.567,-0.882248
9.115,289.583,-0.882317
9.11667,289.6,-0.882371
9.11833,289.617,-0.882414
9.12,289.633,-0.882452
9.12167,289.65,-0.882483
9.12333,289.667,-0.88251
9.125,289.684,-0.882547
9.12667,289.7,-0.882588
9.12833,289.717,-0.88263
9.13,289.734,-0.882686
9.13167,289.75,-0.882757
9.13333,289.767,-0.882834
9.135,289.784,-0.882981
9.13667,289.8,-0.883108
9.13833,289.817,-0.883219
9.14,289.834,-0.883301
9.14167,289.85,-0.883367
9.14333,289.867,-0.883416
9.145,289.884,-0.883455
9.14667,289.9,-0.883485
9.14833,289.917,-0.883508
9.15,289.933,-0.883522
9.15167,289.95,-0.883541
9.15333,289.967,-0.883565
9.155,289.984,-0.883597
9.15667,290,-0.88364
9.15833,290.017,-0.88369
9.16,290.033,-0.88375
9.16167,290.05,-0.88381
9.16333,290.067,-0.88387
9.165,290.083,-0.88393
9.16667,290.1,-0.88399
9.16833,290.117,-0.88406
9.17,290.134,-0.884131
9.17167,290.15,-0.884197
9.17333,290.167,-0.884264
9.175,290.184,-0.88433
9.17667,290.2,-0.884398
9.17833,290.217,-0.884464
9.18,290.234,-0.884522
9.18167,290.25,-0.884574
9.18333,290.267,-0.884626
9.185,290.283,-0.884671
9.18667,290.3,-0.884711
9.18833,290.317,-0.884748
9.19,290.334,-0.88479
9.19167,290.351,-0.884835
9.19333,290.367,-0.884882
9.195,290.383,-0.884932
9.19667,290.4,-0.884999
9.19833,290.417,-0.885071
9.2,290.434,-0.885137
9.20167,290.45,-0.8852
9.20333,290.467,-0.885268
9.205,290.484,-0.885338
9.20667,290.5,-0.885399
9.20833,290.517,-0.885455
9.21,290.533,-0.885513
9.21167,290.55,-0.885568
9.21333,290.567,-0.885624
9.215,290.583,-0.885676
9.21667,290.6,-0.88573
9.21833,290.616,-0.88577
9.22,290.633,-0.885814
9.22167,290.65,-0.88586
9.22333,290.667,-0.885911
9.225,290.683,-0.885962
9.22667,290.7,-0.886007
9.22833,290.716,-0.88606
9.23,290.733,-0.886105
9.23167,290.75,-0.886157
9.23333,290.767,-0.886219
9.235,290.783,-0.886286
9.23667,290.8,-0.886342
9.23833,290.817,-0.886393
9.24,290.833,-0.886438
9.24167,290.85,-0.88648
9.24333,290.866,-0.886521
9.245,290.883,-0.886561
9.24667,290.899,-0.886609
9.24833,290.916,-0.886655
9.25,290.933,-0.886696
9.25167,290.95,-0.886742
9.25333,290.966,-0.88679
9.255,290.983,-0.88685
9.25667,291,-0.886912
9.25833,291.017,-0.886968
9.26,291.033,-0.887022
9.26167,291.049,-0.887081
9.26333,291.066,-0.887143
9.265,291.083,-0.887207
9.26667,291.1,-0.887265
9.26833,291.116,-0.887323
9.27,291.133,-0.887373
9.27167,291.15,-0.887424
9.27333,291.166,-0.887471
9.275,291.183,-0.887512
9.27667,291.2,-0.887548
9.27833,291.217,-0.887582
9.28,291.233,-0.887631
9.28167,291.25,-0.887695
9.28333,291.266,-0.88777
9.285,291.283,-0.887893
9.28667,291.3,-0.888003
9.28833,291.316,-0.888115
9.29,291.333,-0.888203
9.29167,291.349,-0.888281
9.29333,291.366,-0.888347
9.295,291.383,-0.888405
9.29667,291.399,-0.888452
9.29833,291.416,-0.888491
9.3,291.432,-0.888525
9.30167,291.449,-0.888563
9.30333,291.466,-0.8886
9.305,291.483,-0.888639
9.30667,291.5,-0.888681
9.30833,291.516,-0.888731
9.31,291.533,-0.888785
9.31167,291.549,-0.888848
9.31333,291.566,-0.888918
9.315,291.583,-0.888978
9.31667,291.599,-0.889043
9.31833,291.616,-0.889113
9.32,291.633,-0.889184
9.32167,291.65,-0.889247
9.32333,291.666,-0.889304
9.325,291.683,-0.889356
9.32667,291.699,-0.889405
9.32833,291.716,-0.88945
9.33,291.732,-0.88949
9.33167,291.749,-0.88952
9.33333,291.766,-0.889539
9.335,291.783,-0.889561
9.33667,291.799,-0.889593
9.33833,291.816,-0.889629
9.34,291.833,-0.88967
9.34167,291.849,-0.889716
9.34333,291.865,-0.889764
9.345,291.882,-0.889825
9.34667,291.899,-0.889882
9.34833,291.916,-0.889936
9.35,291.932,-0.889997
9.35167,291.949,-0.890055
9.35333,291.966,-0.89011
9.355,291.982,-0.890159
9.35667,291.999,-0.890204
9.35833,292.016,-0.890254
9.36,292.032,-0.890304
9.36167,292.049,-0.89036
9.36333,292.066,-0.890426
9.365,292.083,-0.890488
9.36667,292.099,-0.890553
9.36833,292.116,-0.890626
9.37,292.133,-0.890701
9.37167,292.149,-0.89078
9.37333,292.166,-0.890849
9.375,292.183,-0.890922
9.37667,292.199,-0.890992
9.37833,292.216,-0.89106
9.38,292.232,-0.891128
9.38167,292.249,-0.891205
9.38333,292.266,-0.891274
9.385,292.282,-0.891338
9.38667,292.299,-0.891399
9.38833,292.316,-0.891462
9.39,292.332,-0.89152
9.39167,292.349,-0.891567
9.39333,292.366,-0.89161
9.395,292.382,-0.891651
9.39667,292.399,-0.891695
9.39833,292.416,-0.891747
9.4,292.432,-0.891803
9.40167,292.449,-0.891862
9.40333,292.466,-0.891917
9.405,292.482,-0.891979
9.40667,292.499,-0.892038
9.40833,292.516,-0.892105
9.41,292.532,-0.892163
9.41167,292.549,-0.89222
9.41333,292.565,-0.892276
9.415,292.582,-0.892338
9.41667,292.599,-0.892403
9.41833,292.616,-0.892465
9.42,292.633,-0.892521
9.42167,292.649,-0.892574
9.42333,292.666,-0.892627
9.425,292.682,-0.892677
9.42667,292.699,-0.89272
9.42833,292.716,-0.892764
9.43,292.732,-0.892817
9.43167,292.749,-0.892867
9.43333,292.765,-0.892922
9.435,292.782,-0.892984
9.43667,292.798,-0.89305
9.43833,292.815,-0.893122
9.44,292.832,-0.893187
9.44167,292.849,-0.893249
9.44333,292.865,-0.893309
9.445,292.882,-0.893368
9.44667,292.899,-0.893417
9.44833,292.915,-0.893463
9.45,292.932,-0.893502
9.45167,292.948,-0.893546
9.45333,292.965,-0.893588
9.455,292.982,-0.893637
9.45667,292.998,-0.893696
9.45833,293.015,-0.893751
9.46,293.032,-0.893812
9.46167,293.048,-0.893878
9.46333,293.065,-0.893949
9.465,293.082,-0.894026
9.46667,293.098,-0.894108
9.46833,293.115,-0.894181
9.47,293.132,-0.894237
9.47167,293.149,-0.89428
9.47333,293.165,-0.894321
9.475,293.182,-0.894364
9.47667,293.198,-0.894398
9.47833,293.215,-0.894423
9.48,293.232,-0.894443
9.48167,293.248,-0.894464
9.48333,293.265,-0.894488
9.485,293.281,-0.894516
9.48667,293.299,-0.894554
9.48833,293.315,-0.894594
9.49,293.332,-0.894637
9.49167,293.348,-0.894692
9.49333,293.365,-0.894753
9.495,293.381,-0.894817
9.49667,293.398,-0.894881
9.49833,293.415,-0.894941
9.5,293.431,-0.895002
9.50167,293.448,-0.895066
9.50333,293.465,-0.895128
9.505,293.481,-0.895184
9.50667,293.498,-0.895239
9.50833,293.514,-0.895296
9.51,293.531,-0.895343
9.51167,293.548,-0.895396
9.51333,293.564,-0.895455
9.515,293.581,-0.895518
9.51667,293.598,-0.895578
9.51833,293.614,-0.895646
9.52,293.631,-0.895717
9.52167,293.647,-0.89579
9.52333,293.664,-0.895864
9.525,293.681,-0.89593
9.52667,293.697,-0.895995
9.52833,293.714,-0.896049
9.53,293.731,-0.8961
9.53167,293.748,-0.896141
9.53333,293.764,-0.896169
9.535,293.781,-0.89618
9.53667,293.798,-0.896185
9.53833,293.814,-0.896197
9.54,293.831,-0.896216
9.54167,293.847,-0.896233
9.54333,293.864,-0.89625
9.545,293.881,-0.896276
9.54667,293.897,-0.896308
9.54833,293.914,-0.896352
9.55,293.931,-0.896402
9.55167,293.947,-0.896449
9.55333,293.964,-0.896495
9.555,293.98,-0.896547
9.55667,293.997,-0.896609
9.55833,294.014,-0.896674
9.56,294.03,-0.896733
9.56167,294.047,-0.896793
9.56333,294.064,-0.89686
9.565,294.081,-0.896922
9.56667,294.097,-0.896979
9.56833,294.114,-0.897035
9.57,294.131,-0.897087
9.57167,294.148,-0.897136
9.57333,294.164,-0.897177
9.575,294.181,-0.897228
9.57667,294.198,-0.897285
9.57833,294.214,-0.897341
9.58,294.231,-0.897402
9.58167,294.247,-0.897459
9.58333,294.264,-0.897525
9.585,294.28,-0.897595
9.58667,294.297,-0.897663
9.58833,294.314,-0.897726
9.59,294.33,-0.897782
9.59167,294.347,-0.897825
9.59333,294.364,-0.897868
9.595,294.381,-0.89791
9.59667,294.397,-0.897948
9.59833,294.414,-0.897983
9.6,294.43,-0.898006
9.60167,294.447,-0.898038
9.60333,294.464,-0.898081
9.605,294.48,-0.898127
9.60667,294.497,-0.898178
9.60833,294.514,-0.898241
9.61,294.53,-0.898298
9.61167,294.547,-0.898362
9.61333,294.563,-0.89843
9.615,294.58,-0.898495
9.61667,294.597,-0.898559
9.61833,294.613,-0.898604
9.62,294.63,-0.898647
9.62167,294.647,-0.898688
9.62333,294.663,-0.89873
9.625,294.68,-0.89878
9.62667,294.697,-0.898831
9.62833,294.713,-0.898885
9.63,294.73,-0.89894
9.63167,294.747,-0.898992
9.63333,294.764,-0.899046
9.635,294.78,-0.899108
9.63667,294.797,-0.89918
9.63833,294.813,-0.899249
9.64,294.83,-0.899313
9.64167,294.846,-0.899378
9.64333,294.863,-0.899451
9.645,294.88,-0.899527
9.64667,294.897,-0.899597
9.64833,294.914,-0.899663
9.65,294.93,-0.899727
9.65167,294.947,-0.899781
9.65333,294.963,-0.899834
9.655,294.98,-0.899882
9.65667,294.997,-0.899925
9.65833,295.013,-0.899971
9.66,295.03,-0.900015
9.66167,295.047,-0.900066
9.66333,295.063,-0.90012
9.665,295.081,-0.900167
9.66667,295.097,-0.900214
9.66833,295.113,-0.900262
9.67,295.13,-0.900314
9.67167,295.146,-0.900366
9.67333,295.163,-0.900414
9.675,295.18,-0.900451
9.67667,295.197,-0.900487
9.67833,295.213,-0.90052
9.68,295.23,-0.900558
9.68167,295.247,-0.900598
9.68333,295.263,-0.900635
9.685,295.28,-0.900672
9.68667,295.296,-0.900719
9.68833,295.313,-0.900778
9.69,295.33,-0.900839
9.69167,295.346,-0.900898
9.69333,295.363,-0.900963
9.695,295.38,-0.901028
9.69667,295.397,-0.901087
9.69833,295.413,-0.901139
9.7,295.43,-0.901189
9.70167,295.446,-0.901235
9.70333,295.463,-0.901277
9.705,295.479,-0.901314
9.70667,295.496,-0.901353
9.70833,295.513,-0.901399
9.71,295.53,-0.901447
9.71167,295.546,-0.901501
9.71333,295.563,-0.901564
9.715,295.579,-0.901633
9.71667,295.596,-0.901707
9.71833,295.613,-0.901799
9.72,295.629,-0.901874
9.72167,295.646,-0.901936
9.72333,295.662,-0.901984
9.725,295.679,-0.902029
9.72667,295.696,-0.902068
9.72833,295.713,-0.902093
9.73,295.729,-0.902119
9.73167,295.746,-0.902146
9.73333,295.762,-0.902177
9.735,295.779,-0.902209
9.73667,295.796,-0.90225
9.73833,295.812,-0.902288
9.74,295.829,-0.902329
9.74167,295.846,-0.902376
9.74333,295.862,-0.902431
9.745,295.879,-0.902479
9.74667,295.895,-0.90251
9.74833,295.912,-0.902533
9.75,295.929,-0.902554
9.75167,295.945,-0.902579
9.75333,295.962,-0.902605
9.755,295.979,-0.90263
9.75667,295.995,-0.902666
9.75833,296.012,-0.902708
9.76,296.028,-0.90276
9.76167,296.045,-0.90281
9.76333,296.062,-0.902866
9.765,296.079,-0.902926
9.76667,296.096,-0.902991
9.76833,296.112,-0.903058
9.77,296.128,-0.903125
9.77167,296.145,-0.903194
9.77333,296.162,-0.903262
9.775,296.179,-0.903325
9.77667,296.195,-0.903395
9.77833,296.212,-0.903453
9.78,296.228,-0.903496
9.78167,296.245,-0.903536
9.78333,296.262,-0.903568
9.785,296.279,-0.9036
9.78667,296.295,-0.903629
9.78833,296.312,-0.903665
9.79,296.328,-0.903695
9.79167,296.345,-0.903723
9.79333,296.361,-0.903757
9.795,296.378,-0.903796
9.79667,296.395,-0.903827
9.79833,296.411,-0.903867
9.8,296.428,-0.903906
9.80167,296.445,-0.903954
9.80333,296.461,-0.904002
9.805,296.478,-0.904039
9.80667,296.495,-0.90408
9.80833,296.511,-0.904115
9.81,296.528,-0.904142
9.81167,296.544,-0.904171
9.81333,296.561,-0.90419
9.815,296.578,-0.904213
9.81667,296.594,-0.904242
9.81833,296.611,-0.904272
9.82,296.627,-0.904307
9.82167,296.644,-0.904353
9.82333,296.661,-0.904406
9.825,296.678,-0.904457
9.82667,296.694,-0.904508
9.82833,296.711,-0.904564
9.83,296.727,-0.904645
9.83167,296.744,-0.904726
9.83333,296.761,-0.904837
9.835,296.777,-0.904959
9.83667,296.794,-0.905057
9.83833,296.811,-0.90512
9.84,296.828,-0.905188
9.84167,296.844,-0.905256
9.84333,296.861,-0.905323
9.845,296.878,-0.90537
9.84667,296.894,-0.905412
9.84833,296.911,-0.905448
9.85,296.927,-0.905486
9.85167,296.944,-0.905522
9.85333,296.96,-0.905559
9.855,296.977,-0.905595
9.85667,296.994,-0.90564
9.85833,297.01,-0.905693
9.86,297.027,-0.90575
9.86167,297.044,-0.905818
9.86333,297.06,-0.905887
9.865,297.077,-0.905957
9.86667,297.094,-0.906023
9.86833,297.11,-0.906084
9.87,297.127,-0.906141
9.87167,297.143,-0.906195
9.87333,297.16,-0.906242
9.875,297.177,-0.906297
9.87667,297.193,-0.906361
9.87833,297.21,-0.906424
9.88,297.227,-0.906488
9.88167,297.243,-0.906541
9.88333,297.26,-0.906605
9.885,297.277,-0.906665
9.88667,297.293,-0.906723
9.88833,297.31,-0.906771
9.89,297.327,-0.906818
9.89167,297.343,-0.90686
9.89333,297.36,-0.906899
9.895,297.377,-0.906939
9.89667,297.393,-0.906977
9.89833,297.41,-0.907015
9.9,297.426,-0.907054
9.90167,297.443,-0.907088
9.90333,297.46,-0.907126
9.905,297.477,-0.907162
9.90667,297.493,-0.907203
9.90833,297.51,-0.907247
9.91,297.527,-0.907294
9.91167,297.543,-0.907339
9.91333,297.56,-0.907381
9.915,297.577,-0.907422
9.91667,297.593,-0.907461
9.91833,297.61,-0.907492
9.92,297.627,-0.907525
9.92167,297.644,-0.907551
9.92333,297.66,-0.907589
9.925,297.676,-0.907632
9.92667,297.693,-0.907686
9.92833,297.71,-0.907754
9.93,297.726,-0.907854
9.93167,297.743,-0.908087
9.93333,297.759,-0.908285
9.935,297.776,-0.908381
9.93667,297.793,-0.908456
9.93833,297.809,-0.908519
9.94,297.826,-0.908574
9.94167,297.843,-0.90862
9.94333,297.86,-0.908658
9.945,297.876,-0.908683
9.94667,297.893,-0.908713
9.94833,297.91,-0.90874
9.95,297.926,-0.90877
9.95167,297.943,-0.908805
9.95333,297.959,-0.908846
9.955,297.976,-0.908885
9.95667,297.992,-0.908931
9.95833,298.009,-0.908975
9.96,298.026,-0.909015
9.96167,298.042,-0.909054
9.96333,298.059,-0.909091
9.965,298.076,-0.909124
9.96667,298.092,-0.909157
9.96833,298.109,-0.909182
9.97,298.125,-0.909205
9.97167,298.143,-0.909232
9.97333,298.159,-0.909265
9.975,298.176,-0.909303
9.97667,298.192,-0.909342
9.97833,298.209,-0.909383
9.98,298.225,-0.909432
9.98167,298.242,-0.909487
9.98333,298.259,-0.909545
9.985,298.275,-0.909595
9.98667,298.292,-0.90964
9.98833,298.308,-0.909681
9.99,298.326,-0.909721
9.99167,298.342,-0.909759
9.99333,298.359,-0.909806
9.995,298.376,-0.909854
9.99667,298.392,-0.909902
9.99833,298.409,-0.909962
10,298.426,-0.91002
10.0017,298.442,-0.91007
10.0033,298.459,-0.910115
10.005,298.475,-0.910158
10.0067,298.492,-0.910197
10.0083,298.509,-0.91023
10.01,298.525,-0.910259
10.0117,298.542,-0.910294
10.0133,298.559,-0.910333
10.015,298.575,-0.910376
10.0167,298.592,-0.910424
10.0183,298.609,-0.910478
10.02,298.625,-0.910533
10.0217,298.642,-0.910586
10.0233,298.659,-0.910641
10.025,298.675,-0.910693
10.0267,298.692,-0.910734
10.0283,298.708,-0.910769
10.03,298.725,-0.9108
10.0317,298.742,-0.910834
10.0333,298.759,-0.910872
10.035,298.775,-0.910912
10.0367,298.792,-0.910958
10.0383,298.808,-0.911008
10.04,298.825,-0.911062
10.0417,298.842,-0.911112
10.0433,298.859,-0.911163
10.045,298.875,-0.911211
10.0467,298.892,-0.911253
10.0483,298.909,-0.911302
10.05,298.925,-0.911352
10.0517,298.942,-0.911404
10.0533,298.958,-0.911464
10.055,298.975,-0.911526
10.0567,298.992,-0.911599
10.0583,299.009,-0.911672
10.06,299.025,-0.911748
10.0617,299.042,-0.91182
10.0633,299.059,-0.911885
10.065,299.075,-0.911942
10.0667,299.092,-0.911993
10.0683,299.108,-0.912039
10.07,299.125,-0.912091
10.0717,299.142,-0.912135
10.0733,299.158,-0.912177
10.075,299.175,-0.912212
10.0767,299.192,-0.912253
10.0783,299.208,-0.912288
10.08,299.225,-0.912326
10.0817,299.242,-0.912368
10.0833,299.258,-0.912406
10.085,299.275,-0.91244
10.0867,299.292,-0.912475
10.0883,299.308,-0.912518
10.09,299.325,-0.912563
10.0917,299.342,-0.912609
10.0933,299.358,-0.912662
10.095,299.375,-0.912717
10.0967,299.392,-0.912777
10.0983,299.408,-0.912828
10.1,299.425,-0.912884
10.1017,299.442,-0.912947
10.1033,299.458,-0.913003
10.105,299.475,-0.913065
10.1067,299.491,-0.913123
10.1083,299.508,-0.913173
10.11,299.525,-0.913225
10.1117,299.542,-0.913264
10.1133,299.558,-0.913301
10.115,299.575,-0.913342
10.1167,299.591,-0.913384
10.1183,299.608,-0.913429
10.12,299.624,-0.91348
10.1217,299.641,-0.913534
10.1233,299.659,-0.913588
10.125,299.675,-0.913642
10.1267,299.692,-0.9137
10.1283,299.708,-0.91377
10.13,299.725,-0.913838
10.1317,299.742,-0.913892
10.1333,299.758,-0.91394
10.135,299.775,-0.913983
10.1367,299.792,-0.914033
10.1383,299.808,-0.914077
10.14,299.825,-0.914121
10.1417,299.842,-0.914163
10.1433,299.858,-0.914197
10.145,299.875,-0.914224
10.1467,299.892,-0.91426
10.1483,299.908,-0.9143
10.15,299.924,-0.914336
10.1517,299.941,-0.914359
10.1533,299.958,-0.914375
10.155,299.975,-0.914387
10.1567,299.992,-0.914404
10.1583,300.008,-0.91443
10.16,300.025,-0.914459
10.1617,300.042,-0.914501
10.1633,300.058,-0.914559
10.165,300.075,-0.914713
10.1667,300.092,-0.914874
10.1683,300.108,-0.91519
10.17,300.125,-0.915461
10.1717,300.142,-0.91568
10.1733,300.159,-0.91581
10.175,300.175,-0.915876
10.1767,300.192,-0.915928
10.1783,300.209,-0.915967
10.18,300.225,-0.915998
10.1817,300.242,-0.916018
10.1833,300.259,-0.916033
10.185,300.275,-0.916048
10.1867,300.291,-0.916055
10.1883,300.308,-0.916063
10.19,300.325,-0.916082
10.1917,300.342,-0.916111
10.1933,300.358,-0.916142
10.195,300.375,-0.916186
10.1967,300.391,-0.91623
10.1983,300.408,-0.916279
10.2,300.425,-0.91633
10.2017,300.442,-0.916382
10.2033,300.458,-0.916433
10.205,300.475,-0.916485
10.2067,300.492,-0.916528
10.2083,300.508,-0.916561
10.21,300.525,-0.916598
10.2117,300.542,-0.916641
10.2133,300.558,-0.916689
10.215,300.575,-0.916748
10.2167,300.591,-0.916814
10.2183,300.608,-0.916871
10.22,300.625,-0.916928
10.2217,300.642,-0.916984
10.2233,300.658,-0.917037
10.225,300.675,-0.917088
10.2267,300.692,-0.917124
10.2283,300.708,-0.917154
10.23,300.724,-0.917185
10.2317,300.742,-0.917216
10.2333,300.758,-0.917248
10.235,300.775,-0.917283
10.2367,300.791,-0.917324
10.2383,300.808,-0.917364
10.24,300.825,-0.917407
10.2417,300.841,-0.917451
10.2433,300.858,-0.9175
10.245,300.875,-0.917549
10.2467,300.891,-0.917594
10.2483,300.908,-0.917633
10.25,300.925,-0.917669
10.2517,300.941,-0.917701
10.2533,300.957,-0.917733
10.255,300.974,-0.917764
10.2567,300.991,-0.917801
10.2583,301.008,-0.917848
10.26,301.024,-0.917891
10.2617,301.041,-0.917937
10.2633,301.057,-0.917989
10.265,301.074,-0.918036
10.2667,301.091,-0.91808
10.2683,301.107,-0.918113
10.27,301.124,-0.918146
10.2717,301.14,-0.918182
10.2733,301.157,-0.918216
10.275,301.174,-0.918261
10.2767,301.19,-0.918304
10.2783,301.207,-0.918346
10.28,301.224,-0.918386
10.2817,301.241,-0.918425
10.2833,301.257,-0.918455
10.285,301.274,-0.918482
10.2867,301.29,-0.918509
10.2883,301.307,-0.918534
10.29,301.324,-0.918563
10.2917,301.34,-0.918592
10.2933,301.357,-0.918629
10.295,301.374,-0.918669
10.2967,301.391,-0.918708
10.2983,301.407,-0.91875
10.3,301.424,-0.918797
10.3017,301.441,-0.918839
10.3033,301.458,-0.91888
10.305,301.474,-0.918916
10.3067,301.491,-0.918956
10.3083,301.507,-0.918994
10.31,301.524,-0.919031
10.3117,301.541,-0.919077
10.3133,301.557,-0.91912
10.315,301.574,-0.919164
10.3167,301.59,-0.919205
10.3183,301.607,-0.919246
10.32,301.624,-0.919282
10.3217,301.641,-0.91932
10.3233,301.658,-0.919359
10.325,301.674,-0.919405
10.3267,301.691,-0.91945
10.3283,301.707,-0.919496
10.33,301.724,-0.919539
10.3317,301.741,-0.919584
10.3333,301.758,-0.91963
10.335,301.774,-0.919672
10.3367,301.791,-0.919711
10.3383,301.807,-0.919745
10.34,301.824,-0.919768
10.3417,301.841,-0.919783
10.3433,301.858,-0.919797
10.345,301.874,-0.919809
10.3467,301.89,-0.919821
10.3483,301.907,-0.919841
10.35,301.924,-0.919872
10.3517,301.94,-0.919909
10.3533,301.957,-0.919958
10.355,301.974,-0.920016
10.3567,301.991,-0.920075
10.3583,302.007,-0.92014
10.36,302.024,-0.920199
10.3617,302.041,-0.92026
10.3633,302.057,-0.920321
10.365,302.074,-0.920383
10.3667,302.09,-0.92044
10.3683,302.107,-0.920483
10.37,302.124,-0.920523
10.3717,302.141,-0.920565
10.3733,302.157,-0.920602
10.375,302.173,-0.920637
10.3767,302.19,-0.920674
10.3783,302.207,-0.920707
10.38,302.224,-0.920738
10.3817,302.24,-0.920768
10.3833,302.257,-0.920796
10.385,302.274,-0.920818
10.3867,302.29,-0.920837
10.3883,302.307,-0.920858
10.39,302.324,-0.920887
10.3917,302.34,-0.920922
10.3933,302.357,-0.920964
10.395,302.374,-0.921013
10.3967,302.39,-0.921075
10.3983,302.407,-0.921139
10.4,302.423,-0.921205
10.4017,302.44,-0.921265
10.4033,302.457,-0.921317
10.405,302.474,-0.921361
10.4067,302.49,-0.921401
10.4083,302.507,-0.921432
10.41,302.524,-0.921466
10.4117,302.541,-0.921498
10.4133,302.557,-0.921535
10.415,302.573,-0.921569
10.4167,302.59,-0.92161
10.4183,302.607,-0.921654
10.42,302.624,-0.921709
10.4217,302.641,-0.921762
10.4233,302.657,-0.921818
10.425,302.673,-0.921881
10.4267,302.69,-0.921944
10.4283,302.706,-0.922002
10.43,302.723,-0.922058
10.4317,302.74,-0.922101
10.4333,302.757,-0.922147
10.435,302.773,-0.922192
10.4367,302.79,-0.922241
10.4383,302.807,-0.92229
10.44,302.824,-0.922337
10.4417,302.84,-0.922378
10.4433,302.857,-0.92241
10.445,302.874,-0.922439
10.4467,302.89,-0.922466
10.4483,302.907,-0.922484
10.45,302.923,-0.922494
10.4517,302.94,-0.922513
10.4533,302.957,-0.922533
10.455,302.973,-0.922564
10.4567,302.99,-0.922601
10.4583,303.006,-0.922647
10.46,303.023,-0.922697
10.4617,303.04,-0.922742
10.4633,303.056,-0.922789
10.465,303.073,-0.922845
10.4667,303.09,-0.922898
10.4683,303.106,-0.922949
10.47,303.123,-0.922995
10.4717,303.14,-0.923038
10.4733,303.156,-0.923081
10.475,303.173,-0.923126
10.4767,303.19,-0.923166
10.4783,303.206,-0.923204
10.48,303.223,-0.923236
10.4817,303.24,-0.923268
10.4833,303.256,-0.923302
10.485,303.273,-0.923339
10.4867,303.289,-0.923379
10.4883,303.306,-0.923409
10.49,303.323,-0.923442
10.4917,303.339,-0.923469
10.4933,303.356,-0.923495
10.495,303.373,-0.92352
10.4967,303.389,-0.923543
10.4983,303.406,-0.923585
10.5,303.423,-0.923631
10.5017,303.439,-0.923677
10.5033,303.456,-0.923731
10.505,303.473,-0.923796
10.5067,303.49,-0.923864
10.5083,303.506,-0.923937
10.51,303.523,-0.924034
10.5117,303.54,-0.924104
10.5133,303.557,-0.924172
10.515,303.573,-0.92423
10.5167,303.589,-0.924289
10.5183,303.606,-0.924346
10.52,303.623,-0.924403
10.5217,303.639,-0.924445
10.5233,303.656,-0.924488
10.525,303.672,-0.924527
10.5267,303.689,-0.924559
10.5283,303.706,-0.924589
10.53,303.723,-0.924623
10.5317,303.739,-0.924652
10.5333,303.756,-0.924676
10.535,303.773,-0.924699
10.5367,303.789,-0.924724
10.5383,303.806,-0.924746
10.54,303.822,-0.92478
10.5417,303.839,-0.924819
10.5433,303.855,-0.924861
10.545,303.872,-0.924913
10.5467,303.889,-0.924962
10.5483,303.905,-0.925006
10.55,303.922,-0.925055
10.5517,303.939,-0.925103
10.5533,303.956,-0.92515
10.555,303.972,-0.925192
10.5567,303.989,-0.925228
10.5583,304.005,-0.925258
10.56,304.022,-0.925288
10.5617,304.039,-0.925311
10.5633,304.056,-0.925337
10.565,304.072,-0.925359
10.5667,304.089,-0.925376
10.5683,304.106,-0.925394
10.57,304.122,-0.925416
10.5717,304.139,-0.925442
10.5733,304.156,-0.925469
10.575,304.172,-0.92551
10.5767,304.188,-0.925556
10.5783,304.205,-0.925612
10.58,304.222,-0.925672
10.5817,304.239,-0.925738
10.5833,304.255,-0.925798
10.585,304.273,-0.925849
10.5867,304.289,-0.925893
10.5883,304.306,-0.925936
10.59,304.322,-0.925976
10.5917,304.339,-0.926016
10.5933,304.355,-0.926059
10.595,304.372,-0.926102
10.5967,304.389,-0.926143
10.5983,304.405,-0.926175
10.6,304.422,-0.926218
10.6017,304.439,-0.926259
10.6033,304.455,-0.926294
10.605,304.472,-0.926326
10.6067,304.489,-0.926363
10.6083,304.505,-0.926392
10.61,304.522,-0.926423
10.6117,304.539,-0.926464
10.6133,304.555,-0.926513
10.615,304.572,-0.926561
10.6167,304.589,-0.926608
10.6183,304.605,-0.926661
10.62,304.622,-0.926706
10.6217,304.639,-0.926747
10.6233,304.655,-0.926778
10.625,304.672,-0.926805
10.6267,304.688,-0.926826
10.6283,304.705,-0.926837
10.63,304.722,-0.92685
10.6317,304.738,-0.926874
10.6333,304.755,-0.926896
10.635,304.772,-0.926919
10.6367,304.788,-0.926952
10.6383,304.805,-0.926984
10.64,304.822,-0.927012
10.6417,304.838,-0.927043
10.6433,304.855,-0.92708
10.645,304.872,-0.927119
10.6467,304.889,-0.927159
10.6483,304.905,-0.9272
10.65,304.922,-0.927242
10.6517,304.939,-0.927295
10.6533,304.955,-0.927342
10.655,304.971,-0.927393
10.6567,304.988,-0.927443
10.6583,305.005,-0.927491
10.66,305.022,-0.927534
10.6617,305.038,-0.927573
10.6633,305.055,-0.927612
10.665,305.072,-0.927649
10.6667,305.089,-0.927685
10.6683,305.105,-0.927726
10.67,305.122,-0.927768
10.6717,305.138,-0.927808
10.6733,305.155,-0.927834
10.675,305.171,-0.927858
10.6767,305.188,-0.927877
10.6783,305.205,-0.927893
10.68,305.222,-0.927912
10.6817,305.238,-0.927937
10.6833,305.255,-0.927965
10.685,305.271,-0.927996
10.6867,305.288,-0.928032
10.6883,305.305,-0.928074
10.69,305.322,-0.928119
10.6917,305.338,-0.928174
10.6933,305.355,-0.928226
10.695,305.372,-0.928281
10.6967,305.388,-0.928334
10.6983,305.405,-0.92839
10.7,305.421,-0.928446
10.7017,305.438,-0.928503
10.7033,305.454,-0.928542
10.705,305.471,-0.928576
10.7067,305.487,-0.928613
10.7083,305.504,-0.928661
10.71,305.521,-0.928706
10.7117,305.537,-0.928748
10.7133,305.554,-0.928789
10.715,305.571,-0.928836
10.7167,305.588,-0.928883
10.7183,305.604,-0.928937
10.72,305.621,-0.928992
10.7217,305.637,-0.92904
10.7233,305.654,-0.929102
10.725,305.671,-0.92917
10.7267,305.688,-0.929238
10.7283,305.704,-0.929303
10.73,305.721,-0.929365
10.7317,305.737,-0.929427
10.7333,305.754,-0.929484
10.735,305.771,-0.929532
10.7367,305.787,-0.929574
10.7383,305.804,-0.929612
10.74,305.821,-0.929643
10.7417,305.837,-0.929677
10.7433,305.854,-0.929708
10.745,305.87,-0.929738
10.7467,305.887,-0.929765
10.7483,305.904,-0.929784
10.75,305.921,-0.929804
10.7517,305.938,-0.929831
10.7533,305.954,-0.929859
10.755,305.971,-0.929887
10.7567,305.987,-0.929928
10.7583,306.004,-0.92997
10.76,306.021,-0.930015
10.7617,306.037,-0.93007
10.7633,306.054,-0.930137
10.765,306.07,-0.930201
10.7667,306.087,-0.93025
10.7683,306.103,-0.930305
10.77,306.12,-0.93036
10.7717,306.137,-0.930414
10.7733,306.153,-0.930462
10.775,306.171,-0.930506
10.7767,306.187,-0.930549
10.7783,306.204,-0.930587
10.78,306.22,-0.930626
10.7817,306.237,-0.930666
10.7833,306.254,-0.930705
10.785,306.27,-0.930738
10.7867,306.287,-0.930774
10.7883,306.303,-0.930809
10.79,306.321,-0.930854
10.7917,306.337,-0.930905
10.7933,306.354,-0.930951
10.795,306.37,-0.930986
10.7967,306.387,-0.931023
10.7983,306.403,-0.93106
10.8,306.42,-0.931099
10.8017,306.437,-0.931134
10.8033,306.453,-0.931161
10.805,306.47,-0.931186
10.8067,306.486,-0.931212
10.8083,306.503,-0.931239
10.81,306.52,-0.931263
10.8117,306.536,-0.931293
10.8133,306.553,-0.931321
10.815,306.57,-0.931362
10.8167,306.587,-0.931406
10.8183,306.604,-0.931461
10.82,306.62,-0.931524
10.8217,306.637,-0.931589
10.8233,306.654,-0.931651
10.825,306.67,-0.931713
10.8267,306.687,-0.931767
10.8283,306.703,-0.931819
10.83,306.72,-0.931875
10.8317,306.736,-0.931919
10.8333,306.753,-0.931958
10.835,306.77,-0.932001
10.8367,306.786,-0.932048
10.8383,306.803,-0.932098
10.84,306.82,-0.932153
10.8417,306.837,-0.932199
10.8433,306.853,-0.932252
10.845,306.87,-0.932303
10.8467,306.886,-0.932361
10.8483,306.903,-0.932409
10.85,306.919,-0.932454
10.8517,306.936,-0.932494
10.8533,306.953,-0.932537
10.855,306.969,-0.932581
10.8567,306.986,-0.932612
10.8583,307.003,-0.932636
10.86,307.019,-0.932657
10.8617,307.036,-0.932681
10.8633,307.053,-0.932705
10.865,307.069,-0.932735
10.8667,307.086,-0.932771
10.8683,307.103,-0.932819
10.87,307.119,-0.932868
10.8717,307.136,-0.932914
10.8733,307.153,-0.93296
10.875,307.169,-0.933009
10.8767,307.186,-0.933061
10.8783,307.203,-0.933117
10.88,307.219,-0.933172
10.8817,307.236,-0.933223
10.8833,307.253,-0.93327
10.885,307.269,-0.93332
10.8867,307.286,-0.933375
10.8883,307.303,-0.933431
10.89,307.319,-0.933484
10.8917,307.336,-0.933535
10.8933,307.352,-0.933574
10.895,307.369,-0.933616
10.8967,307.385,-0.933659
10.8983,307.402,-0.933703
10.9,307.419,-0.933744
10.9017,307.436,-0.933781
10.9033,307.453,-0.933821
10.905,307.469,-0.933864
10.9067,307.486,-0.933909
10.9083,307.502,-0.93396
10.91,307.519,-0.934014
10.9117,307.536,-0.934072
10.9133,307.552,-0.93414
10.915,307.569,-0.934212
10.9167,307.585,-0.934312
10.9183,307.603,-0.934389
10.92,307.619,-0.934483
10.9217,307.636,-0.934592
10.9233,307.652,-0.934697
10.925,307.669,-0.934774
10.9267,307.685,-0.934838
10.9283,307.702,-0.934899
10.93,307.719,-0.934952
10.9317,307.735,-0.935001
10.9333,307.752,-0.935046
10.935,307.768,-0.935078
10.9367,307.785,-0.93511
10.9383,307.802,-0.935138
10.94,307.818,-0.935164
10.9417,307.835,-0.935191
10.9433,307.852,-0.935216
10.945,307.868,-0.935239
10.9467,307.885,-0.935261
10.9483,307.902,-0.935286
10.95,307.919,-0.935313
10.9517,307.935,-0.935347
10.9533,307.952,-0.935395
10.955,307.969,-0.935439
10.9567,307.985,-0.935493
10.9583,308.002,-0.935559
10.96,308.018,-0.935633
10.9617,308.035,-0.935706
10.9633,308.052,-0.935781
10.965,308.069,-0.935865
10.9667,308.085,-0.935936
10.9683,308.102,-0.935999
10.97,308.119,-0.936056
10.9717,308.135,-0.936111
10.9733,308.152,-0.936163
10.975,308.168,-0.936216
10.9767,308.185,-0.936266
10.9783,308.201,-0.936315
10.98,308.218,-0.936378
10.9817,308.235,-0.936442
10.9833,308.251,-0.936509
10.985,308.268,-0.936579
10.9867,308.285,-0.936645
10.9883,308.301,-0.936702
10.99,308.318,-0.936758
10.9917,308.335,-0.93681
10.9933,308.351,-0.936859
10.995,308.368,-0.936906
10.9967,308.384,-0.936945
10.9983,308.401,-0.936984
11,308.417,-0.937022
11.0017,308.434,-0.937056
11.0033,308.451,-0.937088
11.005,308.468,-0.937118
11.0067,308.484,-0.937139
11.0083,308.501,-0.937151
11.01,308.518,-0.937147
11.0117,308.534,-0.937042
11.0133,308.551,-0.936598
11.015,308.568,-0.935428
11.0167,308.585,-0.933574
11.0183,308.602,-0.931139
11.02,308.618,-0.928081
11.0217,308.635,-0.92569
11.0233,308.652,-0.923934
11.025,308.668,-0.923153
11.0267,308.685,-0.923082
11.0283,308.702,-0.923137
11.03,308.718,-0.9232
11.0317,308.735,-0.92328
11.0333,308.751,-0.923382
11.035,308.768,-0.923581
11.0367,308.785,-0.923881
11.0383,308.801,-0.924259
11.04,308.818,-0.924641
11.0417,308.835,-0.924928
11.0433,308.851,-0.925254
11.045,308.868,-0.925651
11.0467,308.885,-0.926157
11.0483,308.902,-0.926789
11.05,308.918,-0.927294
11.0517,308.935,-0.927896
11.0533,308.951,-0.928328
11.055,308.968,-0.928647
11.0567,308.985,-0.928869
11.0583,309.002,-0.929064
11.06,309.018,-0.929181
11.0617,309.035,-0.929301
11.0633,309.052,-0.929413
11.065,309.068,-0.929516
11.0667,309.085,-0.929616
11.0683,309.102,-0.9297
11.07,309.118,-0.929792
11.0717,309.135,-0.929876
11.0733,309.152,-0.929959
11.075,309.168,-0.930043
11.0767,309.185,-0.930138
11.0783,309.201,-0.930243
11.08,309.218,-0.93036
11.0817,309.235,-0.930472
11.0833,309.251,-0.930588
11.085,309.268,-0.930702
11.0867,309.284,-0.930813
11.0883,309.301,-0.930927
11.09,309.318,-0.931054
11.0917,309.335,-0.931193
11.0933,309.352,-0.931375
11.095,309.368,-0.931636
11.0967,309.385,-0.931931
11.0983,309.402,-0.932236
11.1,309.419,-0.932426
11.1017,309.436,-0.932564
11.1033,309.452,-0.932678
11.105,309.469,-0.932793
11.1067,309.485,-0.932903
11.1083,309.501,-0.933011
11.11,309.518,-0.933116
11.1117,309.535,-0.93322
11.1133,309.552,-0.93332
11.115,309.569,-0.933417
11.1167,309.585,-0.933508
11.1183,309.601,-0.933591
11.12,309.618,-0.933672
11.1217,309.635,-0.933749
11.1233,309.652,-0.933821
11.125,309.669,-0.93389
11.1267,309.685,-0.933958
11.1283,309.702,-0.934026
11.13,309.719,-0.934102
11.1317,309.735,-0.934181
11.1333,309.751,-0.934261
11.135,309.768,-0.934349
11.1367,309.785,-0.934436
11.1383,309.801,-0.934535
11.14,309.818,-0.934639
11.1417,309.835,-0.93475
11.1433,309.851,-0.934898
11.145,309.868,-0.935112
11.1467,309.885,-0.935333
11.1483,309.902,-0.935537
11.15,309.918,-0.935766
11.1517,309.935,-0.936063
11.1533,309.951,-0.936376
11.155,309.968,-0.936551
11.1567,309.984,-0.936716
11.1583,310.001,-0.936833
11.16,310.018,-0.936936
11.1617,310.034,-0.937033
11.1633,310.051,-0.937128
11.165,310.068,-0.93721
11.1667,310.084,-0.937286
11.1683,310.101,-0.937357
11.17,310.118,-0.937432
11.1717,310.135,-0.937505
11.1733,310.151,-0.937584
11.175,310.168,-0.937667
11.1767,310.184,-0.937757
11.1783,310.201,-0.93784
11.18,310.217,-0.937925
11.1817,310.234,-0.938013
11.1833,310.251,-0.938099
11.185,310.267,-0.938181
11.1867,310.284,-0.938263
11.1883,310.301,-0.938339
11.19,310.318,-0.938409
11.1917,310.334,-0.93847
11.1933,310.351,-0.938522
11.195,310.368,-0.938577
11.1967,310.384,-0.938635
11.1983,310.4,-0.93869
11.2,310.417,-0.938751
11.2017,310.432,-0.938807
11.2033,310.449,-0.938866
11.205,310.466,-0.938925
11.2067,310.483,-0.93899
11.2083,310.499,-0.939057
11.21,310.517,-0.939126
11.2117,310.534,-0.939192
11.2133,310.55,-0.939258
11.215,310.566,-0.939317
11.2167,310.583,-0.939374
11.2183,310.599,-0.939431
11.22,310.616,-0.939492
11.2217,310.633,-0.93956
11.2233,310.65,-0.939628
11.225,310.666,-0.939702
11.2267,310.683,-0.939773
11.2283,310.7,-0.939846
11.23,310.717,-0.939916
11.2317,310.733,-0.939982
11.2333,310.75,-0.940045
11.235,310.767,-0.9401
11.2367,310.783,-0.940157
11.2383,310.8,-0.940211
11.24,310.816,-0.940272
11.2417,310.833,-0.940331
11.2433,310.85,-0.940396
11.245,310.867,-0.940459
11.2467,310.883,-0.940518
11.2483,310.9,-0.940579
11.25,310.917,-0.940642
11.2517,310.933,-0.940695
11.2533,310.95,-0.940744
11.255,310.966,-0.940797
11.2567,310.983,-0.940858
11.2583,311,-0.940929
11.26,311.016,-0.940994
11.2617,311.033,-0.941067
11.2633,311.05,-0.941145
11.265,311.067,-0.941223
11.2667,311.083,-0.941292
11.2683,311.1,-0.941358
11.27,311.116,-0.94143
11.2717,311.133,-0.941496
11.2733,311.15,-0.941555
11.275,311.167,-0.941614
11.2767,311.184,-0.941679
11.2783,311.2,-0.94174
11.28,311.217,-0.941805
11.2817,311.233,-0.941872
11.2833,311.25,-0.941942
11.285,311.267,-0.94202
11.2867,311.284,-0.942102
11.2883,311.3,-0.942185
11.29,311.317,-0.942267
11.2917,311.333,-0.942347
11.2933,311.35,-0.942427
11.295,311.367,-0.94251
11.2967,311.384,-0.942597
11.2983,311.4,-0.942688
11.3,311.417,-0.942783
11.3017,311.434,-0.942877
11.3033,311.45,-0.942967
11.305,311.467,-0.943065
11.3067,311.483,-0.943164
11.3083,311.499,-0.943251
11.31,311.516,-0.943336
11.3117,311.533,-0.943414
11.3133,311.549,-0.943476
11.315,311.566,-0.943531
11.3167,311.582,-0.943585
11.3183,311.599,-0.943629
11.32,311.616,-0.943671
11.3217,311.633,-0.943707
11.3233,311.649,-0.943745
11.325,311.666,-0.943786
11.3267,311.683,-0.94383
11.3283,311.699,-0.943888
11.33,311.716,-0.943946
11.3317,311.733,-0.944005
11.3333,311.749,-0.944065
11.335,311.766,-0.944125
11.3367,311.783,-0.944191
11.3383,311.799,-0.944254
11.34,311.816,-0.94431
11.3417,311.833,-0.944364
11.3433,311.849,-0.944422
11.345,311.866,-0.944488
11.3467,311.882,-0.944567
11.3483,311.899,-0.944648
11.35,311.916,-0.944735
11.3517,311.933,-0.944817
11.3533,311.949,-0.944901
11.355,311.966,-0.944977
11.3567,311.982,-0.945045
11.3583,311.999,-0.945113
11.36,312.016,-0.945173
11.3617,312.032,-0.94523
11.3633,312.049,-0.945285
11.365,312.066,-0.945341
11.3667,312.083,-0.945399
11.3683,312.099,-0.945461
11.37,312.116,-0.945523
11.3717,312.132,-0.945587
11.3733,312.149,-0.945642
11.375,312.166,-0.945699
11.3767,312.182,-0.945755
11.3783,312.199,-0.94581
11.38,312.216,-0.945862
11.3817,312.233,-0.94591
11.3833,312.249,-0.945963
11.385,312.266,-0.946008
11.3867,312.283,-0.946045
11.3883,312.299,-0.946083
11.39,312.316,-0.946122
11.3917,312.333,-0.946171
11.3933,312.349,-0.946224
11.395,312.366,-0.946286
11.3967,312.383,-0.946353
11.3983,312.399,-0.946422
11.4,312.416,-0.946485
11.4017,312.433,-0.946552
11.4033,312.449,-0.946622
11.405,312.466,-0.946685
11.4067,312.483,-0.946753
11.4083,312.499,-0.946828
11.41,312.516,-0.946906
11.4117,312.533,-0.946994
11.4133,312.549,-0.947099
11.415,312.566,-0.947186
11.4167,312.582,-0.947269
11.4183,312.599,-0.947354
11.42,312.616,-0.947437
11.4217,312.633,-0.947511
11.4233,312.649,-0.947576
11.425,312.666,-0.947647
11.4267,312.683,-0.947709
11.4283,312.699,-0.947773
11.43,312.716,-0.947827
11.4317,312.733,-0.94788
11.4333,312.749,-0.94794
11.435,312.766,-0.948003
11.4367,312.783,-0.948075
11.4383,312.799,-0.948146
11.44,312.816,-0.948217
11.4417,312.833,-0.948286
11.4433,312.85,-0.948359
11.445,312.866,-0.948422
11.4467,312.883,-0.94848
11.4483,312.9,-0.948541
11.45,312.916,-0.948602
11.4517,312.933,-0.948664
11.4533,312.949,-0.948727
11.455,312.966,-0.948787
11.4567,312.983,-0.948851
11.4583,312.999,-0.948916
11.46,313.016,-0.948977
11.4617,313.032,-0.949041
11.4633,313.049,-0.9491
11.465,313.066,-0.949154
11.4667,313.082,-0.949213
11.4683,313.099,-0.94927
11.47,313.116,-0.949327
11.4717,313.132,-0.949381
11.4733,313.149,-0.949438
11.475,313.166,-0.949506
11.4767,313.182,-0.949576
11.4783,313.199,-0.949639
11.48,313.216,-0.9497
11.4817,313.232,-0.949746
11.4833,313.249,-0.949803
11.485,313.265,-0.949851
11.4867,313.283,-0.949896
11.4883,313.299,-0.949943
11.49,313.315,-0.950002
11.4917,313.332,-0.950071
11.4933,313.349,-0.95015
11.495,313.366,-0.950237
11.4967,313.382,-0.95032
11.4983,313.399,-0.950409
11.5,313.416,-0.950492
11.5017,313.432,-0.950572
11.5033,313.449,-0.950643
11.505,313.465,-0.950706
11.5067,313.482,-0.950761
11.5083,313.499,-0.950807
11.51,313.515,-0.950861
11.5117,313.532,-0.950916
11.5133,313.549,-0.950976
11.515,313.565,-0.95103
11.5167,313.582,-0.951082
11.5183,313.599,-0.951141
11.52,313.616,-0.9512
11.5217,313.632,-0.951254
11.5233,313.649,-0.951312
11.525,313.666,-0.951371
11.5267,313.682,-0.951438
11.5283,313.699,-0.951512
11.53,313.715,-0.951589
11.5317,313.732,-0.951676
11.5333,313.749,-0.951764
11.535,313.765,-0.951866
11.5367,313.782,-0.952025
11.5383,313.798,-0.952185
11.54,313.815,-0.952349
11.5417,313.832,-0.952454
11.5433,313.849,-0.952549
11.545,313.865,-0.952641
11.5467,313.882,-0.952725
11.5483,313.899,-0.952794
11.55,313.916,-0.952851
11.5517,313.932,-0.952899
11.5533,313.949,-0.952946
11.555,313.965,-0.952989
11.5567,313.982,-0.953034
11.5583,313.998,-0.953089
11.56,314.015,-0.953148
11.5617,314.032,-0.95321
11.5633,314.048,-0.953274
11.565,314.065,-0.953344
11.5667,314.082,-0.953416
11.5683,314.098,-0.95349
11.57,314.115,-0.95356
11.5717,314.131,-0.953631
11.5733,314.148,-0.953698
11.575,314.165,-0.953758
11.5767,314.181,-0.953817
11.5783,314.198,-0.953866
11.58,314.215,-0.953906
11.5817,314.231,-0.953948
11.5833,314.248,-0.95399
11.585,314.265,-0.954029
11.5867,314.282,-0.95407
11.5883,314.298,-0.954106
11.59,314.314,-0.954146
11.5917,314.331,-0.954193
11.5933,314.348,-0.954245
11.595,314.365,-0.954302
11.5967,314.381,-0.954367
11.5983,314.398,-0.954441
11.6,314.415,-0.954525
11.6017,314.432,-0.954599
11.6033,314.448,-0.954669
11.605,314.465,-0.954739
11.6067,314.482,-0.954805
11.6083,314.498,-0.954866
11.61,314.515,-0.954919
11.6117,314.531,-0.95497
11.6133,314.548,-0.955014
11.615,314.565,-0.955068
11.6167,314.581,-0.955128
11.6183,314.598,-0.955191
11.62,314.614,-0.955256
11.6217,314.631,-0.955312
11.6233,314.648,-0.955369
11.625,314.665,-0.955438
11.6267,314.681,-0.955517
11.6283,314.698,-0.955595
11.63,314.715,-0.955676
11.6317,314.732,-0.955756
11.6333,314.748,-0.955829
11.635,314.765,-0.955896
11.6367,314.781,-0.955957
11.6383,314.798,-0.956009
11.64,314.815,-0.956059
11.6417,314.831,-0.9561
11.6433,314.848,-0.956151
11.645,314.865,-0.956203
11.6467,314.881,-0.956261
11.6483,314.898,-0.956319
11.65,314.914,-0.956384
11.6517,314.931,-0.956456
11.6533,314.948,-0.956526
11.655,314.964,-0.956594
11.6567,314.98,-0.956655
11.6583,314.997,-0.956716
11.66,315.014,-0.956775
11.6617,315.03,-0.956839
11.6633,315.047,-0.956909
11.665,315.064,-0.956978
11.6667,315.08,-0.957043
11.6683,315.097,-0.957094
11.67,315.113,-0.957151
11.6717,315.13,-0.957212
11.6733,315.147,-0.957264
11.675,315.164,-0.957314
11.6767,315.18,-0.957365
11.6783,315.197,-0.957423
11.68,315.214,-0.957473
11.6817,315.23,-0.957525
11.6833,315.247,-0.957578
11.685,315.264,-0.957631
11.6867,315.28,-0.957681
11.6883,315.297,-0.957731
11.69,315.313,-0.957781
11.6917,315.33,-0.95783
11.6933,315.346,-0.95788
11.695,315.363,-0.957929
11.6967,315.38,-0.957981
11.6983,315.397,-0.958035
11.7,315.413,-0.958094
11.7017,315.43,-0.958165
11.7033,315.447,-0.958242
11.705,315.463,-0.958334
11.7067,315.48,-0.958465
11.7083,315.497,-0.95857
11.71,315.514,-0.958655
11.7117,315.531,-0.958738
11.7133,315.547,-0.958817
11.715,315.564,-0.958884
11.7167,315.581,-0.958945
11.7183,315.597,-0.959005
11.72,315.614,-0.959065
11.7217,315.63,-0.959124
11.7233,315.647,-0.959184
11.725,315.663,-0.959256
11.7267,315.68,-0.959335
11.7283,315.697,-0.959418
11.73,315.714,-0.959497
11.7317,315.73,-0.95957
11.7333,315.747,-0.95964
11.735,315.764,-0.959708
11.7367,315.78,-0.959771
11.7383,315.797,-0.959826
11.74,315.813,-0.959889
11.7417,315.83,-0.959945
11.7433,315.847,-0.960005
11.745,315.863,-0.960059
11.7467,315.88,-0.960118
11.7483,315.897,-0.960176
11.75,315.913,-0.960233
11.7517,315.93,-0.960292
11.7533,315.947,-0.960354
11.755,315.963,-0.960419
11.7567,315.98,-0.960493
11.7583,315.997,-0.960573
11.76,316.013,-0.960653
11.7617,316.03,-0.960732
11.7633,316.047,-0.960801
11.765,316.063,-0.960857
11.7667,316.08,-0.96092
11.7683,316.096,-0.960983
11.77,316.113,-0.961038
11.7717,316.13,-0.961094
11.7733,316.146,-0.961152
11.775,316.163,-0.961217
11.7767,316.179,-0.961282
11.7783,316.196,-0.961342
11.78,316.213,-0.961405
11.7817,316.23,-0.961468
11.7833,316.247,-0.961527
11.785,316.263,-0.961584
11.7867,316.28,-0.961649
11.7883,316.297,-0.961724
11.79,316.313,-0.961798
11.7917,316.33,-0.961868
11.7933,316.346,-0.961941
11.795,316.363,-0.962044
11.7967,316.38,-0.962202
11.7983,316.396,-0.962303
11.8,316.413,-0.962392
11.8017,316.43,-0.962478
11.8033,316.446,-0.962563
11.805,316.462,-0.962638
11.8067,316.479,-0.962706
11.8083,316.496,-0.962772
11.81,316.512,-0.962823
11.8117,316.529,-0.962884
11.8133,316.546,-0.962947
11.815,316.563,-0.963019
11.8167,316.579,-0.963092
11.8183,316.596,-0.963159
11.82,316.612,-0.963227
11.8217,316.629,-0.963296
11.8233,316.646,-0.963376
11.825,316.663,-0.963444
11.8267,316.679,-0.963517
11.8283,316.696,-0.963582
11.83,316.713,-0.963651
11.8317,316.729,-0.963719
11.8333,316.746,-0.963788
11.835,316.763,-0.963862
11.8367,316.779,-0.963935
11.8383,316.796,-0.96401
11.84,316.813,-0.964091
11.8417,316.829,-0.964165
11.8433,316.845,-0.964247
11.845,316.862,-0.964326
11.8467,316.879,-0.964411
11.8483,316.896,-0.964503
11.85,316.912,-0.964589
11.8517,316.929,-0.964677
11.8533,316.946,-0.964761
11.855,316.962,-0.964848
11.8567,316.979,-0.964929
11.8583,316.996,-0.965
11.86,317.012,-0.965064
11.8617,317.029,-0.965129
11.8633,317.046,-0.965189
11.865,317.062,-0.965242
11.8667,317.079,-0.965296
11.8683,317.095,-0.965359
11.87,317.112,-0.96543
11.8717,317.129,-0.965509
11.8733,317.145,-0.965604
11.875,317.162,-0.965779
11.8767,317.178,-0.966022
11.8783,317.195,-0.966177
11.88,317.212,-0.966318
11.8817,317.228,-0.966491
11.8833,317.245,-0.966591
11.885,317.262,-0.966684
11.8867,317.278,-0.966773
11.8883,317.295,-0.966863
11.89,317.312,-0.966952
11.8917,317.329,-0.967038
11.8933,317.345,-0.967121
11.895,317.362,-0.967195
11.8967,317.379,-0.967266
11.8983,317.395,-0.967333
11.9,317.412,-0.967393
11.9017,317.428,-0.967453
11.9033,317.445,-0.967509
11.905,317.462,-0.967566
11.9067,317.479,-0.967636
11.9083,317.495,-0.967722
11.91,317.512,-0.967811
11.9117,317.529,-0.967897
11.9133,317.546,-0.96799
11.915,317.562,-0.968091
11.9167,317.579,-0.968191
11.9183,317.595,-0.968285
11.92,317.612,-0.968372
11.9217,317.629,-0.968447
11.9233,317.646,-0.968518
11.925,317.662,-0.9686
11.9267,317.679,-0.968675
11.9283,317.695,-0.968747
11.93,317.712,-0.968815
11.9317,317.729,-0.968886
11.9333,317.746,-0.968961
11.935,317.762,-0.969035
11.9367,317.779,-0.969103
11.9383,317.795,-0.969174
11.94,317.812,-0.969236
11.9417,317.828,-0.969299
11.9433,317.845,-0.969365
11.945,317.862,-0.969425
11.9467,317.879,-0.96949
11.9483,317.895,-0.969557
11.95,317.912,-0.969618
11.9517,317.929,-0.969679
11.9533,317.946,-0.969736
11.955,317.963,-0.969798
11.9567,317.979,-0.969865
11.9583,317.995,-0.969932
11.96,318.012,-0.970004
11.9617,318.029,-0.970084
11.9633,318.045,-0.97017
11.965,318.062,-0.970266
11.9667,318.079,-0.970362
11.9683,318.095,-0.970493
11.97,318.112,-0.970635
11.9717,318.129,-0.970757
11.9733,318.146,-0.970924
11.975,318.162,-0.971204
11.9767,318.179,-0.971476
11.9783,318.196,-0.971688
11.98,318.212,-0.971824
11.9817,318.229,-0.971953
11.9833,318.246,-0.972062
11.985,318.262,-0.972163
11.9867,318.279,-0.97226
11.9883,318.296,-0.972354
11.99,318.312,-0.972439
11.9917,318.329,-0.972518
11.9933,318.345,-0.972592
11.995,318.362,-0.972655
11.9967,318.379,-0.972715
11.9983,318.395,-0.972774
12,318.412,-0.972841
12.0017,318.428,-0.972911
12.0033,318.445,-0.972976
12.005,318.462,-0.973052
12.0067,318.478,-0.973136
12.0083,318.495,-0.973228
12.01,318.512,-0.973316
12.0117,318.528,-0.973405
12.0133,318.545,-0.973493
12.015,318.562,-0.97358
12.0167,318.579,-0.973672
12.0183,318.595,-0.973762
12.02,318.612,-0.973852
12.0217,318.628,-0.973945
12.0233,318.645,-0.974032
12.025,318.662,-0.974125
12.0267,318.678,-0.974223
12.0283,318.695,-0.97432
12.03,318.712,-0.974414
12.0317,318.728,-0.974505
12.0333,318.745,-0.974602
12.035,318.762,-0.974699
12.0367,318.778,-0.974792
12.0383,318.795,-0.974881
12.04,318.812,-0.974971
12.0417,318.829,-0.975055
12.0433,318.845,-0.975144
12.045,318.862,-0.975234
12.0467,318.878,-0.975328
12.0483,318.895,-0.975427
12.05,318.912,-0.975525
12.0517,318.928,-0.975631
12.0533,318.945,-0.97574
12.055,318.962,-0.975838
12.0567,318.979,-0.975935
12.0583,318.995,-0.976032
12.06,319.011,-0.976127
12.0617,319.028,-0.976226
12.0633,319.045,-0.976321
12.065,319.061,-0.976409
12.0667,319.078,-0.976501
12.0683,319.095,-0.976599
12.07,319.112,-0.976702
12.0717,319.128,-0.976797
12.0733,319.145,-0.976892
12.075,319.162,-0.976988
12.0767,319.178,-0.977087
12.0783,319.195,-0.977196
12.08,319.212,-0.977305
12.0817,319.228,-0.977411
12.0833,319.245,-0.977522
12.085,319.262,-0.977638
12.0867,319.278,-0.977755
12.0883,319.295,-0.977889
12.09,319.312,-0.978032
12.0917,319.328,-0.978141
12.0933,319.345,-0.978249
12.095,319.362,-0.978346
12.0967,319.378,-0.978432
12.0983,319.395,-0.978503
12.1,319.411,-0.978573
12.1017,319.428,-0.978639
12.1033,319.445,-0.978713
12.105,319.462,-0.978793
12.1067,319.478,-0.978881
12.1083,319.495,-0.978979
12.11,319.511,-0.979083
12.1117,319.528,-0.979198
12.1133,319.544,-0.979353
12.115,319.561,-0.979576
12.1167,319.578,-0.979751
12.1183,319.595,-0.979866
12.12,319.611,-0.979981
12.1217,319.628,-0.98009
12.1233,319.645,-0.980207
12.125,319.661,-0.980319
12.1267,319.678,-0.980423
12.1283,319.695,-0.980525
12.13,319.712,-0.980626
12.1317,319.728,-0.980735
12.1333,319.745,-0.98085
12.135,319.761,-0.980958
12.1367,319.778,-0.981069
12.1383,319.794,-0.98118
12.14,319.811,-0.981285
12.1417,319.828,-0.981398
12.1433,319.845,-0.981502
12.145,319.861,-0.9816
12.1467,319.878,-0.981706
12.1483,319.895,-0.981815
12.15,319.911,-0.981928
12.1517,319.928,-0.982045
12.1533,319.945,-0.982164
12.155,319.961,-0.982297
12.1567,319.978,-0.982462
12.1583,319.994,-0.982652
12.16,320.011,-0.982769
12.1617,320.028,-0.98288
12.1633,320.045,-0.982992
12.165,320.061,-0.983101
12.1667,320.078,-0.983201
12.1683,320.095,-0.983305
12.17,320.111,-0.983412
12.1717,320.128,-0.983523
12.1733,320.144,-0.983634
12.175,320.161,-0.983754
12.1767,320.178,-0.983879
12.1783,320.194,-0.984005
12.18,320.211,-0.98413
12.1817,320.228,-0.984257
12.1833,320.244,-0.984383
12.185,320.261,-0.984504
12.1867,320.278,-0.98462
12.1883,320.294,-0.984735
12.19,320.311,-0.984858
12.1917,320.328,-0.984983
12.1933,320.344,-0.985104
12.195,320.361,-0.985232
12.1967,320.378,-0.98536
12.1983,320.394,-0.985488
12.2,320.411,-0.985612
12.2017,320.427,-0.985759
12.2033,320.444,-0.985893
12.205,320.461,-0.986025
12.2067,320.478,-0.98618
12.2083,320.494,-0.986375
12.21,320.511,-0.986628
12.2117,320.528,-0.986764
12.2133,320.545,-0.9869
12.215,320.561,-0.987038
12.2167,320.578,-0.987161
12.2183,320.595,-0.987278
12.22,320.611,-0.987399
12.2217,320.629,-0.987512
12.2233,320.645,-0.987624
12.225,320.662,-0.987732
12.2267,320.678,-0.987839
12.2283,320.695,-0.987946
12.23,320.711,-0.988044
12.2317,320.728,-0.988142
12.2333,320.745,-0.98825
12.235,320.761,-0.988368
12.2367,320.778,-0.988495
12.2383,320.795,-0.98863
12.24,320.811,-0.988758
12.2417,320.828,-0.988892
12.2433,320.844,-0.989025
12.245,320.861,-0.989151
12.2467,320.878,-0.989277
12.2483,320.894,-0.989403
12.25,320.911,-0.989528
12.2517,320.927,-0.989652
12.2533,320.944,-0.989782
12.255,320.961,-0.989913
12.2567,320.978,-0.990047
12.2583,320.994,-0.990185
12.26,321.011,-0.99033
12.2617,321.028,-0.990513
12.2633,321.044,-0.990651
12.265,321.061,-0.990784
12.2667,321.078,-0.990912
12.2683,321.094,-0.991043
12.27,321.111,-0.991179
12.2717,321.127,-0.991339
12.2733,321.144,-0.99152
12.275,321.161,-0.991703
12.2767,321.178,-0.991855
12.2783,321.194,-0.992089
12.28,321.211,-0.992428
12.2817,321.227,-0.992707
12.2833,321.244,-0.992991
12.285,321.26,-0.993441
12.2867,321.277,-0.993725
12.2883,321.294,-0.993948
12.29,321.31,-0.994259
12.2917,321.327,-0.994488
12.2933,321.344,-0.99467
12.295,321.36,-0.994824
12.2967,321.377,-0.994964
12.2983,321.393,-0.995102
12.3,321.41,-0.995242
12.3017,321.427,-0.995381
12.3033,321.443,-0.995519
12.305,321.46,-0.99565
12.3067,321.477,-0.99577
12.3083,321.493,-0.995896
12.31,321.51,-0.99603
12.3117,321.527,-0.996168
12.3133,321.543,-0.996307
12.315,321.56,-0.996447
12.3167,321.577,-0.996603
12.3183,321.594,-0.996803
12.32,321.61,-0.996992
12.3217,321.626,-0.997226
12.3233,321.643,-0.997376
12.325,321.66,-0.997519
12.3267,321.677,-0.997662
12.3283,321.693,-0.997804
12.33,321.71,-0.997939
12.3317,321.727,-0.998068
12.3333,321.743,-0.998191
12.335,321.76,-0.998307
12.3367,321.777,-0.998433
12.3383,321.793,-0.998562
12.34,321.81,-0.998692
12.3417,321.826,-0.998826
12.3433,321.843,-0.998968
12.345,321.86,-0.999116
12.3467,321.876,-0.999346
12.3483,321.893,-0.999704
12.35,321.909,-1.00019
12.3517,321.926,-1.00061
12.3533,321.943,-1.00105
12.355,321.96,-1.00157
12.3567,321.976,-1.00238
12.3583,321.993,-1.00309
12.36,322.01,-1.00352
12.3617,322.026,-1.00382
12.3633,322.043,-1.00399
12.365,322.06,-1.00413
12.3667,322.077,-1.00426
12.3683,322.093,-1.00438
12.37,322.11,-1.00453
12.3717,322.126,-1.00465
12.3733,322.143,-1.00478
12.375,322.159,-1.00494
12.3767,322.176,-1.00517
12.3783,322.192,-1.00539
12.38,322.209,-1.0056
12.3817,322.225,-1.00584
12.3833,322.242,-1.00612
12.385,322.259,-1.00628
12.3867,322.276,-1.00642
12.3883,322.293,-1.00657
12.39,322.309,-1.00676
12.3917,322.326,-1.00693
12.3933,322.343,-1.00716
12.395,322.359,-1.00735
12.3967,322.376,-1.0076
12.3983,322.393,-1.00775
12.4,322.41,-1.0079
12.4017,322.426,-1.00808
12.4033,322.443,-1.00832
12.405,322.459,-1.00878
12.4067,322.476,-1.00923
12.4083,322.493,-1.0097
12.41,322.509,-1.01011
12.4117,322.526,-1.01069
12.4133,322.542,-1.01137
12.415,322.558,-1.01199
12.4167,322.575,-1.01231
12.4183,322.592,-1.0127
12.42,322.609,-1.01311
12.4217,322.625,-1.01348
12.4233,322.642,-1.01392
12.425,322.658,-1.01434
12.4267,322.675,-1.01471
12.4283,322.692,-1.01511
12.43,322.708,-1.01556
12.4317,322.725,-1.01596
12.4333,322.742,-1.01635
12.435,322.758,-1.01666
12.4367,322.775,-1.01699
12.4383,322.791,-1.0174
12.44,322.808,-1.01781
12.4417,322.825,-1.01826
12.4433,322.841,-1.01849
12.445,322.858,-1.01869
12.4467,322.875,-1.01892
12.4483,322.892,-1.01909
12.45,322.908,-1.01923
12.4517,322.925,-1.01938
12.4533,322.941,-1.01952
12.455,322.958,-1.01966
12.4567,322.975,-1.0198
12.4583,322.991,-1.02002
12.46,323.008,-1.02029
12.4617,323.025,-1.02058
12.4633,323.041,-1.02082
12.465,323.058,-1.0212
12.4667,323.074,-1.02157
12.4683,323.091,-1.0219
12.47,323.108,-1.02223
12.4717,323.125,-1.02249
12.4733,323.141,-1.02273
12.475,323.158,-1.02288
12.4767,323.174,-1.02302
12.4783,323.191,-1.02317
12.48,323.207,-1.02331
12.4817,323.224,-1.02346
12.4833,323.241,-1.02373
12.485,323.257,-1.02403
12.4867,323.273,-1.02435
12.4883,323.29,-1.02477
12.49,323.307,-1.0252
12.4917,323.323,-1.02593
12.4933,323.34,-1.02676
12.495,323.357,-1.02769
12.4967,323.373,-1.02838
12.4983,323.39,-1.02889
12.5,323.407,-1.02942
12.5017,323.424,-1.02997
12.5033,323.44,-1.03034
12.505,323.457,-1.03061
12.5067,323.473,-1.03091
12.5083,323.49,-1.03121
12.51,323.507,-1.0316
12.5117,323.523,-1.03209
12.5133,323.54,-1.03272
12.515,323.556,-1.03338
12.5167,323.573,-1.03399
12.5183,323.59,-1.03483
12.52,323.606,-1.03571
12.5217,323.623,-1.03629
12.5233,323.64,-1.03684
12.525,323.656,-1.03738
12.5267,323.673,-1.03789
12.5283,323.69,-1.03841
12.53,323.706,-1.03888
12.5317,323.723,-1.03959
12.5333,323.74,-1.04043
12.535,323.756,-1.04128
12.5367,323.773,-1.04219
12.5383,323.789,-1.04321
12.54,323.806,-1.04398
12.5417,323.823,-1.04457
12.5433,323.839,-1.04526
12.545,323.856,-1.0458
12.5467,323.873,-1.04637
12.5483,323.889,-1.04679
12.55,323.906,-1.04722
12.5517,323.922,-1.04764
12.5533,323.939,-1.04819
12.555,323.956,-1.04878
12.5567,323.972,-1.04933
12.5583,323.989,-1.04989
12.56,324.005,-1.05049
12.5617,324.022,-1.05121
12.5633,324.039,-1.05196
12.565,324.055,-1.05259
12.5667,324.072,-1.05309
12.5683,324.088,-1.0535
12.57,324.105,-1.05395
12.5717,324.122,-1.05444
12.5733,324.138,-1.05517
12.575,324.155,-1.056
12.5767,324.172,-1.05665
12.5783,324.189,-1.05737
12.58,324.205,-1.0584
12.5817,324.222,-1.05944
12.5833,324.238,-1.06029
12.585,324.255,-1.06099
12.5867,324.271,-1.06166
12.5883,324.288,-1.06217
12.59,324.304,-1.06261
12.5917,324.321,-1.06301
12.5933,324.337,-1.06341
12.595,324.354,-1.06378
12.5967,324.371,-1.06413
12.5983,324.388,-1.06465
12.6,324.404,-1.06537
12.6017,324.421,-1.06617
12.6033,324.437,-1.06695
12.605,324.454,-1.06788
12.6067,324.47,-1.0689
12.6083,324.487,-1.07026
12.61,324.504,-1.07152
12.6117,324.52,-1.07278
12.6133,324.537,-1.07365
12.615,324.553,-1.07455
12.6167,324.57,-1.07526
12.6183,324.587,-1.07591
12.62,324.603,-1.07644
12.6217,324.62,-1.077
12.6233,324.636,-1.07765
12.625,324.653,-1.07823
12.6267,324.67,-1.07865
12.6283,324.687,-1.07905
12.63,324.703,-1.07966
12.6317,324.72,-1.08037
12.6333,324.736,-1.08111
12.635,324.753,-1.08204
12.6367,324.769,-1.08307
12.6383,324.786,-1.08417
12.64,324.803,-1.08556
12.6417,324.819,-1.08682
12.6433,324.836,-1.08817
12.645,324.853,-1.08899
12.6467,324.869,-1.08952
12.6483,324.886,-1.08997
12.65,324.903,-1.09031
12.6517,324.919,-1.09063
12.6533,324.936,-1.09095
12.655,324.952,-1.09125
12.6567,324.969,-1.0916
12.6583,324.985,-1.09219
12.66,325.002,-1.09284
12.6617,325.018,-1.0938
12.6633,325.035,-1.09511
12.665,325.052,-1.09679
12.6667,325.068,-1.09881
12.6683,325.085,-1.10088
12.67,325.102,-1.10287
12.6717,325.119,-1.1046
12.6733,325.135,-1.10589
12.675,325.152,-1.10696
12.6767,325.168,-1.108
12.6783,325.185,-1.10891
12.68,325.202,-1.10999
12.6817,325.218,-1.11112
12.6833,325.235,-1.11247
12.685,325.251,-1.1135
12.6867,325.268,-1.11461
12.6883,325.284,-1.11546
12.69,325.301,-1.1162
12.6917,325.318,-1.11696
12.6933,325.334,-1.11779
12.695,325.351,-1.11859
12.6967,325.367,-1.11945
12.6983,325.384,-1.12058
12.7,325.401,-1.12168
12.7017,325.417,-1.12312
12.7033,325.434,-1.12487
12.705,325.45,-1.12645
12.7067,325.467,-1.12808
12.7083,325.483,-1.12963
12.71,325.5,-1.13095
12.7117,325.516,-1.13239
12.7133,325.533,-1.13387
12.715,325.549,-1.13553
12.7167,325.566,-1.1368
12.7183,325.583,-1.13813
12.72,325.6,-1.13908
12.7217,325.617,-1.14004
12.7233,325.633,-1.14092
12.725,325.649,-1.14201
12.7267,325.666,-1.14315
12.7283,325.682,-1.14421
12.73,325.699,-1.14525
12.7317,325.714,-1.14611
12.7333,325.73,-1.14747
12.735,325.747,-1.14925
12.7367,325.764,-1.15058
12.7383,325.781,-1.15183
12.74,325.798,-1.15278
12.7417,325.814,-1.15365
12.7433,325.831,-1.15458
12.745,325.847,-1.1556
12.7467,325.864,-1.15686
12.7483,325.881,-1.15783
12.75,325.897,-1.15886
12.7517,325.914,-1.16002
12.7533,325.93,-1.16149
12.755,325.947,-1.16345
12.7567,325.964,-1.16561
12.7583,325.98,-1.16768
12.76,325.997,-1.16988
12.7617,326.013,-1.17173
12.7633,326.03,-1.17365
12.765,326.047,-1.17574
12.7667,326.064,-1.17758
12.7683,326.08,-1.17919
12.77,326.096,-1.1802
12.7717,326.113,-1.18109
12.7733,326.129,-1.18178
12.775,326.146,-1.18283
12.7767,326.163,-1.18404
12.7783,326.18,-1.18572
12.78,326.196,-1.18774
12.7817,326.212,-1.1899
12.7833,326.229,-1.1924
12.785,326.245,-1.1955
12.7867,326.262,-1.19836
12.7883,326.279,-1.20055
12.79,326.295,-1.20269
12.7917,326.312,-1.20462
12.7933,326.328,-1.20576
12.795,326.345,-1.20719
12.7967,326.361,-1.20828
12.7983,326.378,-1.20915
12.8,326.395,-1.21018
12.8017,326.411,-1.21112
12.8033,326.428,-1.21273
12.805,326.444,-1.21472
12.8067,326.461,-1.21731
12.8083,326.478,-1.21978
12.81,326.494,-1.22165
12.8117,326.511,-1.22392
12.8133,326.528,-1.22593
12.815,326.544,-1.22789
12.8167,326.56,-1.22964
12.8183,326.577,-1.23097
12.82,326.594,-1.23228
12.8217,326.61,-1.23393
12.8233,326.627,-1.23602
12.825,326.643,-1.23807
12.8267,326.66,-1.24033
12.8283,326.676,-1.24273
12.83,326.693,-1.24551
12.8317,326.709,-1.24796
12.8333,326.726,-1.25033
12.835,326.742,-1.25383
12.8367,326.759,-1.25619
12.8383,326.775,-1.25826
12.84,326.791,-1.26034
12.8417,326.808,-1.26175
12.8433,326.825,-1.26344
12.845,326.841,-1.26571
12.8467,326.858,-1.2679
12.8483,326.874,-1.2693
12.85,326.891,-1.27046
12.8517,326.907,-1.27249
12.8533,326.924,-1.27443
12.855,326.94,-1.27707
12.8567,326.957,-1.28016
12.8583,326.973,-1.28435
12.86,326.99,-1.28816
12.8617,327.007,-1.29049
12.8633,327.023,-1.29298
12.865,327.04,-1.29577
12.8667,327.056,-1.29922
12.8683,327.073,-1.30275
12.87,327.089,-1.30463
12.8717,327.106,-1.30703
12.8733,327.122,-1.30948
12.875,327.139,-1.31217
12.8767,327.155,-1.31493
12.8783,327.172,-1.31822
12.88,327.188,-1.3205
12.8817,327.205,-1.32274
12.8833,327.221,-1.32494
12.885,327.238,-1.32696
12.8867,327.254,-1.3301
12.8883,327.271,-1.33236
12.89,327.287,-1.33522
12.8917,327.304,-1.33742
12.8933,327.32,-1.34004
12.895,327.337,-1.3428
12.8967,327.353,-1.34568
12.8983,327.37,-1.3486
12.9,327.386,-1.35266
12.9017,327.403,-1.3563
12.9033,327.419,-1.35933
12.905,327.436,-1.36312
12.9067,327.452,-1.36613
12.9083,327.469,-1.36858
12.91,327.486,-1.37142
12.9117,327.502,-1.3743
12.9133,327.518,-1.37803
12.915,327.535,-1.38255
12.9167,327.551,-1.38656
12.9183,327.568,-1.39036
12.92,327.584,-1.39411
12.9217,327.6,-1.3984
12.9233,327.617,-1.40277
12.925,327.633,-1.40537
12.9267,327.65,-1.40823
12.9283,327.666,-1.41126
12.93,327.682,-1.41343
12.9317,327.699,-1.41651
12.9333,327.715,-1.41944
12.935,327.732,-1.42305
12.9367,327.748,-1.42779
12.9383,327.764,-1.43147
12.94,327.781,-1.43556
12.9417,327.798,-1.44083
12.9433,327.814,-1.44453
12.945,327.831,-1.4478
12.9467,327.847,-1.45184
12.9483,327.863,-1.45588
12.95,327.88,-1.45877
12.9517,327.896,-1.46131
12.9533,327.913,-1.46484
12.955,327.929,-1.46812
12.9567,327.946,-1.47188
12.9583,327.962,-1.47576
12.96,327.979,-1.48088
12.9617,327.995,-1.48501
12.9633,328.012,-1.48883
12.965,328.028,-1.49365
12.9667,328.045,-1.49903
12.9683,328.061,-1.50285
12.97,328.077,-1.50594
12.9717,328.093,-1.5113
12.9733,328.11,-1.51566
12.975,328.126,-1.51895
12.9767,328.142,-1.52295
12.9783,328.159,-1.52695
12.98,328.175,-1.53192
12.9817,328.192,-1.53623
12.9833,328.209,-1.54017
12.985,328.225,-1.54436
12.9867,328.241,-1.5495
12.9883,328.258,-1.55404
12.99,328.274,-1.55864
12.9917,328.29,-1.56314
12.9933,328.307,-1.56808
12.995,328.323,-1.57304
12.9967,328.339,-1.57773
12.9983,328.356,-1.58238
13,328.372,-1.58671
13.0017,328.388,-1.59036
13.0033,328.405,-1.59272
13.005,328.421,-1.59744
13.0067,328.437,-1.60154
13.0083,328.453,-1.60622
13.01,328.47,-1.6112
13.0117,328.486,-1.6175
13.0133,328.502,-1.6235
13.015,328.519,-1.628
13.0167,328.535,-1.63546
13.0183,328.552,-1.64199
13.02,328.568,-1.64825
13.0217,328.584,-1.65327
13.0233,328.601,-1.65921
13.025,328.617,-1.6638
13.0267,328.633,-1.66834
13.0283,328.65,-1.67189
13.03,328.666,-1.67624
13.0317,328.682,-1.68132
13.0333,328.699,-1.68515
13.035,328.715,-1.6886
13.0367,328.731,-1.69352
13.0383,328.748,-1.69911
13.04,328.764,-1.70534
13.0417,328.78,-1.71139
13.0433,328.797,-1.71735
13.045,328.813,-1.72421
13.0467,328.829,-1.72895
13.0483,328.846,-1.73389
13.05,328.862,-1.74054
13.0517,328.878,-1.74521
13.0533,328.894,-1.75002
13.055,328.911,-1.75536
13.0567,328.927,-1.76026
13.0583,328.943,-1.76558
13.06,328.96,-1.77105
13.0617,328.976,-1.777
13.0633,328.993,-1.78221
13.065,329.009,-1.78737
13.0667,329.026,-1.79414
13.0683,329.042,-1.79936
13.07,329.058,-1.80347
13.0717,329.074,-1.80772
13.0733,329.09,-1.81319
13.075,329.107,-1.81806
13.0767,329.123,-1.82253
13.0783,329.139,-1.82623
13.08,329.155,-1.83105
13.0817,329.172,-1.83577
13.0833,329.188,-1.84042
13.085,329.205,-1.845
13.0867,329.221,-1.84984
13.0883,329.237,-1.85478
13.09,329.253,-1.85998
13.0917,329.27,-1.86638
13.0933,329.286,-1.87266
13.095,329.302,-1.87778
13.0967,329.318,-1.88296
13.0983,329.334,-1.8888
13.1,329.351,-1.89339
13.1017,329.367,-1.89795
13.1033,329.384,-1.90225
13.105,329.4,-1.90594
13.1067,329.417,-1.91014
13.1083,329.433,-1.91562
13.11,329.449,-1.91838
13.1117,329.466,-1.92172
13.1133,329.482,-1.92477
13.115,329.498,-1.92882
13.1167,329.514,-1.93165
13.1183,329.531,-1.93382
13.12,329.547,-1.93527
13.1217,329.563,-1.93714
13.1233,329.579,-1.93921
13.125,329.596,-1.9422
13.1267,329.612,-1.94531
13.1283,329.629,-1.94619
13.13,329.645,-1.9483
13.1317,329.661,-1.95105
13.1333,329.678,-1.95295
13.135,329.694,-1.95672
13.1367,329.71,-1.95928
13.1383,329.727,-1.96137
13.14,329.743,-1.96398
13.1417,329.76,-1.96588
13.1433,329.776,-1.96936
13.145,329.792,-1.97033
13.1467,329.809,-1.97149
13.1483,329.825,-1.97277
13.15,329.841,-1.97281
13.1517,329.858,-1.97237
13.1533,329.875,-1.9715
13.155,329.891,-1.97132
13.1567,329.908,-1.97074
13.1583,329.924,-1.96946
13.16,329.94,-1.96833
13.1617,329.957,-1.96731
13.1633,329.973,-1.96614
13.165,329.989,-1.96057
13.1667,330.006,-1.9585
13.1683,330.022,-1.9568
13.17,330.039,-1.95389
13.1717,330.055,-1.95256
13.1733,330.072,-1.94967
13.175,330.089,-1.94694
13.1767,330.105,-1.94485
13.1783,330.122,-1.94212
13.18,330.138,-1.93857
13.1817,330.155,-1.93426
13.1833,330.172,-1.92864
13.185,330.188,-1.92249
13.1867,330.205,-1.9156
13.1883,330.222,-1.90879
13.19,330.239,-1.90247
13.1917,330.255,-1.89625
13.1933,330.272,-1.8883
13.195,330.288,-1.8811
13.1967,330.305,-1.87231
13.1983,330.322,-1.86531
13.2,330.338,-1.85958
13.2017,330.355,-1.8527
13.2033,330.372,-1.84479
13.205,330.389,-1.83696
13.2067,330.406,-1.82805
13.2083,330.423,-1.81941
13.21,330.439,-1.80857
13.2117,330.456,-1.79833
13.2133,330.473,-1.78862
13.215,330.49,-1.77792
13.2167,330.507,-1.76807
13.2183,330.523,-1.75711
13.22,330.54,-1.74669
13.2217,330.557,-1.73577
13.2233,330.574,-1.72445
13.225,330.591,-1.71271
13.2267,330.608,-1.70151
13.2283,330.625,-1.68892
13.23,330.642,-1.67714
13.2317,330.659,-1.66588
13.2333,330.677,-1.65467
13.235,330.694,-1.64376
13.2367,330.711,-1.63346
13.2383,330.728,-1.62468
13.24,330.745,-1.61496
13.2417,330.763,-1.60528
13.2433,330.779,-1.59369
13.245,330.796,-1.5821
13.2467,330.813,-1.57129
13.2483,330.83,-1.56028
13.25,330.848,-1.54793
13.2517,330.865,-1.53548
13.2533,330.881,-1.52468
13.255,330.898,-1.51348
13.2567,330.916,-1.50323
13.2583,330.933,-1.49222
13.26,330.95,-1.48229
13.2617,330.967,-1.47176
13.2633,330.984,-1.46085
13.265,331.002,-1.45049
13.2667,331.019,-1.44027
13.2683,331.036,-1.42948
13.27,331.053,-1.41918
13.2717,331.071,-1.40796
13.2733,331.088,-1.39623
13.275,331.105,-1.38687
13.2767,331.122,-1.37852
13.2783,331.14,-1.36864
13.28,331.157,-1.35929
13.2817,331.174,-1.34969
13.2833,331.191,-1.3409
13.285,331.209,-1.33192
13.2867,331.226,-1.32314
13.2883,331.243,-1.31351
13.29,331.261,-1.30384
13.2917,331.278,-1.29666
13.2933,331.295,-1.28826
13.295,331.312,-1.2824
13.2967,331.33,-1.27687
13.2983,331.347,-1.27033
13.3,331.364,-1.26329
13.3017,331.382,-1.25824
13.3033,331.399,-1.25249
13.305,331.416,-1.24546
13.3067,331.433,-1.23981
13.3083,331.45,-1.23375
13.31,331.467,-1.22687
13.3117,331.485,-1.2195
13.3133,331.502,-1.2119
13.315,331.519,-1.20506
13.3167,331.536,-1.19806
13.3183,331.553,-1.19159
13.32,331.571,-1.18583
13.3217,331.588,-1.17927
13.3233,331.605,-1.17349
13.325,331.622,-1.16733
13.3267,331.639,-1.16094
13.3283,331.657,-1.15573
13.33,331.674,-1.15062
13.3317,331.691,-1.14528
13.3333,331.708,-1.1403
13.335,331.725,-1.13568
13.3367,331.743,-1.13124
13.3383,331.76,-1.12738
13.34,331.777,-1.12408
13.3417,331.794,-1.11946
13.3433,331.811,-1.11517
13.345,331.828,-1.11188
13.3467,331.846,-1.10844
13.3483,331.863,-1.10498
13.35,331.88,-1.10143
13.3517,331.897,-1.09815
13.3533,331.914,-1.09625
13.355,331.931,-1.09361
13.3567,331.948,-1.08964
13.3583,331.965,-1.0872
13.36,331.982,-1.08353
13.3617,332,-1.07958
13.3633,332.017,-1.07691
13.365,332.034,-1.07308
13.3667,332.051,-1.06925
13.3683,332.068,-1.06532
13.37,332.085,-1.06121
13.3717,332.102,-1.05972
13.3733,332.119,-1.05749
13.375,332.137,-1.05426
13.3767,332.153,-1.05071
13.3783,332.17,-1.04766
13.38,332.188,-1.04518
13.3817,332.205,-1.04295
13.3833,332.221,-1.04084
13.385,332.239,-1.03861
13.3867,332.255,-1.03481
13.3883,332.272,-1.03132
13.39,332.289,-1.02888
13.3917,332.306,-1.02648
13.3933,332.324,-1.02351
13.395,332.341,-1.02165
13.3967,332.358,-1.01831
13.3983,332.375,-1.01558
13.4,332.392,-1.01336
13.4017,332.408,-1.01063
13.4033,332.426,-1.00923
13.405,332.442,-1.00821
13.4067,332.459,-1.00765
13.4083,332.476,-1.00672
13.41,332.493,-1.00517
13.4117,332.51,-1.00284
13.4133,332.527,-1.00162
13.415,332.544,-0.998471
13.4167,332.561,-0.997279
13.4183,332.578,-0.994614
13.42,332.595,-0.992513
13.4217,332.612,-0.991262
13.4233,332.629,-0.990855
13.425,332.646,-0.989965
13.4267,332.662,-0.988735
13.4283,332.679,-0.987658
13.43,332.696,-0.986864
13.4317,332.713,-0.98511
13.4333,332.729,-0.984009
13.435,332.746,-0.98193
13.4367,332.763,-0.980196
13.4383,332.78,-0.977511
13.44,332.797,-0.976371
13.4417,332.814,-0.975461
13.4433,332.831,-0.974412
13.445,332.848,-0.972906
13.4467,332.865,-0.97195
13.4483,332.882,-0.970827
13.45,332.899,-0.969745
13.4517,332.915,-0.9685
13.4533,332.932,-0.966441
13.455,332.949,-0.96426
13.4567,332.966,-0.961988
13.4583,332.982,-0.960043
13.46,332.999,-0.958639
13.4617,333.016,-0.957791
13.4633,333.033,-0.957117
13.465,333.05,-0.956638
13.4667,333.066,-0.956359
13.4683,333.083,-0.95641
13.47,333.1,-0.95659
13.4717,333.117,-0.956774
13.4733,333.134,-0.956897
13.475,333.151,-0.956818
13.4767,333.167,-0.956817
13.4783,333.184,-0.956405
13.48,333.201,-0.955753
13.4817,333.217,-0.954588
13.4833,333.234,-0.953481
13.485,333.251,-0.952425
13.4867,333.268,-0.951521
13.4883,333.284,-0.950536
13.49,333.301,-0.949908
13.4917,333.319,-0.949217
13.4933,333.335,-0.948395
13.495,333.352,-0.947614
13.4967,333.368,-0.946688
13.4983,333.385,-0.945406
13.5,333.402,-0.944091
13.5017,333.419,-0.943207
13.5033,333.436,-0.942222
13.505,333.452,-0.941319
13.5067,333.469,-0.940279
13.5083,333.486,-0.939298
13.51,333.502,-0.938792
13.5117,333.519,-0.938372
13.5133,333.536,-0.938129
13.515,333.553,-0.937954
13.5167,333.57,-0.937778
13.5183,333.587,-0.937646
13.52,333.604,-0.937582
13.5217,333.62,-0.937557
13.5233,333.637,-0.937514
13.525,333.653,-0.937414
13.5267,333.67,-0.937259
13.5283,333.687,-0.937005
13.53,333.704,-0.936565
13.5317,333.721,-0.936089
13.5333,333.737,-0.93556
13.535,333.754,-0.934792
13.5367,333.771,-0.93426
13.5383,333.788,-0.933811
13.54,333.804,-0.933312
13.5417,333.821,-0.932838
13.5433,333.838,-0.932394
13.545,333.854,-0.931915
13.5467,333.871,-0.931484
13.5483,333.888,-0.931099
13.55,333.904,-0.930812
13.5517,333.921,-0.930523
13.5533,333.938,-0.930326
13.555,333.954,-0.930172
13.5567,333.972,-0.930049
13.5583,333.988,-0.929933
13.56,334.005,-0.929736
13.5617,334.021,-0.929506
13.5633,334.038,-0.92929
13.565,334.055,-0.929124
13.5667,334.072,-0.928953
13.5683,334.088,-0.928743
13.57,334.105,-0.928463
13.5717,334.121,-0.928209
13.5733,334.138,-0.927907
13.575,334.155,-0.92752
13.5767,334.171,-0.927254
13.5783,334.188,-0.926948
13.58,334.205,-0.926686
13.5817,334.222,-0.926484
13.5833,334.239,-0.926376
13.585,334.255,-0.926313
13.5867,334.272,-0.926251
13.5883,334.289,-0.926175
13.59,334.305,-0.926076
13.5917,334.322,-0.925965
13.5933,334.339,-0.925817
13.595,334.355,-0.925656
13.5967,334.372,-0.925388
13.5983,334.389,-0.92508
13.6,334.405,-0.924705
13.6017,334.422,-0.924367
13.6033,334.438,-0.924167
13.605,334.455,-0.924013
13.6067,334.472,-0.923851
13.6083,334.488,-0.923703
13.61,334.505,-0.923615
13.6117,334.522,-0.923524
13.6133,334.538,-0.923071
13.615,334.555,-0.922673
13.6167,334.572,-0.922629
13.6183,334.589,-0.922581
13.62,334.606,-0.922512
13.6217,334.622,-0.922453
13.6233,334.639,-0.92239
13.625,334.656,-0.922309
13.6267,334.672,-0.92224
13.6283,334.689,-0.922138
13.63,334.705,-0.922049
13.6317,334.722,-0.921889
13.6333,334.738,-0.921714
13.635,334.755,-0.921513
13.6367,334.772,-0.921305
13.6383,334.789,-0.921126
13.64,334.806,-0.921057
13.6417,334.822,-0.920988
13.6433,334.839,-0.920923
13.645,334.855,-0.920671
13.6467,334.872,-0.920526
13.6483,334.889,-0.920466
13.65,334.906,-0.920401
13.6517,334.922,-0.920343
13.6533,334.939,-0.920275
13.655,334.956,-0.920203
13.6567,334.972,-0.920062
13.6583,334.989,-0.919953
13.66,335.006,-0.919849
13.6617,335.022,-0.919774
13.6633,335.039,-0.919699
13.665,335.056,-0.919632
13.6667,335.072,-0.919447
13.6683,335.089,-0.919296
13.67,335.106,-0.919233
13.6717,335.122,-0.91917
13.6733,335.139,-0.919105
13.675,335.156,-0.919035
13.6767,335.172,-0.918961
13.6783,335.189,-0.918882
13.68,335.206,-0.918804
13.6817,335.222,-0.918728
13.6833,335.239,-0.918648
13.685,335.256,-0.918569
13.6867,335.272,-0.918497
13.6883,335.289,-0.91843
13.69,335.306,-0.918362
13.6917,335.323,-0.918294
13.6933,335.339,-0.918217
13.695,335.356,-0.918135
13.6967,335.372,-0.918023
13.6983,335.389,-0.917871
13.7,335.406,-0.917719
13.7017,335.423,-0.917541
13.7033,335.439,-0.917366
13.705,335.456,-0.917205
13.7067,335.473,-0.917081
13.7083,335.489,-0.916996
13.71,335.506,-0.916887
13.7117,335.523,-0.916823
13.7133,335.539,-0.916768
13.715,335.556,-0.916706
13.7167,335.573,-0.916646
13.7183,335.589,-0.916581
13.72,335.606,-0.916509
13.7217,335.623,-0.916436
13.7233,335.639,-0.916353
13.725,335.656,-0.916277
13.7267,335.672,-0.916213
13.7283,335.689,-0.916161
13.73,335.706,-0.916112
13.7317,335.723,-0.916062
13.7333,335.739,-0.916016
13.735,335.756,-0.915966
13.7367,335.773,-0.915907
13.7383,335.789,-0.915843
13.74,335.806,-0.915779
13.7417,335.823,-0.915715
13.7433,335.839,-0.915657
13.745,335.856,-0.915589
13.7467,335.873,-0.915532
13.7483,335.889,-0.915477
13.75,335.906,-0.91543
13.7517,335.922,-0.915378
13.7533,335.939,-0.915326
13.755,335.956,-0.915259
13.7567,335.973,-0.915181
13.7583,335.989,-0.915102
13.76,336.006,-0.915028
13.7617,336.022,-0.914963
13.7633,336.039,-0.914902
13.765,336.056,-0.914841
13.7667,336.073,-0.914776
13.7683,336.09,-0.914717
13.77,336.106,-0.914662
13.7717,336.123,-0.91461
13.7733,336.139,-0.91456
13.775,336.156,-0.914506
13.7767,336.172,-0.914451
13.7783,336.189,-0.914408
13.78,336.205,-0.914367
13.7817,336.222,-0.914322
13.7833,336.239,-0.914277
13.785,336.255,-0.914231
13.7867,336.272,-0.914177
13.7883,336.289,-0.914117
13.79,336.305,-0.914065
13.7917,336.322,-0.914005
13.7933,336.339,-0.913937
13.795,336.356,-0.913872
13.7967,336.372,-0.913809
13.7983,336.389,-0.91375
13.8,336.406,-0.913687
13.8017,336.422,-0.913614
13.8033,336.439,-0.913541
13.805,336.455,-0.913471
13.8067,336.472,-0.913402
13.8083,336.489,-0.913331
13.81,336.506,-0.913254
13.8117,336.522,-0.91318
13.8133,336.539,-0.913107
13.815,336.556,-0.91304
13.8167,336.572,-0.912971
13.8183,336.589,-0.912898
13.82,336.606,-0.912826
13.8217,336.622,-0.912758
13.8233,336.639,-0.912695
13.825,336.656,-0.912644
13.8267,336.672,-0.912586
13.8283,336.689,-0.912529
13.83,336.706,-0.912473
13.8317,336.722,-0.912415
13.8333,336.739,-0.912357
13.835,336.755,-0.912306
13.8367,336.772,-0.912252
13.8383,336.788,-0.912199
13.84,336.805,-0.912152
13.8417,336.822,-0.912106
13.8433,336.839,-0.912065
13.845,336.855,-0.912013
13.8467,336.872,-0.911964
13.8483,336.889,-0.911908
13.85,336.906,-0.911836
13.8517,336.922,-0.911755
13.8533,336.939,-0.911672
13.855,336.955,-0.911581
13.8567,336.972,-0.911497
13.8583,336.988,-0.911413
13.86,337.005,-0.911345
13.8617,337.022,-0.911283
13.8633,337.038,-0.911229
13.865,337.055,-0.911186
13.8667,337.072,-0.91115
13.8683,337.088,-0.911105
13.87,337.105,-0.911065
13.8717,337.122,-0.911029
13.8733,337.139,-0.910989
13.875,337.155,-0.910947
13.8767,337.172,-0.910896
13.8783,337.189,-0.910843
13.88,337.205,-0.910788
13.8817,337.222,-0.910734
13.8833,337.239,-0.910689
13.885,337.255,-0.910649
13.8867,337.272,-0.910599
13.8883,337.288,-0.910557
13.89,337.305,-0.910512
13.8917,337.322,-0.910466
13.8933,337.339,-0.910429
13.895,337.355,-0.910387
13.8967,337.372,-0.910337
13.8983,337.389,-0.910275
13.9,337.405,-0.91021
13.9017,337.422,-0.910157
13.9033,337.439,-0.910114
13.905,337.455,-0.910068
13.9067,337.472,-0.910023
13.9083,337.488,-0.909973
13.91,337.505,-0.909928
13.9117,337.521,-0.909881
13.9133,337.538,-0.909835
13.915,337.555,-0.909786
13.9167,337.571,-0.909732
13.9183,337.588,-0.909689
13.92,337.604,-0.909659
13.9217,337.621,-0.909639
13.9233,337.638,-0.909623
13.925,337.655,-0.909613
13.9267,337.671,-0.9096
13.9283,337.688,-0.909594
13.93,337.705,-0.909589
13.9317,337.722,-0.909568
13.9333,337.738,-0.909543
13.935,337.755,-0.909511
13.9367,337.772,-0.909473
13.9383,337.789,-0.909426
13.94,337.805,-0.909379
13.9417,337.822,-0.909321
13.9433,337.839,-0.90926
13.945,337.855,-0.909199
13.9467,337.872,-0.909145
13.9483,337.888,-0.909096
13.95,337.905,-0.909045
13.9517,337.922,-0.909001
13.9533,337.938,-0.908958
13.955,337.955,-0.908917
13.9567,337.971,-0.908879
13.9583,337.988,-0.908848
13.96,338.005,-0.908825
13.9617,338.022,-0.908796
13.9633,338.038,-0.908778
13.965,338.055,-0.908769
13.9667,338.072,-0.908769
13.9683,338.088,-0.90877
13.97,338.105,-0.908774
13.9717,338.121,-0.90878
13.9733,338.138,-0.908779
13.975,338.155,-0.908758
13.9767,338.171,-0.908727
13.9783,338.188,-0.908685
13.98,338.205,-0.908635
13.9817,338.221,-0.908581
13.9833,338.238,-0.908523
13.985,338.255,-0.908476
13.9867,338.271,-0.90844
13.9883,338.288,-0.908409
13.99,338.305,-0.908379
13.9917,338.321,-0.908352
13.9933,338.338,-0.908322
13.995,338.355,-0.908283
13.9967,338.371,-0.908245
13.9983,338.388,-0.908208
14,338.404,-0.908176
14.0017,338.421,-0.908143
14.0033,338.438,-0.908108
14.005,338.454,-0.908075
14.0067,338.471,-0.908051
14.0083,338.488,-0.908029
14.01,338.505,-0.908006
14.0117,338.522,-0.907979
14.0133,338.538,-0.907947
14.015,338.555,-0.907924
14.0167,338.571,-0.907901
14.0183,338.588,-0.907871
14.02,338.605,-0.907841
14.0217,338.621,-0.90781
14.0233,338.638,-0.907788
14.025,338.655,-0.907774
14.0267,338.671,-0.90776
14.0283,338.688,-0.907739
14.03,338.704,-0.907718
14.0317,338.721,-0.907696
14.0333,338.738,-0.907672
14.035,338.754,-0.907659
14.0367,338.771,-0.907644
14.0383,338.788,-0.907622
14.04,338.804,-0.907612
14.0417,338.821,-0.907599
14.0433,338.838,-0.907588
14.045,338.855,-0.907576
14.0467,338.871,-0.907561
14.0483,338.888,-0.907546
14.05,338.905,-0.907527
14.0517,338.921,-0.907505
14.0533,338.938,-0.907483
14.055,338.955,-0.907459
14.0567,338.971,-0.907433
14.0583,338.988,-0.907412
14.06,339.005,-0.907391
14.0617,339.021,-0.907372
14.0633,339.038,-0.907361
14.065,339.055,-0.907348
14.0667,339.071,-0.907347
14.0683,339.088,-0.907332
14.07,339.104,-0.907313
14.0717,339.121,-0.907295
14.0733,339.138,-0.90727
14.075,339.154,-0.907243
14.0767,339.171,-0.90722
14.0783,339.188,-0.907196
14.08,339.204,-0.907175
14.0817,339.221,-0.907161
14.0833,339.238,-0.907149
14.085,339.255,-0.907146
14.0867,339.271,-0.907145
14.0883,339.288,-0.90715
14.09,339.305,-0.907159
14.0917,339.321,-0.907181
14.0933,339.338,-0.907195
14.095,339.355,-0.907208
14.0967,339.371,-0.907211
14.0983,339.388,-0.907208
14.1,339.404,-0.907207
14.1017,339.421,-0.907205
14.1033,339.438,-0.907204
14.105,339.454,-0.907194
14.1067,339.471,-0.907179
14.1083,339.488,-0.907155
14.11,339.504,-0.907133
14.1117,339.521,-0.907104
14.1133,339.538,-0.907079
14.115,339.554,-0.907058
14.1167,339.571,-0.907046
14.1183,339.588,-0.907037
14.12,339.604,-0.907022
14.1217,339.621,-0.907016
14.1233,339.638,-0.907008
14.125,339.654,-0.907008
14.1267,339.671,-0.906997
14.1283,339.688,-0.906985
14.13,339.704,-0.906978
14.1317,339.721,-0.906981
14.1333,339.738,-0.906978
14.135,339.755,-0.906976
14.1367,339.771,-0.906978
14.1383,339.788,-0.906974
14.14,339.804,-0.906968
14.1417,339.821,-0.906954
14.1433,339.838,-0.906932
14.145,339.854,-0.906908
14.1467,339.871,-0.90689
14.1483,339.888,-0.906875
14.15,339.904,-0.906864
14.1517,339.921,-0.90685
14.1533,339.937,-0.906845
14.155,339.954,-0.906834
14.1567,339.971,-0.906822
14.1583,339.988,-0.906805
14.16,340.004,-0.90679
14.1617,340.021,-0.906777
14.1633,340.037,-0.906755
14.165,340.054,-0.906737
14.1667,340.07,-0.906724
14.1683,340.087,-0.906717
14.17,340.104,-0.906716
14.1717,340.12,-0.906718
14.1733,340.137,-0.906719
14.175,340.154,-0.90672
14.1767,340.17,-0.906729
14.1783,340.187,-0.906737
14.18,340.203,-0.90674
14.1817,340.22,-0.906729
14.1833,340.237,-0.906715
14.185,340.254,-0.906697
14.1867,340.271,-0.906673
14.1883,340.287,-0.906668
14.19,340.304,-0.90666
14.1917,340.321,-0.906644
14.1933,340.337,-0.906628
14.195,340.354,-0.906611
14.1967,340.371,-0.906595
14.1983,340.387,-0.90658
14.2,340.404,-0.906561
14.2017,340.42,-0.906548
14.2033,340.437,-0.906546
14.205,340.454,-0.906543
14.2067,340.471,-0.906552
14.2083,340.487,-0.906569
14.21,340.505,-0.906587
14.2117,340.521,-0.90661
14.2133,340.538,-0.906632
14.215,340.554,-0.906646
14.2167,340.571,-0.906652
14.2183,340.587,-0.906658
14.22,340.604,-0.906658
14.2217,340.62,-0.906648
14.2233,340.637,-0.906638
14.225,340.653,-0.906624
14.2267,340.67,-0.906615
14.2283,340.687,-0.906605
14.23,340.703,-0.906594
14.2317,340.72,-0.906579
14.2333,340.737,-0.90657
14.235,340.754,-0.906562
14.2367,340.771,-0.90655
14.2383,340.787,-0.906543
14.24,340.804,-0.906529
14.2417,340.821,-0.906518
14.2433,340.837,-0.90652
14.245,340.854,-0.906528
14.2467,340.87,-0.906539
14.2483,340.887,-0.90655
14.25,340.904,-0.906564
14.2517,340.921,-0.906579
14.2533,340.938,-0.906602
14.255,340.955,-0.906621
14.2567,340.971,-0.906633
14.2583,340.988,-0.906643
14.26,341.004,-0.906646
14.2617,341.021,-0.906653
14.2633,341.038,-0.906661
14.265,341.054,-0.906669
14.2667,341.071,-0.906679
14.2683,341.087,-0.906681
14.27,341.104,-0.906682
14.2717,341.121,-0.906691
14.2733,341.138,-0.9067
14.275,341.154,-0.906715
14.2767,341.171,-0.906727
14.2783,341.188,-0.906735
14.28,341.204,-0.906743
14.2817,341.221,-0.906753
14.2833,341.238,-0.906768
14.285,341.254,-0.906787
14.2867,341.271,-0.906806
14.2883,341.288,-0.906825
14.29,341.304,-0.906844
14.2917,341.321,-0.906854
14.2933,341.337,-0.906859
14.295,341.354,-0.906861
14.2967,341.371,-0.906854
14.2983,341.388,-0.906851
14.3,341.404,-0.90685
14.3017,341.421,-0.906845
14.3033,341.438,-0.906837
14.305,341.454,-0.90683
14.3067,341.471,-0.906838
14.3083,341.488,-0.906847
14.31,341.504,-0.90686
14.3117,341.521,-0.906875
14.3133,341.538,-0.906896
14.315,341.554,-0.906914
14.3167,341.57,-0.906938
14.3183,341.587,-0.906961
14.32,341.604,-0.906982
14.3217,341.621,-0.907001
14.3233,341.638,-0.907022
14.325,341.654,-0.907041
14.3267,341.67,-0.90705
14.3283,341.687,-0.907058
14.33,341.704,-0.907062
14.3317,341.721,-0.907066
14.3333,341.737,-0.907073
14.335,341.754,-0.907077
14.3367,341.771,-0.907075
14.3383,341.787,-0.907069
14.34,341.804,-0.907063
14.3417,341.821,-0.907058
14.3433,341.837,-0.907047
14.345,341.854,-0.907036
14.3467,341.871,-0.907029
14.3483,341.887,-0.907035
14.35,341.904,-0.907052
14.3517,341.921,-0.907076
14.3533,341.937,-0.907105
14.355,341.954,-0.907133
14.3567,341.97,-0.907157
14.3583,341.987,-0.907183
14.36,342.004,-0.907205
14.3617,342.021,-0.907222
14.3633,342.038,-0.907238
14.365,342.054,-0.907234
14.3667,342.071,-0.90723
14.3683,342.088,-0.907227
14.37,342.104,-0.907227
14.3717,342.121,-0.907227
14.3733,342.137,-0.907232
14.375,342.154,-0.907237
14.3767,342.171,-0.90725
14.3783,342.188,-0.90727
14.38,342.204,-0.907295
14.3817,342.221,-0.907322
14.3833,342.238,-0.907349
14.385,342.254,-0.907373
14.3867,342.271,-0.907391
14.3883,342.288,-0.907412
14.39,342.304,-0.907432
14.3917,342.321,-0.907457
14.3933,342.338,-0.907476
14.395,342.354,-0.907496
14.3967,342.371,-0.907514
14.3983,342.388,-0.907527
14.4,342.404,-0.907529
14.4017,342.421,-0.907527
14.4033,342.437,-0.907527
14.405,342.454,-0.907524
14.4067,342.471,-0.907528
14.4083,342.487,-0.907532
14.41,342.504,-0.907542
14.4117,342.521,-0.907555
14.4133,342.537,-0.907564
14.415,342.554,-0.907582
14.4167,342.571,-0.907607
14.4183,342.587,-0.907628
14.42,342.604,-0.907652
14.4217,342.621,-0.907678
14.4233,342.638,-0.907695
14.425,342.654,-0.907713
14.4267,342.671,-0.907736
14.4283,342.688,-0.907753
14.43,342.705,-0.907763
14.4317,342.721,-0.907774
14.4333,342.737,-0.907782
14.435,342.754,-0.907793
14.4367,342.77,-0.907794
14.4383,342.787,-0.907797
14.44,342.804,-0.907805
14.4417,342.82,-0.907816
14.4433,342.837,-0.907823
14.445,342.854,-0.907828
14.4467,342.87,-0.907833
14.4483,342.887,-0.907839
14.45,342.904,-0.907841
14.4517,342.921,-0.907844
14.4533,342.937,-0.907851
14.455,342.954,-0.907852
14.4567,342.97,-0.907855
14.4583,342.987,-0.907861
14.46,343.003,-0.907868
14.4617,343.021,-0.907873
14.4633,343.038,-0.907877
14.465,343.054,-0.907881
14.4667,343.071,-0.907897
14.4683,343.088,-0.907919
14.47,343.104,-0.907939
14.4717,343.121,-0.907968
14.4733,343.138,-0.908002
14.475,343.154,-0.908036
14.4767,343.171,-0.908073
14.4783,343.188,-0.90811
14.48,343.204,-0.908143
14.4817,343.221,-0.908172
14.4833,343.238,-0.9082
14.485,343.254,-0.908227
14.4867,343.271,-0.908254
14.4883,343.288,-0.908275
14.49,343.304,-0.908293
14.4917,343.321,-0.908319
14.4933,343.338,-0.908337
14.495,343.355,-0.908352
14.4967,343.371,-0.908374
14.4983,343.387,-0.908397
14.5,343.404,-0.908419
14.5017,343.421,-0.908434
14.5033,343.437,-0.908449
14.505,343.454,-0.908465
14.5067,343.471,-0.908482
14.5083,343.488,-0.908496
14.51,343.504,-0.908501
14.5117,343.521,-0.908509
14.5133,343.538,-0.908518
14.515,343.554,-0.908528
14.5167,343.571,-0.908529
14.5183,343.587,-0.90853
14.52,343.605,-0.908532
14.5217,343.621,-0.908536
14.5233,343.638,-0.908549
14.525,343.654,-0.908569
14.5267,343.671,-0.908599
14.5283,343.688,-0.908632
14.53,343.704,-0.908669
14.5317,343.721,-0.908704
14.5333,343.738,-0.908751
14.535,343.754,-0.9088
14.5367,343.771,-0.908846
14.5383,343.788,-0.90889
14.54,343.804,-0.908931
14.5417,343.821,-0.908967
14.5433,343.838,-0.909003
14.545,343.854,-0.909035
14.5467,343.871,-0.909066
14.5483,343.888,-0.909089
14.55,343.905,-0.909099
14.5517,343.921,-0.909096
14.5533,343.938,-0.909078
14.555,343.954,-0.909062
14.5567,343.971,-0.909058
14.5583,343.988,-0.909055
14.56,344.005,-0.909067
14.5617,344.021,-0.90908
14.5633,344.037,-0.909092
14.565,344.054,-0.909101
14.5667,344.071,-0.909117
14.5683,344.088,-0.90914
14.57,344.104,-0.90916
14.5717,344.121,-0.909178
14.5733,344.138,-0.909191
14.575,344.155,-0.9092
14.5767,344.171,-0.909206
14.5783,344.188,-0.909207
14.58,344.205,-0.909208
14.5817,344.221,-0.909208
14.5833,344.238,-0.909202
14.585,344.254,-0.909196
14.5867,344.272,-0.909197
14.5883,344.288,-0.909206
14.59,344.305,-0.909219
14.5917,344.322,-0.909239
14.5933,344.338,-0.909252
14.595,344.354,-0.909276
14.5967,344.371,-0.90931
14.5983,344.387,-0.909345
14.6,344.404,-0.909382
14.6017,344.421,-0.90942
14.6033,344.438,-0.909454
14.605,344.454,-0.909501
14.6067,344.471,-0.909557
14.6083,344.488,-0.909595
14.61,344.505,-0.909627
14.6117,344.521,-0.909651
14.6133,344.538,-0.909665
14.615,344.554,-0.909678
14.6167,344.571,-0.909696
14.6183,344.588,-0.909715
14.62,344.604,-0.909731
14.6217,344.621,-0.909748
14.6233,344.638,-0.909772
14.625,344.655,-0.909789
14.6267,344.671,-0.909804
14.6283,344.688,-0.909822
14.63,344.705,-0.909834
14.6317,344.722,-0.909842
14.6333,344.738,-0.909847
14.635,344.755,-0.909848
14.6367,344.772,-0.909846
14.6383,344.788,-0.909847
14.64,344.805,-0.909859
14.6417,344.821,-0.909868
14.6433,344.838,-0.909882
14.645,344.855,-0.909897
14.6467,344.871,-0.909913
14.6483,344.888,-0.909935
14.65,344.905,-0.909957
14.6517,344.921,-0.909977
14.6533,344.938,-0.909999
14.655,344.955,-0.910016
14.6567,344.971,-0.910029
14.6583,344.988,-0.91005
14.66,345.005,-0.910064
14.6617,345.021,-0.910078
14.6633,345.038,-0.910101
14.665,345.054,-0.910127
14.6667,345.072,-0.910158
14.6683,345.088,-0.9102
14.67,345.105,-0.910237
14.6717,345.121,-0.910269
14.6733,345.138,-0.910292
14.675,345.155,-0.910318
14.6767,345.171,-0.910343
14.6783,345.188,-0.910369
14.68,345.205,-0.910395
14.6817,345.221,-0.910418
14.6833,345.238,-0.91044
14.685,345.255,-0.910462
14.6867,345.271,-0.91048
14.6883,345.288,-0.910498
14.69,345.305,-0.910526
14.6917,345.321,-0.910549
14.6933,345.338,-0.910563
14.695,345.355,-0.910574
14.6967,345.371,-0.910605
14.6983,345.388,-0.910636
14.7,345.405,-0.910672
14.7017,345.421,-0.910712
14.7033,345.438,-0.910751
14.705,345.455,-0.91079
14.7067,345.471,-0.910828
14.7083,345.488,-0.91086
14.71,345.505,-0.910892
14.7117,345.522,-0.910923
14.7133,345.538,-0.910958
14.715,345.555,-0.910989
14.7167,345.571,-0.911006
14.7183,345.588,-0.911016
14.72,345.604,-0.91104
14.7217,345.621,-0.911052
14.7233,345.638,-0.911066
14.725,345.654,-0.911078
14.7267,345.671,-0.91109
14.7283,345.688,-0.911106
14.73,345.705,-0.911122
14.7317,345.722,-0.91115
14.7333,345.738,-0.911182
14.735,345.755,-0.911214
14.7367,345.772,-0.911237
14.7383,345.788,-0.911263
14.74,345.805,-0.911283
14.7417,345.822,-0.911295
14.7433,345.838,-0.911306
14.745,345.855,-0.911322
14.7467,345.871,-0.911332
14.7483,345.888,-0.911336
14.75,345.904,-0.911341
14.7517,345.921,-0.911352
14.7533,345.938,-0.911371
14.755,345.954,-0.911392
14.7567,345.971,-0.911413
14.7583,345.988,-0.911431
14.76,346.005,-0.911445
14.7617,346.021,-0.911461
14.7633,346.038,-0.91149
14.765,346.055,-0.911515
14.7667,346.071,-0.911542
14.7683,346.087,-0.911574
14.77,346.104,-0.911618
14.7717,346.121,-0.911671
14.7733,346.138,-0.911721
14.775,346.155,-0.91177
14.7767,346.171,-0.911816
14.7783,346.188,-0.911852
14.78,346.205,-0.911883
14.7817,346.221,-0.911909
14.7833,346.238,-0.91193
14.785,346.255,-0.911945
14.7867,346.271,-0.911953
14.7883,346.288,-0.911962
14.79,346.305,-0.911972
14.7917,346.321,-0.911983
14.7933,346.338,-0.911998
14.795,346.355,-0.912014
14.7967,346.371,-0.912032
14.7983,346.388,-0.912047
14.8,346.405,-0.912059
14.8017,346.421,-0.912071
14.8033,346.438,-0.912083
14.805,346.455,-0.912093
14.8067,346.471,-0.912102
14.8083,346.488,-0.91211
14.81,346.505,-0.912118
14.8117,346.521,-0.912129
14.8133,346.538,-0.912147
14.815,346.555,-0.912164
14.8167,346.572,-0.912192
14.8183,346.589,-0.912229
14.82,346.606,-0.912269
14.8217,346.622,-0.912313
14.8233,346.638,-0.912359
14.825,346.655,-0.9124
14.8267,346.672,-0.912428
14.8283,346.688,-0.912454
14.83,346.705,-0.912488
14.8317,346.722,-0.91253
14.8333,346.738,-0.912566
14.835,346.755,-0.912606
14.8367,346.772,-0.912651
14.8383,346.789,-0.912683
14.84,346.805,-0.912712
14.8417,346.822,-0.912737
14.8433,346.839,-0.912759
14.845,346.855,-0.912774
14.8467,346.872,-0.912779
14.8483,346.888,-0.912784
14.85,346.905,-0.912794
14.8517,346.922,-0.912811
14.8533,346.939,-0.912836
14.855,346.955,-0.912866
14.8567,346.972,-0.912903
14.8583,346.989,-0.912943
14.86,347.006,-0.912984
14.8617,347.022,-0.913029
14.8633,347.039,-0.91308
14.865,347.056,-0.913128
14.8667,347.072,-0.91318
14.8683,347.089,-0.913219
14.87,347.105,-0.913257
14.8717,347.122,-0.913287
14.8733,347.139,-0.913308
14.875,347.156,-0.91332
14.8767,347.173,-0.913325
14.8783,347.189,-0.913329
14.88,347.206,-0.913336
14.8817,347.222,-0.913345
14.8833,347.239,-0.913359
14.885,347.255,-0.913381
14.8867,347.272,-0.913409
14.8883,347.289,-0.913445
14.89,347.305,-0.913494
14.8917,347.322,-0.913546
14.8933,347.339,-0.913594
14.895,347.355,-0.913632
14.8967,347.372,-0.913676
14.8983,347.388,-0.913713
14.9,347.405,-0.913743
14.9017,347.422,-0.913771
14.9033,347.439,-0.913799
14.905,347.455,-0.913819
14.9067,347.472,-0.913829
14.9083,347.488,-0.913839
14.91,347.505,-0.913851
14.9117,347.522,-0.91386
14.9133,347.538,-0.91387
14.915,347.555,-0.913883
14.9167,347.572,-0.913903
14.9183,347.588,-0.913927
14.92,347.605,-0.91395
14.9217,347.622,-0.913978
14.9233,347.638,-0.914003
14.925,347.655,-0.914028
14.9267,347.672,-0.914042
14.9283,347.688,-0.914048
14.93,347.705,-0.914053
14.9317,347.721,-0.914061
14.9333,347.738,-0.914074
14.935,347.755,-0.914092
14.9367,347.771,-0.914107
14.9383,347.788,-0.914117
14.94,347.805,-0.914133
14.9417,347.822,-0.914152
14.9433,347.839,-0.914172
14.945,347.855,-0.914186
14.9467,347.872,-0.914198
14.9483,347.889,-0.914205
14.95,347.905,-0.914207
14.9517,347.922,-0.914202
14.9533,347.939,-0.914202
14.955,347.955,-0.914205
14.9567,347.971,-0.914206
14.9583,347.988,-0.914212
14.96,348.005,-0.914226
14.9617,348.022,-0.914243
14.9633,348.039,-0.914264
14.965,348.055,-0.91429
14.9667,348.072,-0.914322
14.9683,348.088,-0.914355
14.97,348.105,-0.914393
14.9717,348.122,-0.914423
14.9733,348.139,-0.914442
14.975,348.155,-0.914456
14.9767,348.172,-0.914474
14.9783,348.188,-0.914477
14.98,348.205,-0.914486
14.9817,348.222,-0.914502
14.9833,348.238,-0.914524
14.985,348.255,-0.91456
14.9867,348.272,-0.914596
14.9883,348.289,-0.914642
14.99,348.305,-0.914723
14.9917,348.322,-0.914822
14.9933,348.338,-0.914868
14.995,348.355,-0.914909
14.9967,348.371,-0.914942
14.9983,348.388,-0.914979
15,348.405,-0.915016
15.0017,348.421,-0.915047
15.0033,348.438,-0.915066
15.005,348.454,-0.915081
15.0067,348.471,-0.915102
15.0083,348.488,-0.915132
15.01,348.504,-0.915168
15.0117,348.521,-0.915206
15.0133,348.538,-0.915243
15.015,348.554,-0.915279
15.0167,348.571,-0.91532
15.0183,348.588,-0.91536
15.02,348.605,-0.915399
15.0217,348.621,-0.915428
15.0233,348.638,-0.915446
15.025,348.655,-0.915469
15.0267,348.672,-0.915499
15.0283,348.688,-0.915518
15.03,348.705,-0.91553
15.0317,348.721,-0.915549
15.0333,348.738,-0.915563
15.035,348.755,-0.915569
15.0367,348.771,-0.915579
15.0383,348.787,-0.915592
15.04,348.804,-0.915607
15.0417,348.821,-0.915619
15.0433,348.837,-0.91564
15.045,348.854,-0.915661
15.0467,348.871,-0.915674
15.0483,348.887,-0.915684
15.05,348.904,-0.915701
15.0517,348.921,-0.915723
15.0533,348.937,-0.915748
15.055,348.954,-0.915777
15.0567,348.97,-0.915811
15.0583,348.987,-0.91585
15.06,349.004,-0.915884
15.0617,349.021,-0.915912
15.0633,349.038,-0.915933
15.065,349.054,-0.915943
15.0667,349.071,-0.915944
15.0683,349.087,-0.915948
15.07,349.104,-0.915958
15.0717,349.121,-0.915964
15.0733,349.137,-0.915968
15.075,349.154,-0.915986
15.0767,349.17,-0.916012
15.0783,349.187,-0.916042
15.08,349.203,-0.916073
15.0817,349.22,-0.916111
15.0833,349.237,-0.916143
15.085,349.253,-0.916177
15.0867,349.27,-0.91621
15.0883,349.287,-0.916242
15.09,349.303,-0.91627
15.0917,349.32,-0.916303
15.0933,349.337,-0.91633
15.095,349.353,-0.916354
15.0967,349.37,-0.91637
15.0983,349.387,-0.916388
15.1,349.403,-0.916404
15.1017,349.42,-0.916419
15.1033,349.437,-0.916434
15.105,349.453,-0.916449
15.1067,349.47,-0.916459
15.1083,349.487,-0.916467
15.11,349.503,-0.916475
15.1117,349.52,-0.916485
15.1133,349.537,-0.916502
15.115,349.553,-0.916517
15.1167,349.57,-0.916538
15.1183,349.586,-0.916558
15.12,349.603,-0.916589
15.1217,349.62,-0.916633
15.1233,349.637,-0.91668
15.125,349.653,-0.916729
15.1267,349.67,-0.916775
15.1283,349.687,-0.916813
15.13,349.704,-0.916846
15.1317,349.72,-0.916878
15.1333,349.737,-0.916894
15.135,349.754,-0.916896
15.1367,349.77,-0.916899
15.1383,349.787,-0.916907
15.14,349.803,-0.916924
15.1417,349.82,-0.916946
15.1433,349.837,-0.916982
15.145,349.853,-0.917024
15.1467,349.87,-0.917067
15.1483,349.887,-0.917111
15.15,349.904,-0.917153
15.1517,349.92,-0.91719
15.1533,349.936,-0.91722
15.155,349.953,-0.917256
15.1567,349.969,-0.91729
15.1583,349.986,-0.917316
15.16,350.003,-0.917337
15.1617,350.02,-0.917367
15.1633,350.036,-0.917399
15.165,350.053,-0.917432
15.1667,350.07,-0.917466
15.1683,350.086,-0.917508
15.17,350.103,-0.917554
15.1717,350.12,-0.91761
15.1733,350.136,-0.917667
15.175,350.153,-0.917717
15.1767,350.17,-0.917755
15.1783,350.187,-0.917786
15.18,350.203,-0.917821
15.1817,350.22,-0.917839
15.1833,350.236,-0.917861
15.185,350.253,-0.91788
15.1867,350.27,-0.917892
15.1883,350.286,-0.917898
15.19,350.303,-0.917913
15.1917,350.319,-0.917927
15.1933,350.336,-0.917944
15.195,350.352,-0.917965
15.1967,350.369,-0.917985
15.1983,350.386,-0.918007
15.2,350.402,-0.918031
15.2017,350.419,-0.918063
15.2033,350.436,-0.9181
15.205,350.453,-0.918135
15.2067,350.469,-0.918173
15.2083,350.486,-0.918207
15.21,350.503,-0.918239
15.2117,350.519,-0.918269
15.2133,350.536,-0.918303
15.215,350.553,-0.918328
15.2167,350.569,-0.918349
15.2183,350.586,-0.918372
15.22,350.603,-0.918392
15.2217,350.62,-0.918409
15.2233,350.636,-0.918416
15.225,350.653,-0.918427
15.2267,350.669,-0.918429
15.2283,350.686,-0.918426
15.23,350.703,-0.918426
15.2317,350.719,-0.918422
15.2333,350.736,-0.918422
15.235,350.752,-0.918429
15.2367,350.769,-0.918446
15.2383,350.786,-0.918468
15.24,350.803,-0.918496
15.2417,350.819,-0.918529
15.2433,350.836,-0.918571
15.245,350.852,-0.918606
15.2467,350.869,-0.918638
15.2483,350.885,-0.918673
15.25,350.902,-0.918704
15.2517,350.919,-0.918738
15.2533,350.936,-0.918772
15.255,350.952,-0.918804
15.2567,350.969,-0.918837
15.2583,350.985,-0.918871
15.26,351.002,-0.918902
15.2617,351.019,-0.918939
15.2633,351.035,-0.918979
15.265,351.052,-0.919011
15.2667,351.068,-0.91905
15.2683,351.085,-0.919089
15.27,351.102,-0.919124
15.2717,351.118,-0.919156
15.2733,351.135,-0.919184
15.275,351.152,-0.919222
15.2767,351.168,-0.919253
15.2783,351.185,-0.919278
15.28,351.202,-0.919308
15.2817,351.218,-0.919347
15.2833,351.235,-0.919381
15.285,351.251,-0.919414
15.2867,351.268,-0.919448
15.2883,351.285,-0.919479
15.29,351.302,-0.91951
15.2917,351.318,-0.919531
15.2933,351.335,-0.919562
15.295,351.351,-0.919601
15.2967,351.368,-0.919637
15.2983,351.385,-0.919676
15.3,351.401,-0.919712
15.3017,351.418,-0.919755
15.3033,351.435,-0.919795
15.305,351.451,-0.919826
15.3067,351.468,-0.919851
15.3083,351.485,-0.919875
15.31,351.501,-0.9199
15.3117,351.518,-0.919924
15.3133,351.535,-0.919949
15.315,351.552,-0.919975
15.3167,351.568,-0.920012
15.3183,351.585,-0.920053
15.32,351.602,-0.920091
15.3217,351.618,-0.920123
15.3233,351.635,-0.920154
15.325,351.652,-0.920187
15.3267,351.668,-0.920213
15.3283,351.685,-0.920245
15.33,351.702,-0.920284
15.3317,351.718,-0.92032
15.3333,351.735,-0.920355
15.335,351.752,-0.92039
15.3367,351.768,-0.92043
15.3383,351.785,-0.920472
15.34,351.802,-0.920503
15.3417,351.819,-0.920533
15.3433,351.835,-0.920558
15.345,351.852,-0.920573
15.3467,351.868,-0.920586
15.3483,351.885,-0.9206
15.35,351.901,-0.920614
15.3517,351.918,-0.920634
15.3533,351.935,-0.92065
15.355,351.951,-0.920663
15.3567,351.968,-0.920689
15.3583,351.984,-0.920717
15.36,352.002,-0.920752
15.3617,352.018,-0.920794
15.3633,352.035,-0.920838
15.365,352.051,-0.920883
15.3667,352.068,-0.920932
15.3683,352.085,-0.920984
15.37,352.101,-0.921034
15.3717,352.118,-0.921082
15.3733,352.134,-0.921123
15.375,352.151,-0.921159
15.3767,352.168,-0.921193
15.3783,352.185,-0.921224
15.38,352.201,-0.921254
15.3817,352.218,-0.921287
15.3833,352.234,-0.921323
15.385,352.251,-0.92136
15.3867,352.268,-0.921401
15.3883,352.284,-0.921444
15.39,352.301,-0.921488
15.3917,352.318,-0.921533
15.3933,352.335,-0.921576
15.395,352.351,-0.92162
15.3967,352.368,-0.921654
15.3983,352.385,-0.921685
15.4,352.401,-0.921708
15.4017,352.418,-0.921728
15.4033,352.434,-0.921743
15.405,352.451,-0.921754
15.4067,352.468,-0.921757
15.4083,352.484,-0.921759
15.41,352.501,-0.921775
15.4117,352.518,-0.921799
15.4133,352.534,-0.921815
15.415,352.551,-0.921832
15.4167,352.568,-0.921855
15.4183,352.584,-0.921886
15.42,352.601,-0.92193
15.4217,352.618,-0.921977
15.4233,352.634,-0.922022
15.425,352.651,-0.922064
15.4267,352.668,-0.922103
15.4283,352.684,-0.92215
15.43,352.7,-0.922197
15.4317,352.717,-0.922237
15.4333,352.734,-0.922263
15.435,352.751,-0.922283
15.4367,352.767,-0.922298
15.4383,352.784,-0.922315
15.44,352.8,-0.922327
15.4417,352.817,-0.922329
15.4433,352.834,-0.922329
15.445,352.85,-0.922326
15.4467,352.867,-0.92233
15.4483,352.884,-0.922343
15.45,352.9,-0.922364
15.4517,352.917,-0.922395
15.4533,352.933,-0.922434
15.455,352.95,-0.922478
15.4567,352.967,-0.922528
15.4583,352.983,-0.922584
15.46,353,-0.922641
15.4617,353.017,-0.922715
15.4633,353.034,-0.922767
15.465,353.051,-0.922817
15.4667,353.067,-0.922855
15.4683,353.083,-0.922882
15.47,353.1,-0.922906
15.4717,353.117,-0.922932
15.4733,353.133,-0.922961
15.475,353.15,-0.922988
15.4767,353.167,-0.923008
15.4783,353.183,-0.923031
15.48,353.2,-0.92305
15.4817,353.217,-0.923066
15.4833,353.233,-0.92308
15.485,353.25,-0.923093
15.4867,353.267,-0.9231
15.4883,353.283,-0.923109
15.49,353.3,-0.923125
15.4917,353.317,-0.923145
15.4933,353.333,-0.923167
15.495,353.35,-0.923198
15.4967,353.367,-0.923231
15.4983,353.383,-0.923271
15.5,353.4,-0.923316
15.5017,353.416,-0.923349
15.5033,353.433,-0.923371
15.505,353.45,-0.923393
15.5067,353.466,-0.923408
15.5083,353.483,-0.923418
15.51,353.5,-0.923434
15.5117,353.517,-0.923453
15.5133,353.533,-0.92348
15.515,353.55,-0.92351
15.5167,353.566,-0.923551
15.5183,353.583,-0.923596
15.52,353.6,-0.923643
15.5217,353.616,-0.923688
15.5233,353.633,-0.923733
15.525,353.65,-0.923783
15.5267,353.666,-0.923837
15.5283,353.683,-0.923889
15.53,353.7,-0.92393
15.5317,353.716,-0.923965
15.5333,353.733,-0.923994
15.535,353.75,-0.92402
15.5367,353.766,-0.92404
15.5383,353.783,-0.924051
15.54,353.799,-0.924055
15.5417,353.816,-0.92405
15.5433,353.833,-0.924059
15.545,353.85,-0.924073
15.5467,353.866,-0.924095
15.5483,353.883,-0.924123
15.55,353.899,-0.924152
15.5517,353.916,-0.92419
15.5533,353.933,-0.924226
15.555,353.949,-0.924265
15.5567,353.966,-0.924303
15.5583,353.982,-0.924338
15.56,353.999,-0.924375
15.5617,354.016,-0.924421
15.5633,354.032,-0.924475
15.565,354.049,-0.924529
15.5667,354.066,-0.924579
15.5683,354.082,-0.924623
15.57,354.099,-0.924668
15.5717,354.116,-0.924701
15.5733,354.132,-0.924733
15.575,354.149,-0.924767
15.5767,354.166,-0.924802
15.5783,354.182,-0.924823
15.58,354.198,-0.924844
15.5817,354.215,-0.924862
15.5833,354.232,-0.924881
15.585,354.249,-0.924892
15.5867,354.265,-0.924898
15.5883,354.282,-0.9249
15.59,354.299,-0.924891
15.5917,354.316,-0.924887
15.5933,354.333,-0.924886
15.595,354.349,-0.924889
15.5967,354.365,-0.924896
15.5983,354.382,-0.924908
15.6,354.399,-0.924918
15.6017,354.415,-0.92494
15.6033,354.432,-0.92497
15.605,354.448,-0.925006
15.6067,354.465,-0.925046
15.6083,354.482,-0.925084
15.61,354.499,-0.925118
15.6117,354.516,-0.925146
15.6133,354.532,-0.925177
15.615,354.549,-0.925202
15.6167,354.566,-0.925229
15.6183,354.582,-0.925251
15.62,354.599,-0.925268
15.6217,354.615,-0.92529
15.6233,354.632,-0.925312
15.625,354.649,-0.925342
15.6267,354.665,-0.925375
15.6283,354.682,-0.92541
15.63,354.698,-0.925444
15.6317,354.715,-0.925479
15.6333,354.732,-0.925519
15.635,354.749,-0.925564
15.6367,354.765,-0.9256
15.6383,354.782,-0.925625
15.64,354.798,-0.925652
15.6417,354.815,-0.925676
15.6433,354.832,-0.925695
15.645,354.848,-0.925717
15.6467,354.865,-0.925738
15.6483,354.881,-0.925766
15.65,354.898,-0.925799
15.6517,354.915,-0.925834
15.6533,354.931,-0.925873
15.655,354.948,-0.925911
15.6567,354.965,-0.925948
15.6583,354.982,-0.925987
15.66,354.998,-0.926033
15.6617,355.015,-0.92607
15.6633,355.032,-0.926105
15.665,355.049,-0.926136
15.6667,355.065,-0.926166
15.6683,355.082,-0.926196
15.67,355.098,-0.926223
15.6717,355.115,-0.926251
15.6733,355.132,-0.926273
15.675,355.148,-0.926299
15.6767,355.165,-0.926332
15.6783,355.181,-0.926358
15.68,355.198,-0.926389
15.6817,355.215,-0.926422
15.6833,355.231,-0.926455
15.685,355.248,-0.926481
15.6867,355.264,-0.926505
15.6883,355.281,-0.926538
15.69,355.298,-0.926578
15.6917,355.315,-0.926624
15.6933,355.331,-0.926665
15.695,355.348,-0.926704
15.6967,355.365,-0.926736
15.6983,355.381,-0.926766
15.7,355.398,-0.926794
15.7017,355.415,-0.926812
15.7033,355.431,-0.926822
15.705,355.448,-0.926832
15.7067,355.464,-0.926845
15.7083,355.481,-0.926861
15.71,355.498,-0.926879
15.7117,355.515,-0.9269
15.7133,355.531,-0.926929
15.715,355.548,-0.926964
15.7167,355.564,-0.926994
15.7183,355.581,-0.927022
15.72,355.598,-0.927048
15.7217,355.614,-0.927065
15.7233,355.631,-0.927085
15.725,355.648,-0.927102
15.7267,355.664,-0.927115
15.7283,355.681,-0.927125
15.73,355.698,-0.927141
15.7317,355.714,-0.927164
15.7333,355.731,-0.927192
15.735,355.747,-0.927221
15.7367,355.764,-0.927257
15.7383,355.781,-0.927295
15.74,355.797,-0.927339
15.7417,355.814,-0.927381
15.7433,355.831,-0.927414
15.745,355.847,-0.927446
15.7467,355.864,-0.927471
15.7483,355.881,-0.927485
15.75,355.897,-0.927494
15.7517,355.914,-0.927505
15.7533,355.931,-0.927517
15.755,355.947,-0.92754
15.7567,355.964,-0.927566
15.7583,355.981,-0.927595
15.76,355.998,-0.92763
15.7617,356.014,-0.927662
15.7633,356.031,-0.927689
15.765,356.048,-0.92771
15.7667,356.064,-0.927725
15.7683,356.081,-0.927738
15.77,356.098,-0.927751
15.7717,356.114,-0.927767
15.7733,356.131,-0.927791
15.775,356.148,-0.927824
15.7767,356.164,-0.927855
15.7783,356.181,-0.927887
15.78,356.198,-0.927926
15.7817,356.215,-0.92796
15.7833,356.231,-0.927986
15.785,356.247,-0.928007
15.7867,356.264,-0.928016
15.7883,356.281,-0.928021
15.79,356.298,-0.92802
15.7917,356.314,-0.928008
15.7933,356.331,-0.928009
15.795,356.348,-0.92801
15.7967,356.364,-0.928021
15.7983,356.381,-0.928038
15.8,356.397,-0.928055
15.8017,356.414,-0.928085
15.8033,356.43,-0.928123
15.805,356.447,-0.928171
15.8067,356.464,-0.928217
15.8083,356.48,-0.928268
15.81,356.497,-0.928323
15.8117,356.514,-0.928401
15.8133,356.53,-0.928456
15.815,356.547,-0.928501
15.8167,356.563,-0.928534
15.8183,356.58,-0.928557
15.82,356.597,-0.928571
15.8217,356.614,-0.928578
15.8233,356.63,-0.928581
15.825,356.646,-0.928576
15.8267,356.663,-0.928572
15.8283,356.679,-0.928568
15.83,356.696,-0.928578
15.8317,356.713,-0.928593
15.8333,356.73,-0.928614
15.835,356.747,-0.928639
15.8367,356.763,-0.928665
15.8383,356.78,-0.9287
15.84,356.797,-0.92874
15.8417,356.813,-0.928778
15.8433,356.83,-0.928818
15.845,356.847,-0.928855
15.8467,356.863,-0.928886
15.8483,356.88,-0.928916
15.85,356.897,-0.928931
15.8517,356.913,-0.928936
15.8533,356.93,-0.928934
15.855,356.946,-0.928928
15.8567,356.962,-0.928929
15.8583,356.979,-0.928933
15.86,356.996,-0.928936
15.8617,357.013,-0.928936
15.8633,357.029,-0.928933
15.865,357.046,-0.928934
15.8667,357.062,-0.928948
15.8683,357.079,-0.928964
15.87,357.096,-0.928984
15.8717,357.113,-0.929004
15.8733,357.129,-0.929031
15.875,357.146,-0.929058
15.8767,357.163,-0.929087
15.8783,357.179,-0.929106
15.88,357.196,-0.929126
15.8817,357.212,-0.929161
15.8833,357.229,-0.929198
15.885,357.245,-0.929238
15.8867,357.262,-0.929294
15.8883,357.279,-0.929346
15.89,357.295,-0.929391
15.8917,357.312,-0.929434
15.8933,357.329,-0.929479
15.895,357.345,-0.929514
15.8967,357.362,-0.929546
15.8983,357.378,-0.929579
15.9,357.395,-0.929615
15.9017,357.412,-0.929658
15.9033,357.428,-0.929695
15.905,357.445,-0.929729
15.9067,357.461,-0.92976
15.9083,357.478,-0.929789
15.91,357.495,-0.929827
15.9117,357.512,-0.929855
15.9133,357.529,-0.929889
15.915,357.545,-0.929927
15.9167,357.562,-0.929967
15.9183,357.578,-0.930008
15.92,357.594,-0.930044
15.9217,357.611,-0.930078
15.9233,357.628,-0.930102
15.925,357.644,-0.930122
15.9267,357.661,-0.930138
15.9283,357.678,-0.930154
15.93,357.695,-0.930161
15.9317,357.711,-0.930155
15.9333,357.728,-0.930148
15.935,357.745,-0.930144
15.9367,357.762,-0.930142
15.9383,357.778,-0.930139
15.94,357.795,-0.930143
15.9417,357.811,-0.930161
15.9433,357.828,-0.930181
15.945,357.845,-0.930212
15.9467,357.861,-0.930248
15.9483,357.878,-0.930284
15.95,357.894,-0.930321
15.9517,357.911,-0.930358
15.9533,357.928,-0.930396
15.955,357.944,-0.930436
15.9567,357.961,-0.930478
15.9583,357.978,-0.930514
15.96,357.994,-0.930554
15.9617,358.011,-0.930594
15.9633,358.028,-0.930632
15.965,358.044,-0.930655
15.9667,358.061,-0.930682
15.9683,358.078,-0.930701
15.97,358.094,-0.930717
15.9717,358.111,-0.930735
15.9733,358.127,-0.930755
15.975,358.144,-0.930772
15.9767,358.161,-0.930786
15.9783,358.177,-0.930808
15.98,358.194,-0.930838
15.9817,358.211,-0.930862
15.9833,358.228,-0.930893
15.985,358.244,-0.930921
15.9867,358.261,-0.93095
15.9883,358.277,-0.930984
15.99,358.294,-0.931024
15.9917,358.311,-0.931062
15.9933,358.328,-0.931106
15.995,358.344,-0.931147
15.9967,358.361,-0.9312
15.9983,358.378,-0.931251
16,358.394,-0.931301
16.0017,358.411,-0.931346
16.0033,358.427,-0.931394
16.005,358.444,-0.93143
16.0067,358.461,-0.931462
16.0083,358.477,-0.931484
16.01,358.494,-0.931515
16.0117,358.51,-0.931557
16.0133,358.527,-0.931604
16.015,358.544,-0.931655
16.0167,358.56,-0.931732
16.0183,358.577,-0.931836
16.02,358.594,-0.931917
16.0217,358.61,-0.931983
16.0233,358.627,-0.932037
16.025,358.643,-0.932074
16.0267,358.66,-0.932099
16.0283,358.677,-0.932113
16.03,358.693,-0.93213
16.0317,358.71,-0.932148
16.0333,358.727,-0.932163
16.035,358.743,-0.9322
16.0367,358.76,-0.932249
16.0383,358.777,-0.932308
16.04,358.794,-0.932365
16.0417,358.81,-0.932413
16.0433,358.827,-0.932446
16.045,358.844,-0.932468
16.0467,358.86,-0.932484
16.0483,358.877,-0.932482
16.05,358.893,-0.932477
16.0517,358.91,-0.932464
16.0533,358.927,-0.932459
16.055,358.943,-0.932463
16.0567,358.96,-0.932478
16.0583,358.977,-0.9325
16.06,358.993,-0.932534
16.0617,359.01,-0.932576
16.0633,359.027,-0.932636
16.065,359.043,-0.932757
16.0667,359.06,-0.932869
16.0683,359.076,-0.933016
16.07,359.093,-0.933126
16.0717,359.11,-0.933227
16.0733,359.126,-0.933292
16.075,359.143,-0.933347
16.0767,359.159,-0.933395
16.0783,359.177,-0.933444
16.08,359.193,-0.933473
16.0817,359.209,-0.933501
16.0833,359.226,-0.933523
16.085,359.243,-0.933548
16.0867,359.259,-0.933563
16.0883,359.276,-0.933572
16.09,359.293,-0.933579
16.0917,359.31,-0.933588
16.0933,359.326,-0.933599
16.095,359.343,-0.933615
16.0967,359.36,-0.933638
16.0983,359.376,-0.933672
16.1,359.393,-0.933701
16.1017,359.409,-0.933732
16.1033,359.426,-0.933761
16.105,359.443,-0.933794
16.1067,359.459,-0.933823
16.1083,359.476,-0.933849
16.11,359.492,-0.933867
16.1117,359.509,-0.933891
16.1133,359.526,-0.933918
16.115,359.542,-0.933949
16.1167,359.559,-0.93399
16.1183,359.575,-0.934031
16.12,359.592,-0.934068
16.1217,359.609,-0.934113
16.1233,359.626,-0.934157
16.125,359.643,-0.934195
16.1267,359.659,-0.934229
16.1283,359.676,-0.934256
16.13,359.692,-0.934275
16.1317,359.709,-0.934282
16.1333,359.725,-0.934292
16.135,359.742,-0.934309
16.1367,359.759,-0.934331
16.1383,359.775,-0.934355
16.14,359.791,-0.934396
16.1417,359.808,-0.934435
16.1433,359.825,-0.934487
16.145,359.841,-0.934566
16.1467,359.858,-0.934636
16.1483,359.875,-0.934693
16.15,359.892,-0.934741
16.1517,359.908,-0.934785
16.1533,359.925,-0.934824
16.155,359.942,-0.934856
16.1567,359.958,-0.93488
16.1583,359.975,-0.934907
16.16,359.992,-0.93493
16.1617,360.008,-0.934956
16.1633,360.025,-0.934981
16.165,360.042,-0.935003
16.1667,360.058,-0.935028
16.1683,360.075,-0.935058
16.17,360.092,-0.93509
16.1717,360.108,-0.935116
16.1733,360.125,-0.935151
16.175,360.142,-0.93519
16.1767,360.158,-0.935231
16.1783,360.175,-0.935272
16.18,360.191,-0.935309
16.1817,360.208,-0.935344
16.1833,360.225,-0.935376
16.185,360.242,-0.93542
16.1867,360.258,-0.935453
16.1883,360.275,-0.935483
16.19,360.292,-0.935514
16.1917,360.308,-0.935538
16.1933,360.325,-0.935557
16.195,360.342,-0.935574
16.1967,360.359,-0.935595
16.1983,360.375,-0.935614
16.2,360.391,-0.93562
16.2017,360.408,-0.935629
16.2033,360.424,-0.935644
16.205,360.441,-0.935662
16.2067,360.458,-0.935686
16.2083,360.475,-0.935715
16.21,360.491,-0.935757
16.2117,360.508,-0.935839
16.2133,360.525,-0.935936
16.215,360.541,-0.936066
16.2167,360.558,-0.93617
16.2183,360.575,-0.936244
16.22,360.591,-0.936334
16.2217,360.608,-0.936389
16.2233,360.624,-0.936429
16.225,360.641,-0.936451
16.2267,360.657,-0.936469
16.2283,360.674,-0.936484
16.23,360.691,-0.936487
16.2317,360.708,-0.936492
16.2333,360.724,-0.936501
16.235,360.741,-0.936517
16.2367,360.757,-0.936541
16.2383,360.774,-0.936565
16.24,360.791,-0.936593
16.2417,360.807,-0.936625
16.2433,360.824,-0.936664
16.245,360.841,-0.936709
16.2467,360.857,-0.936752
16.2483,360.874,-0.936797
16.25,360.891,-0.936839
16.2517,360.907,-0.936885
16.2533,360.924,-0.936934
16.255,360.94,-0.936982
16.2567,360.957,-0.937034
16.2583,360.974,-0.937089
16.26,360.99,-0.937145
16.2617,361.007,-0.937197
16.2633,361.023,-0.937243
16.265,361.04,-0.937287
16.2667,361.057,-0.937326
16.2683,361.074,-0.937356
16.27,361.09,-0.937381
16.2717,361.107,-0.937394
16.2733,361.124,-0.9374
16.275,361.14,-0.937408
16.2767,361.157,-0.937407
16.2783,361.174,-0.937405
16.28,361.19,-0.937398
16.2817,361.207,-0.937392
16.2833,361.223,-0.9374
16.285,361.24,-0.937411
16.2867,361.257,-0.937431
16.2883,361.274,-0.937455
16.29,361.29,-0.93748
16.2917,361.307,-0.937506
16.2933,361.324,-0.937535
16.295,361.34,-0.937563
16.2967,361.357,-0.93759
16.2983,361.373,-0.937618
16.3,361.39,-0.937652
16.3017,361.406,-0.93769
16.3033,361.423,-0.937734
16.305,361.44,-0.937779
16.3067,361.457,-0.93782
16.3083,361.473,-0.93785
16.31,361.49,-0.937877
16.3117,361.507,-0.9379
16.3133,361.524,-0.937917
16.315,361.54,-0.93793
16.3167,361.557,-0.937932
16.3183,361.573,-0.937931
16.32,361.59,-0.937928
16.3217,361.607,-0.937931
16.3233,361.624,-0.937944
16.325,361.64,-0.937962
16.3267,361.657,-0.937978
16.3283,361.674,-0.937999
16.33,361.69,-0.938035
16.3317,361.707,-0.938068
16.3333,361.724,-0.938097
16.335,361.74,-0.938119
16.3367,361.757,-0.93814
16.3383,361.773,-0.93816
16.34,361.79,-0.938178
16.3417,361.807,-0.938202
16.3433,361.824,-0.938236
16.345,361.84,-0.938275
16.3467,361.857,-0.938319
16.3483,361.874,-0.938364
16.35,361.89,-0.938393
16.3517,361.907,-0.938421
16.3533,361.923,-0.938442
16.355,361.94,-0.938457
16.3567,361.956,-0.938469
16.3583,361.973,-0.938481
16.36,361.99,-0.938498
16.3617,362.007,-0.938516
16.3633,362.023,-0.938541
16.365,362.04,-0.938578
16.3667,362.057,-0.938628
16.3683,362.073,-0.938673
16.37,362.09,-0.93871
16.3717,362.106,-0.938748
16.3733,362.123,-0.938788
16.375,362.14,-0.938827
16.3767,362.156,-0.938858
16.3783,362.173,-0.938888
16.38,362.19,-0.938918
16.3817,362.206,-0.938949
16.3833,362.223,-0.938973
16.385,362.24,-0.938992
16.3867,362.256,-0.939009
16.3883,362.273,-0.939024
16.39,362.289,-0.939039
16.3917,362.307,-0.939056
16.3933,362.323,-0.93907
16.395,362.339,-0.93908
16.3967,362.356,-0.939097
16.3983,362.373,-0.939114
16.4,362.389,-0.939134
16.4017,362.406,-0.939159
16.4033,362.423,-0.939193
16.405,362.439,-0.939229
16.4067,362.456,-0.939272
16.4083,362.473,-0.939315
16.41,362.49,-0.939359
16.4117,362.507,-0.9394
16.4133,362.523,-0.939443
16.415,362.539,-0.939485
16.4167,362.556,-0.939522
16.4183,362.573,-0.939549
16.42,362.59,-0.939578
16.4217,362.606,-0.939601
16.4233,362.623,-0.93962
16.425,362.64,-0.939635
16.4267,362.656,-0.939652
16.4283,362.672,-0.939667
16.43,362.689,-0.939687
16.4317,362.706,-0.939713
16.4333,362.723,-0.939745
16.435,362.739,-0.939778
16.4367,362.756,-0.939807
16.4383,362.772,-0.939841
16.44,362.789,-0.939875
16.4417,362.806,-0.939897
16.4433,362.823,-0.939919
16.445,362.839,-0.939939
16.4467,362.856,-0.939965
16.4483,362.872,-0.939993
16.45,362.889,-0.940014
16.4517,362.906,-0.940033
16.4533,362.922,-0.940051
16.455,362.939,-0.940079
16.4567,362.956,-0.940113
16.4583,362.972,-0.940144
16.46,362.989,-0.940167
16.4617,363.006,-0.940191
16.4633,363.022,-0.940212
16.465,363.039,-0.940232
16.4667,363.056,-0.94025
16.4683,363.072,-0.940267
16.47,363.089,-0.94029
16.4717,363.106,-0.940317
16.4733,363.122,-0.940343
16.475,363.139,-0.940367
16.4767,363.155,-0.940385
16.4783,363.172,-0.9404
16.48,363.189,-0.940416
16.4817,363.205,-0.940428
16.4833,363.222,-0.940445
16.485,363.238,-0.940466
16.4867,363.255,-0.940489
16.4883,363.272,-0.940521
16.49,363.289,-0.940559
16.4917,363.305,-0.940595
16.4933,363.322,-0.940627
16.495,363.339,-0.940661
16.4967,363.355,-0.94069
16.4983,363.372,-0.940715
16.5,363.388,-0.940745
16.5017,363.406,-0.940765
16.5033,363.422,-0.940773
16.505,363.439,-0.940784
16.5067,363.456,-0.940798
16.5083,363.472,-0.940817
16.51,363.489,-0.940837
16.5117,363.505,-0.94086
16.5133,363.522,-0.94089
16.515,363.539,-0.940927
16.5167,363.555,-0.94097
16.5183,363.572,-0.941018
16.52,363.589,-0.941062
16.5217,363.605,-0.9411
16.5233,363.622,-0.941138
16.525,363.639,-0.941165
16.5267,363.655,-0.941191
16.5283,363.672,-0.941216
16.53,363.689,-0.941232
16.5317,363.705,-0.941245
16.5333,363.722,-0.941259
16.535,363.739,-0.941279
16.5367,363.755,-0.941299
16.5383,363.772,-0.941317
16.54,363.788,-0.941344
16.5417,363.805,-0.941375
16.5433,363.821,-0.941407
16.545,363.839,-0.941441
16.5467,363.855,-0.941481
16.5483,363.871,-0.941526
16.55,363.888,-0.941561
16.5517,363.905,-0.941588
16.5533,363.922,-0.941602
16.555,363.938,-0.941612
16.5567,363.955,-0.941614
16.5583,363.971,-0.941612
16.56,363.988,-0.941608
16.5617,364.005,-0.9416
16.5633,364.021,-0.941593
16.565,364.038,-0.9416
16.5667,364.055,-0.941617
16.5683,364.072,-0.941639
16.57,364.088,-0.941664
16.5717,364.105,-0.941688
16.5733,364.121,-0.941709
16.575,364.138,-0.941728
16.5767,364.155,-0.941746
16.5783,364.171,-0.941769
16.58,364.188,-0.941791
16.5817,364.205,-0.941816
16.5833,364.222,-0.941845
16.585,364.238,-0.941874
16.5867,364.255,-0.941905
16.5883,364.271,-0.94194
16.59,364.288,-0.941973
16.5917,364.305,-0.942003
16.5933,364.321,-0.942039
16.595,364.338,-0.942073
16.5967,364.355,-0.94211
16.5983,364.372,-0.942137
16.6,364.388,-0.942157
16.6017,364.405,-0.942167
16.6033,364.422,-0.942174
16.605,364.438,-0.942179
16.6067,364.455,-0.942179
16.6083,364.471,-0.942176
16.61,364.488,-0.942176
16.6117,364.504,-0.94219
16.6133,364.521,-0.942209
16.615,364.538,-0.942229
16.6167,364.554,-0.94226
16.6183,364.571,-0.942293
16.62,364.588,-0.94235
16.6217,364.605,-0.942435
16.6233,364.622,-0.942545
16.625,364.638,-0.942672
16.6267,364.655,-0.942737
16.6283,364.672,-0.942792
16.63,364.688,-0.942843
16.6317,364.705,-0.942888
16.6333,364.721,-0.942922
16.635,364.738,-0.942956
16.6367,364.755,-0.942981
16.6383,364.772,-0.943012
16.64,364.788,-0.943044
16.6417,364.805,-0.943081
16.6433,364.821,-0.943113
16.645,364.838,-0.943137
16.6467,364.855,-0.943164
16.6483,364.871,-0.943192
16.65,364.888,-0.943217
16.6517,364.904,-0.943242
16.6533,364.921,-0.943269
16.655,364.938,-0.943295
16.6567,364.954,-0.943318
16.6583,364.971,-0.943343
16.66,364.988,-0.943382
16.6617,365.005,-0.94343
16.6633,365.021,-0.94348
16.665,365.037,-0.943533
16.6667,365.054,-0.943591
16.6683,365.071,-0.943684
16.67,365.088,-0.943777
16.6717,365.104,-0.943839
16.6733,365.121,-0.943885
16.675,365.137,-0.943924
16.6767,365.154,-0.943956
16.6783,365.171,-0.943987
16.68,365.188,-0.944019
16.6817,365.204,-0.944047
16.6833,365.221,-0.944067
16.685,365.237,-0.944096
16.6867,365.254,-0.944127
16.6883,365.271,-0.94416
16.69,365.287,-0.944184
16.6917,365.304,-0.944212
16.6933,365.321,-0.944246
16.695,365.337,-0.944292
16.6967,365.355,-0.944337
16.6983,365.371,-0.94438
16.7,365.388,-0.94443
16.7017,365.405,-0.944483
16.7033,365.421,-0.944543
16.705,365.438,-0.944601
16.7067,365.454,-0.944667
16.7083,365.471,-0.944732
16.71,365.487,-0.944804
16.7117,365.504,-0.94494
16.7133,365.521,-0.945348
16.715,365.537,-0.946264
16.7167,365.554,-0.949047
16.7183,365.57,-0.95401
16.72,365.587,-0.964592
16.7217,365.604,-0.981257
16.7233,365.62,-1.00709
16.725,365.637,-1.02444
16.7267,365.653,-1.03987
16.7283,365.67,-1.05425
16.73,365.686,-1.06653
16.7317,365.702,-1.07793
16.7333,365.718,-1.08432
16.735,365.735,-1.08315
16.7367,365.751,-1.07575
16.7383,365.768,-1.06281
16.74,365.784,-1.04928
16.7417,365.801,-1.02962
16.7433,365.817,-1.02634
16.745,365.834,-1.02338
16.7467,365.851,-1.01647
16.7483,365.867,-1.00285
16.75,365.884,-0.989009
16.7517,365.901,-0.978696
16.7533,365.918,-0.97224
16.755,365.934,-0.968388
16.7567,365.951,-0.966565
16.7583,365.968,-0.966051
16.76,365.985,-0.965598
16.7617,366.002,-0.965223
16.7633,366.018,-0.964731
16.765,366.035,-0.964344
16.7667,366.052,-0.963757
16.7683,366.068,-0.96289
16.77,366.085,-0.962157
16.7717,366.101,-0.961373
16.7733,366.117,-0.960234
16.775,366.134,-0.959443
16.7767,366.15,-0.959066
16.7783,366.167,-0.958745
16.78,366.184,-0.958482
16.7817,366.201,-0.958328
16.7833,366.217,-0.958279
16.785,366.234,-0.958364
16.7867,366.251,-0.958475
16.7883,366.268,-0.958561
16.79,366.285,-0.958665
16.7917,366.301,-0.958752
16.7933,366.318,-0.958829
16.795,366.334,-0.958882
16.7967,366.351,-0.95892
16.7983,366.368,-0.958955
16.8,366.385,-0.95899
16.8017,366.401,-0.959027
16.8033,366.418,-0.959055
16.805,366.435,-0.959079
16.8067,366.452,-0.959094
16.8083,366.468,-0.959092
16.81,366.485,-0.959067
16.8117,366.501,-0.959004
16.8133,366.518,-0.958919
16.815,366.535,-0.958788
16.8167,366.552,-0.958703
16.8183,366.568,-0.95867
16.82,366.585,-0.958662
16.8217,366.601,-0.958671
16.8233,366.618,-0.95869
16.825,366.635,-0.958712
16.8267,366.652,-0.958737
16.8283,366.668,-0.958757
16.83,366.685,-0.95878
16.8317,366.702,-0.958802
16.8333,366.718,-0.958817
16.835,366.735,-0.958816
16.8367,366.752,-0.958818
16.8383,366.768,-0.958814
16.84,366.785,-0.958806
16.8417,366.801,-0.958794
16.8433,366.818,-0.958787
16.845,366.835,-0.958782
16.8467,366.852,-0.958788
16.8483,366.868,-0.958801
16.85,366.885,-0.958823
16.8517,366.902,-0.958847
16.8533,366.918,-0.95887
16.855,366.935,-0.958894
16.8567,366.952,-0.958929
16.8583,366.968,-0.958956
16.86,366.985,-0.958975
16.8617,367.002,-0.958983
16.8633,367.018,-0.958991
16.865,367.035,-0.958991
16.8667,367.052,-0.958977
16.8683,367.068,-0.958952
16.87,367.085,-0.958934
16.8717,367.102,-0.958914
16.8733,367.118,-0.9589
16.875,367.135,-0.958899
16.8767,367.152,-0.958909
16.8783,367.169,-0.958925
16.88,367.185,-0.95894
16.8817,367.202,-0.958959
16.8833,367.218,-0.958983
16.885,367.235,-0.959001
16.8867,367.252,-0.959017
16.8883,367.268,-0.959033
16.89,367.285,-0.959046
16.8917,367.301,-0.959059
16.8933,367.319,-0.959077
16.895,367.335,-0.959087
16.8967,367.352,-0.959104
16.8983,367.369,-0.959124
16.9,367.385,-0.959142
16.9017,367.402,-0.959152
16.9033,367.419,-0.95917
16.905,367.436,-0.959191
16.9067,367.452,-0.959212
16.9083,367.469,-0.959231
16.91,367.486,-0.959251
16.9117,367.502,-0.959269
16.9133,367.518,-0.959281
16.915,367.535,-0.959293
16.9167,367.551,-0.959303
16.9183,367.568,-0.95931
16.92,367.585,-0.959313
16.9217,367.601,-0.959311
16.9233,367.618,-0.959307
16.925,367.635,-0.959311
16.9267,367.652,-0.959305
16.9283,367.669,-0.959302
16.93,367.685,-0.959287
16.9317,367.702,-0.959271
16.9333,367.718,-0.959255
16.935,367.735,-0.959243
16.9367,367.752,-0.95924
16.9383,367.768,-0.959237
16.94,367.785,-0.959234
16.9417,367.801,-0.959228
16.9433,367.818,-0.959222
16.945,367.835,-0.959226
16.9467,367.851,-0.959229
16.9483,367.868,-0.959233
16.95,367.884,-0.959238
16.9517,367.901,-0.959253
16.9533,367.918,-0.959273
16.955,367.935,-0.959296
16.9567,367.951,-0.959317
16.9583,367.968,-0.959329
16.96,367.985,-0.959337
16.9617,368.001,-0.959357
16.9633,368.018,-0.959377
16.965,368.035,-0.959388
16.9667,368.051,-0.959403
16.9683,368.068,-0.95942
16.97,368.085,-0.959436
16.9717,368.101,-0.959448
16.9733,368.118,-0.959453
16.975,368.134,-0.959459
16.9767,368.151,-0.959472
16.9783,368.168,-0.959488
16.98,368.184,-0.959511
16.9817,368.201,-0.95953
16.9833,368.217,-0.959538
16.985,368.234,-0.959551
16.9867,368.251,-0.959571
16.9883,368.268,-0.959592
16.99,368.284,-0.959597
16.9917,368.301,-0.959597
16.9933,368.318,-0.959591
16.995,368.335,-0.959592
16.9967,368.351,-0.959603
16.9983,368.368,-0.959611
17,368.385,-0.959623
17.0017,368.401,-0.959635
17.0033,368.418,-0.959644
17.005,368.434,-0.95965
17.0067,368.451,-0.959659
17.0083,368.468,-0.959663
17.01,368.484,-0.959671
17.0117,368.501,-0.95968
17.0133,368.518,-0.959686
17.015,368.534,-0.959695
17.0167,368.551,-0.959703
17.0183,368.568,-0.959709
17.02,368.584,-0.95972
17.0217,368.601,-0.959736
17.0233,368.618,-0.959744
17.025,368.634,-0.959748
17.0267,368.651,-0.959755
17.0283,368.668,-0.959771
17.03,368.684,-0.959792
17.0317,368.701,-0.959808
17.0333,368.718,-0.959813
17.035,368.734,-0.959818
17.0367,368.75,-0.95983
17.0383,368.767,-0.959838
17.04,368.784,-0.959851
17.0417,368.8,-0.959864
17.0433,368.817,-0.959872
17.045,368.834,-0.959881
17.0467,368.851,-0.959895
17.0483,368.867,-0.959898
17.05,368.884,-0.959899
17.0517,368.901,-0.959901
17.0533,368.918,-0.9599
17.055,368.934,-0.9599
17.0567,368.951,-0.959886
17.0583,368.968,-0.959873
17.06,368.984,-0.959872
17.0617,369.001,-0.95988
17.0633,369.018,-0.959897
17.065,369.034,-0.959921
17.0667,369.051,-0.959939
17.0683,369.067,-0.959955
17.07,369.084,-0.959968
17.0717,369.101,-0.959975
17.0733,369.117,-0.959979
17.075,369.134,-0.959976
17.0767,369.15,-0.95997
17.0783,369.167,-0.959974
17.08,369.184,-0.959987
17.0817,369.2,-0.960002
17.0833,369.217,-0.960022
17.085,369.234,-0.960049
17.0867,369.25,-0.960073
17.0883,369.267,-0.96009
17.09,369.283,-0.960107
17.0917,369.3,-0.960124
17.0933,369.317,-0.960132
17.095,369.333,-0.96013
17.0967,369.35,-0.960129
17.0983,369.367,-0.960129
17.1,369.383,-0.960134
17.1017,369.399,-0.960141
17.1033,369.416,-0.960148
17.105,369.433,-0.960159
17.1067,369.45,-0.960163
17.1083,369.467,-0.960159
17.11,369.483,-0.96016
17.1117,369.5,-0.960158
17.1133,369.517,-0.960148
17.115,369.533,-0.960138
17.1167,369.55,-0.960127
17.1183,369.567,-0.960116
17.12,369.583,-0.960105
17.1217,369.6,-0.960091
17.1233,369.616,-0.960082
17.125,369.633,-0.960085
17.1267,369.65,-0.960085
17.1283,369.666,-0.96009
17.13,369.683,-0.960106
17.1317,369.699,-0.960128
17.1333,369.716,-0.96015
17.135,369.733,-0.960179
17.1367,369.749,-0.960205
17.1383,369.766,-0.960232
17.14,369.782,-0.960253
17.1417,369.799,-0.960278
17.1433,369.816,-0.960297
17.145,369.833,-0.960302
17.1467,369.849,-0.960299
17.1483,369.866,-0.960298
17.15,369.882,-0.960295
17.1517,369.899,-0.960298
17.1533,369.916,-0.9603
17.155,369.932,-0.960301
17.1567,369.949,-0.960305
17.1583,369.966,-0.960316
17.16,369.983,-0.96033
17.1617,369.999,-0.960356
17.1633,370.016,-0.960377
17.165,370.033,-0.960397
17.1667,370.049,-0.960403
17.1683,370.066,-0.960408
17.17,370.083,-0.960412
17.1717,370.1,-0.960409
17.1733,370.116,-0.960396
17.175,370.133,-0.960385
17.1767,370.15,-0.960379
17.1783,370.166,-0.960378
17.18,370.183,-0.96038
17.1817,370.199,-0.960381
17.1833,370.216,-0.960389
17.185,370.232,-0.960394
17.1867,370.249,-0.960415
17.1883,370.265,-0.96044
17.19,370.282,-0.960468
17.1917,370.299,-0.960503
17.1933,370.316,-0.960534
17.195,370.333,-0.960568
17.1967,370.35,-0.960595
17.1983,370.366,-0.960618
17.2,370.383,-0.960636
17.2017,370.399,-0.960652
17.2033,370.416,-0.960655
17.205,370.433,-0.960656
17.2067,370.449,-0.960649
17.2083,370.466,-0.960639
17.21,370.482,-0.960638
17.2117,370.499,-0.960641
17.2133,370.515,-0.960647
17.215,370.532,-0.960658
17.2167,370.549,-0.960674
17.2183,370.565,-0.960697
17.22,370.582,-0.960712
17.2217,370.599,-0.960737
17.2233,370.616,-0.960765
17.225,370.633,-0.960795
17.2267,370.649,-0.960832
17.2283,370.666,-0.960871
17.23,370.682,-0.960913
17.2317,370.699,-0.960952
17.2333,370.716,-0.960989
17.235,370.732,-0.961019
17.2367,370.749,-0.961047
17.2383,370.766,-0.961065
17.24,370.782,-0.961076
17.2417,370.799,-0.961084
17.2433,370.816,-0.961088
17.245,370.832,-0.961083
17.2467,370.849,-0.961066
17.2483,370.866,-0.961054
17.25,370.882,-0.961053
17.2517,370.899,-0.961055
17.2533,370.915,-0.961068
17.255,370.932,-0.961083
17.2567,370.948,-0.96111
17.2583,370.965,-0.961142
17.26,370.982,-0.961177
17.2617,370.998,-0.961212
17.2633,371.015,-0.961247
17.265,371.032,-0.961283
17.2667,371.048,-0.961317
17.2683,371.066,-0.961352
17.27,371.082,-0.961386
17.2717,371.099,-0.961423
17.2733,371.115,-0.961455
17.275,371.132,-0.961489
17.2767,371.149,-0.961523
17.2783,371.165,-0.961548
17.28,371.182,-0.96156
17.2817,371.199,-0.961572
17.2833,371.215,-0.96158
17.285,371.232,-0.961583
17.2867,371.249,-0.961581
17.2883,371.265,-0.961578
17.29,371.282,-0.961571
17.2917,371.298,-0.961564
17.2933,371.315,-0.961557
17.295,371.332,-0.961553
17.2967,371.348,-0.961554
17.2983,371.365,-0.961562
17.3,371.382,-0.96158
17.3017,371.399,-0.96161
17.3033,371.415,-0.96165
17.305,371.432,-0.96169
17.3067,371.448,-0.961726
17.3083,371.465,-0.961755
17.31,371.482,-0.961781
17.3117,371.499,-0.961807
17.3133,371.515,-0.961828
17.315,371.532,-0.961844
17.3167,371.548,-0.961857
17.3183,371.565,-0.961869
17.32,371.582,-0.96188
17.3217,371.598,-0.961892
17.3233,371.615,-0.961906
17.325,371.632,-0.961927
17.3267,371.648,-0.961949
17.3283,371.665,-0.961971
17.33,371.681,-0.961988
17.3317,371.698,-0.962004
17.3333,371.715,-0.962027
17.335,371.732,-0.96205
17.3367,371.748,-0.962069
17.3383,371.765,-0.962083
17.34,371.781,-0.962097
17.3417,371.798,-0.962115
17.3433,371.815,-0.962129
17.345,371.831,-0.962149
17.3467,371.848,-0.962163
17.3483,371.865,-0.962179
17.35,371.882,-0.962206
17.3517,371.898,-0.962237
17.3533,371.915,-0.962257
17.355,371.932,-0.962274
17.3567,371.948,-0.962282
17.3583,371.965,-0.962291
17.36,371.982,-0.962296
17.3617,371.998,-0.962291
17.3633,372.015,-0.962288
17.365,372.031,-0.962282
17.3667,372.048,-0.962273
17.3683,372.065,-0.96226
17.37,372.081,-0.962239
17.3717,372.098,-0.962227
17.3733,372.115,-0.96222
17.375,372.131,-0.96222
17.3767,372.148,-0.962226
17.3783,372.165,-0.962232
17.38,372.181,-0.962251
17.3817,372.198,-0.962271
17.3833,372.215,-0.962295
17.385,372.231,-0.962328
17.3867,372.248,-0.962365
17.3883,372.264,-0.9624
17.39,372.281,-0.962435
17.3917,372.298,-0.96247
17.3933,372.314,-0.962503
17.395,372.33,-0.96253
17.3967,372.347,-0.962546
17.3983,372.364,-0.962555
17.4,372.381,-0.962562
17.4017,372.398,-0.962567
17.4033,372.414,-0.962568
17.405,372.431,-0.962577
17.4067,372.447,-0.962596
17.4083,372.464,-0.962611
17.41,372.481,-0.962622
17.4117,372.498,-0.962636
17.4133,372.514,-0.962642
17.415,372.53,-0.962653
17.4167,372.548,-0.962657
17.4183,372.564,-0.962663
17.42,372.581,-0.962671
17.4217,372.597,-0.962671
17.4233,372.614,-0.96268
17.425,372.631,-0.962698
17.4267,372.648,-0.962716
17.4283,372.664,-0.962749
17.43,372.681,-0.962776
17.4317,372.698,-0.962799
17.4333,372.714,-0.962823
17.435,372.731,-0.962837
17.4367,372.747,-0.962846
17.4383,372.764,-0.962851
17.44,372.781,-0.962843
17.4417,372.797,-0.962842
17.4433,372.814,-0.962847
17.445,372.831,-0.962853
17.4467,372.847,-0.962864
17.4483,372.864,-0.962884
17.45,372.881,-0.96292
17.4517,372.898,-0.962958
17.4533,372.914,-0.963
17.455,372.931,-0.963042
17.4567,372.948,-0.963079
17.4583,372.964,-0.963121
17.46,372.981,-0.963162
17.4617,372.998,-0.9632
17.4633,373.014,-0.963242
17.465,373.031,-0.963283
17.4667,373.047,-0.96332
17.4683,373.064,-0.963355
17.47,373.081,-0.96339
17.4717,373.098,-0.963416
17.4733,373.114,-0.963432
17.475,373.131,-0.96344
17.4767,373.148,-0.963445
17.4783,373.164,-0.963438
17.48,373.181,-0.963429
17.4817,373.198,-0.963424
17.4833,373.215,-0.963426
17.485,373.231,-0.963426
17.4867,373.248,-0.963425
17.4883,373.264,-0.963424
17.49,373.281,-0.963431
17.4917,373.297,-0.963441
17.4933,373.313,-0.963448
17.495,373.33,-0.963452
17.4967,373.347,-0.963454
17.4983,373.363,-0.963457
17.5,373.38,-0.963446
17.5017,373.397,-0.963414
17.5033,373.413,-0.963376
17.505,373.43,-0.963281
