Ramp 10.00 °C/min to 375.00 °C,,
Time,Temperature,Heat Flow (Normalized)
min,°C,W/g
5.00333,249.86,-0.193827
5.005,249.86,-0.193834
5.00667,249.86,-0.193847
5.00833,249.86,-0.193859
5.01,249.86,-0.193869
5.01167,249.86,-0.193888
5.01333,249.86,-0.193909
5.015,249.861,-0.19393
5.01667,249.861,-0.193954
5.01833,249.861,-0.193981
5.02,249.861,-0.194002
5.02167,249.861,-0.194022
5.02333,249.862,-0.194037
5.025,249.862,-0.194058
5.02667,249.862,-0.194083
5.02833,249.863,-0.194109
5.03,249.863,-0.194132
5.03167,249.864,-0.194164
5.03333,249.865,-0.194221
5.035,249.866,-0.194266
5.03667,249.867,-0.194314
5.03833,249.868,-0.194372
5.04,249.868,-0.19442
5.04167,249.87,-0.194462
5.04333,249.871,-0.1945
5.045,249.872,-0.194529
5.04667,249.874,-0.194544
5.04833,249.875,-0.194546
5.05,249.877,-0.194526
5.05167,249.879,-0.194448
5.05333,249.88,-0.194297
5.055,249.883,-0.194011
5.05667,249.885,-0.193618
5.05833,249.887,-0.192999
5.06,249.89,-0.192106
5.06167,249.892,-0.190769
5.06333,249.895,-0.189115
5.065,249.898,-0.186632
5.06667,249.902,-0.183535
5.06833,249.905,-0.18012
5.07,249.908,-0.176274
5.07167,249.912,-0.172395
5.07333,249.916,-0.168179
5.075,249.92,-0.163352
5.07667,249.924,-0.158732
5.07833,249.928,-0.154672
5.08,249.932,-0.151654
5.08167,249.938,-0.149302
5.08333,249.943,-0.147175
5.085,249.948,-0.145615
5.08667,249.953,-0.14465
5.08833,249.959,-0.143709
5.09,249.965,-0.143544
5.09167,249.971,-0.143717
5.09333,249.977,-0.143836
5.095,249.983,-0.144035
5.09667,249.99,-0.144392
5.09833,249.996,-0.144817
5.1,250.003,-0.146269
5.10167,250.01,-0.147215
5.10333,250.018,-0.147655
5.105,250.025,-0.14794
5.10667,250.033,-0.14854
5.10833,250.041,-0.14967
5.11,250.049,-0.152235
5.11167,250.057,-0.156731
5.11333,250.066,-0.163141
5.115,250.074,-0.17145
5.11667,250.083,-0.18352
5.11833,250.092,-0.19502
5.12,250.101,-0.206588
5.12167,250.11,-0.21643
5.12333,250.119,-0.227371
5.125,250.129,-0.233655
5.12667,250.139,-0.242578
5.12833,250.149,-0.250681
5.13,250.159,-0.258925
5.13167,250.169,-0.267528
5.13333,250.179,-0.275585
5.135,250.19,-0.285041
5.13667,250.2,-0.29459
5.13833,250.211,-0.302467
5.14,250.222,-0.310191
5.14167,250.233,-0.318713
5.14333,250.244,-0.326218
5.145,250.255,-0.334535
5.14667,250.266,-0.342217
5.14833,250.277,-0.349355
5.15,250.289,-0.357368
5.15167,250.3,-0.36657
5.15333,250.312,-0.374732
5.155,250.324,-0.382586
5.15667,250.336,-0.390297
5.15833,250.348,-0.397433
5.16,250.361,-0.405781
5.16167,250.373,-0.412715
5.16333,250.385,-0.420781
5.165,250.397,-0.427385
5.16667,250.41,-0.433806
5.16833,250.423,-0.441665
5.17,250.436,-0.448891
5.17167,250.448,-0.456813
5.17333,250.461,-0.462666
5.175,250.474,-0.470779
5.17667,250.486,-0.477552
5.17833,250.5,-0.484742
5.18,250.513,-0.491107
5.18167,250.526,-0.497256
5.18333,250.539,-0.50331
5.185,250.552,-0.507775
5.18667,250.566,-0.512553
5.18833,250.579,-0.517211
5.19,250.592,-0.522069
5.19167,250.606,-0.52644
5.19333,250.62,-0.531252
5.195,250.633,-0.536101
5.19667,250.647,-0.541055
5.19833,250.661,-0.546131
5.2,250.675,-0.552497
5.20167,250.689,-0.557604
5.20333,250.703,-0.563759
5.205,250.717,-0.569831
5.20667,250.731,-0.573816
5.20833,250.745,-0.577188
5.21,250.76,-0.581427
5.21167,250.773,-0.58531
5.21333,250.788,-0.589156
5.215,250.802,-0.592438
5.21667,250.816,-0.595004
5.21833,250.831,-0.599803
5.22,250.845,-0.602281
5.22167,250.859,-0.605757
5.22333,250.874,-0.609856
5.225,250.888,-0.612602
5.22667,250.903,-0.616149
5.22833,250.918,-0.619742
5.23,250.933,-0.62353
5.23167,250.947,-0.626962
5.23333,250.962,-0.629561
5.235,250.977,-0.632045
5.23667,250.992,-0.634558
5.23833,251.007,-0.63802
5.24,251.022,-0.64267
5.24167,251.037,-0.646552
5.24333,251.052,-0.64979
5.245,251.067,-0.653012
5.24667,251.082,-0.657177
5.24833,251.097,-0.659683
5.25,251.112,-0.663458
5.25167,251.127,-0.665333
5.25333,251.142,-0.667608
5.255,251.157,-0.670565
5.25667,251.173,-0.671915
5.25833,251.188,-0.673636
5.26,251.203,-0.675264
5.26167,251.218,-0.676413
5.26333,251.233,-0.678202
5.265,251.249,-0.679548
5.26667,251.265,-0.680141
5.26833,251.28,-0.683715
5.27,251.296,-0.686252
5.27167,251.311,-0.687531
5.27333,251.326,-0.690204
5.275,251.342,-0.691754
5.27667,251.357,-0.694232
5.27833,251.372,-0.697132
5.28,251.388,-0.699997
5.28167,251.403,-0.702422
5.28333,251.419,-0.704496
5.285,251.435,-0.706328
5.28667,251.45,-0.707831
5.28833,251.466,-0.709634
5.29,251.481,-0.711097
5.29167,251.497,-0.712324
5.29333,251.513,-0.712518
5.295,251.528,-0.71314
5.29667,251.544,-0.712931
5.29833,251.56,-0.71477
5.3,251.576,-0.717832
5.30167,251.591,-0.719122
5.30333,251.607,-0.720623
5.305,251.623,-0.722732
5.30667,251.639,-0.724776
5.30833,251.654,-0.727318
5.31,251.67,-0.730018
5.31167,251.686,-0.73063
5.31333,251.702,-0.730841
5.315,251.718,-0.730989
5.31667,251.734,-0.731843
5.31833,251.75,-0.732778
5.32,251.766,-0.733378
5.32167,251.782,-0.734145
5.32333,251.797,-0.734564
5.325,251.813,-0.735264
5.32667,251.829,-0.736449
5.32833,251.845,-0.737801
5.33,251.861,-0.739145
5.33167,251.877,-0.739996
5.33333,251.893,-0.740738
5.335,251.909,-0.741701
5.33667,251.925,-0.742658
5.33833,251.941,-0.743733
5.34,251.957,-0.745009
5.34167,251.974,-0.745946
5.34333,251.989,-0.746809
5.345,252.005,-0.747918
5.34667,252.022,-0.748966
5.34833,252.038,-0.749704
5.35,252.054,-0.750363
5.35167,252.07,-0.750667
5.35333,252.086,-0.751163
5.355,252.102,-0.751878
5.35667,252.118,-0.752856
5.35833,252.134,-0.754195
5.36,252.15,-0.755331
5.36167,252.166,-0.756322
5.36333,252.182,-0.757507
5.365,252.198,-0.758378
5.36667,252.215,-0.759224
5.36833,252.231,-0.759846
5.37,252.247,-0.759978
5.37167,252.263,-0.759973
5.37333,252.28,-0.76002
5.375,252.296,-0.760147
5.37667,252.311,-0.760419
5.37833,252.328,-0.760735
5.38,252.344,-0.761183
5.38167,252.36,-0.76177
5.38333,252.376,-0.762205
5.385,252.393,-0.762614
5.38667,252.409,-0.763211
5.38833,252.425,-0.763619
5.39,252.441,-0.76394
5.39167,252.457,-0.76437
5.39333,252.474,-0.764937
5.395,252.49,-0.765585
5.39667,252.506,-0.766354
5.39833,252.523,-0.767161
5.4,252.539,-0.76787
5.40167,252.555,-0.768363
5.40333,252.571,-0.768624
5.405,252.587,-0.768816
5.40667,252.603,-0.769059
5.40833,252.62,-0.769285
5.41,252.636,-0.769409
5.41167,252.652,-0.769624
5.41333,252.668,-0.769899
5.415,252.685,-0.770208
5.41667,252.701,-0.770546
5.41833,252.717,-0.770918
5.42,252.734,-0.771286
5.42167,252.75,-0.771738
5.42333,252.766,-0.772253
5.425,252.783,-0.77309
5.42667,252.799,-0.773931
5.42833,252.815,-0.774677
5.43,252.831,-0.77529
5.43167,252.848,-0.775855
5.43333,252.864,-0.77623
5.435,252.88,-0.776562
5.43667,252.897,-0.776762
5.43833,252.913,-0.776974
5.44,252.929,-0.777201
5.44167,252.945,-0.777362
5.44333,252.962,-0.77756
5.445,252.978,-0.777698
5.44667,252.994,-0.777822
5.44833,253.011,-0.777885
5.45,253.027,-0.777972
5.45167,253.044,-0.778051
5.45333,253.06,-0.77816
5.455,253.076,-0.778289
5.45667,253.092,-0.778509
5.45833,253.109,-0.778853
5.46,253.126,-0.779216
5.46167,253.142,-0.779746
5.46333,253.158,-0.780174
5.465,253.174,-0.7806
5.46667,253.191,-0.780876
5.46833,253.207,-0.781163
5.47,253.223,-0.781339
5.47167,253.24,-0.781472
5.47333,253.256,-0.781612
5.475,253.272,-0.781835
5.47667,253.289,-0.782027
5.47833,253.305,-0.782133
5.48,253.322,-0.78224
5.48167,253.338,-0.78239
5.48333,253.354,-0.782576
5.485,253.37,-0.782809
5.48667,253.387,-0.782964
5.48833,253.403,-0.78316
5.49,253.419,-0.783328
5.49167,253.436,-0.783471
5.49333,253.452,-0.783629
5.495,253.468,-0.783766
5.49667,253.485,-0.783921
5.49833,253.501,-0.784073
5.5,253.517,-0.78426
5.50167,253.534,-0.784467
5.50333,253.55,-0.784696
5.505,253.567,-0.784889
5.50667,253.583,-0.785061
5.50833,253.6,-0.785143
5.51,253.616,-0.785203
5.51167,253.633,-0.785264
5.51333,253.649,-0.785622
5.515,253.666,-0.785882
5.51667,253.682,-0.786085
5.51833,253.698,-0.786338
5.52,253.715,-0.786389
5.52167,253.731,-0.786453
5.52333,253.748,-0.786614
5.525,253.764,-0.786828
5.52667,253.78,-0.787025
5.52833,253.797,-0.787352
5.53,253.813,-0.787611
5.53167,253.829,-0.787912
5.53333,253.846,-0.788251
5.535,253.862,-0.788467
5.53667,253.878,-0.788655
5.53833,253.895,-0.788804
5.54,253.911,-0.788878
5.54167,253.928,-0.788964
5.54333,253.944,-0.789039
5.545,253.96,-0.789112
5.54667,253.977,-0.789386
5.54833,253.993,-0.789452
5.55,254.01,-0.789526
5.55167,254.026,-0.789628
5.55333,254.042,-0.789794
5.555,254.058,-0.790036
5.55667,254.075,-0.790273
5.55833,254.091,-0.790429
5.56,254.108,-0.790525
5.56167,254.124,-0.790609
5.56333,254.141,-0.790687
5.565,254.157,-0.790917
5.56667,254.173,-0.791044
5.56833,254.19,-0.791116
5.57,254.206,-0.791207
5.57167,254.223,-0.791282
5.57333,254.239,-0.791369
5.575,254.256,-0.791553
5.57667,254.272,-0.791715
5.57833,254.288,-0.79187
5.58,254.305,-0.792046
5.58167,254.321,-0.79217
5.58333,254.337,-0.792257
5.585,254.354,-0.792336
5.58667,254.371,-0.792494
5.58833,254.387,-0.792644
5.59,254.404,-0.792717
5.59167,254.419,-0.792803
5.59333,254.436,-0.792965
5.595,254.452,-0.793127
5.59667,254.469,-0.793265
5.59833,254.485,-0.793398
5.6,254.501,-0.793495
5.60167,254.518,-0.793591
5.60333,254.534,-0.793683
5.605,254.551,-0.793777
5.60667,254.567,-0.793864
5.60833,254.584,-0.793948
5.61,254.6,-0.794037
5.61167,254.616,-0.794124
5.61333,254.633,-0.794208
5.615,254.649,-0.794279
5.61667,254.666,-0.794341
5.61833,254.682,-0.7944
5.62,254.699,-0.79446
5.62167,254.715,-0.79452
5.62333,254.731,-0.79459
5.625,254.748,-0.79467
5.62667,254.765,-0.794757
5.62833,254.781,-0.794866
5.63,254.797,-0.795071
5.63167,254.814,-0.795286
5.63333,254.831,-0.795478
5.635,254.847,-0.795621
5.63667,254.863,-0.795723
5.63833,254.88,-0.795823
5.64,254.897,-0.795982
5.64167,254.913,-0.79613
5.64333,254.93,-0.796244
5.645,254.946,-0.796352
5.64667,254.963,-0.796475
5.64833,254.979,-0.796646
5.65,254.995,-0.796776
5.65167,255.012,-0.796937
5.65333,255.028,-0.797147
5.655,255.045,-0.797424
5.65667,255.061,-0.79779
5.65833,255.078,-0.798005
5.66,255.094,-0.798148
5.66167,255.111,-0.798288
5.66333,255.127,-0.798435
5.665,255.144,-0.798549
5.66667,255.16,-0.798663
5.66833,255.176,-0.79877
5.67,255.193,-0.798929
5.67167,255.209,-0.799039
5.67333,255.226,-0.799129
5.675,255.242,-0.799239
5.67667,255.258,-0.799328
5.67833,255.275,-0.799416
5.68,255.291,-0.799508
5.68167,255.308,-0.799605
5.68333,255.324,-0.79971
5.685,255.34,-0.799825
5.68667,255.357,-0.799983
5.68833,255.373,-0.800129
5.69,255.39,-0.800268
5.69167,255.407,-0.800439
5.69333,255.423,-0.800576
5.695,255.44,-0.800711
5.69667,255.457,-0.800822
5.69833,255.473,-0.800931
5.7,255.49,-0.801035
5.70167,255.506,-0.801142
5.70333,255.523,-0.801244
5.705,255.539,-0.801359
5.70667,255.556,-0.801464
5.70833,255.572,-0.801566
5.71,255.588,-0.801672
5.71167,255.605,-0.801784
5.71333,255.622,-0.801891
5.715,255.638,-0.801998
5.71667,255.654,-0.802106
5.71833,255.671,-0.802213
5.72,255.688,-0.802309
5.72167,255.704,-0.802399
5.72333,255.721,-0.802491
5.725,255.737,-0.802589
5.72667,255.753,-0.802677
5.72833,255.77,-0.802758
5.73,255.786,-0.802837
5.73167,255.803,-0.802912
5.73333,255.819,-0.802987
5.735,255.835,-0.803071
5.73667,255.852,-0.80316
5.73833,255.868,-0.803258
5.74,255.885,-0.803371
5.74167,255.901,-0.803515
5.74333,255.918,-0.803683
5.745,255.934,-0.803938
5.74667,255.951,-0.804267
5.74833,255.968,-0.804629
5.75,255.984,-0.804934
5.75167,256,-0.805155
5.75333,256.017,-0.805274
5.755,256.033,-0.80539
5.75667,256.05,-0.8055
5.75833,256.067,-0.805606
5.76,256.083,-0.805707
5.76167,256.1,-0.80581
5.76333,256.116,-0.805907
5.765,256.132,-0.805999
5.76667,256.149,-0.806091
5.76833,256.165,-0.806183
5.77,256.182,-0.806273
5.77167,256.198,-0.806367
5.77333,256.214,-0.806456
5.775,256.231,-0.806547
5.77667,256.248,-0.806644
5.77833,256.265,-0.806738
5.78,256.281,-0.806837
5.78167,256.298,-0.806923
5.78333,256.314,-0.807015
5.785,256.331,-0.807115
5.78667,256.347,-0.807223
5.78833,256.364,-0.807324
5.79,256.38,-0.807432
5.79167,256.396,-0.807539
5.79333,256.413,-0.807647
5.795,256.43,-0.807749
5.79667,256.446,-0.807855
5.79833,256.463,-0.807964
5.8,256.479,-0.808081
5.80167,256.496,-0.808203
5.80333,256.512,-0.808318
5.805,256.529,-0.808425
5.80667,256.545,-0.808524
5.80833,256.562,-0.808617
5.81,256.578,-0.808713
5.81167,256.595,-0.808799
5.81333,256.612,-0.808877
5.815,256.628,-0.808951
5.81667,256.645,-0.809033
5.81833,256.661,-0.809122
5.82,256.678,-0.809217
5.82167,256.694,-0.809312
5.82333,256.711,-0.809408
5.825,256.727,-0.809505
5.82667,256.743,-0.809602
5.82833,256.76,-0.809708
5.83,256.777,-0.809813
5.83167,256.793,-0.809916
5.83333,256.81,-0.810018
5.835,256.826,-0.810123
5.83667,256.843,-0.810232
5.83833,256.86,-0.810343
5.84,256.877,-0.810458
5.84167,256.893,-0.810568
5.84333,256.909,-0.810678
5.845,256.926,-0.810792
5.84667,256.942,-0.810907
5.84833,256.959,-0.811016
5.85,256.975,-0.811132
5.85167,256.992,-0.811249
5.85333,257.008,-0.811367
5.855,257.025,-0.81149
5.85667,257.042,-0.811659
5.85833,257.058,-0.811816
5.86,257.075,-0.811947
5.86167,257.091,-0.812064
5.86333,257.108,-0.812168
5.865,257.124,-0.812261
5.86667,257.14,-0.812345
5.86833,257.157,-0.812414
5.87,257.173,-0.812478
5.87167,257.19,-0.812538
5.87333,257.207,-0.812597
5.875,257.223,-0.812663
5.87667,257.24,-0.812732
5.87833,257.256,-0.812809
5.88,257.273,-0.812898
5.88167,257.289,-0.812997
5.88333,257.306,-0.813104
5.885,257.323,-0.813226
5.88667,257.339,-0.813363
5.88833,257.356,-0.813541
5.89,257.372,-0.813676
5.89167,257.389,-0.813806
5.89333,257.405,-0.813926
5.895,257.422,-0.814035
5.89667,257.438,-0.814137
5.89833,257.455,-0.814228
5.9,257.471,-0.814315
5.90167,257.488,-0.814404
5.90333,257.504,-0.814492
5.905,257.521,-0.814582
5.90667,257.538,-0.814668
5.90833,257.554,-0.814764
5.91,257.571,-0.81486
5.91167,257.588,-0.814949
5.91333,257.604,-0.815032
5.915,257.621,-0.815109
5.91667,257.637,-0.815193
5.91833,257.654,-0.815285
5.92,257.67,-0.815377
5.92167,257.687,-0.815477
5.92333,257.703,-0.815583
5.925,257.72,-0.815698
5.92667,257.737,-0.815814
5.92833,257.753,-0.815925
5.93,257.77,-0.816026
5.93167,257.786,-0.816124
5.93333,257.803,-0.816219
5.935,257.819,-0.816307
5.93667,257.836,-0.816393
5.93833,257.852,-0.816476
5.94,257.869,-0.816557
5.94167,257.885,-0.816645
5.94333,257.902,-0.81674
5.945,257.919,-0.816838
5.94667,257.935,-0.816946
5.94833,257.952,-0.817055
5.95,257.968,-0.81716
5.95167,257.985,-0.817266
5.95333,258.001,-0.817362
5.955,258.018,-0.817455
5.95667,258.035,-0.817537
5.95833,258.051,-0.817615
5.96,258.068,-0.817691
5.96167,258.085,-0.817772
5.96333,258.101,-0.817863
5.965,258.118,-0.817952
5.96667,258.134,-0.81804
5.96833,258.15,-0.81812
5.97,258.167,-0.818204
5.97167,258.184,-0.818291
5.97333,258.2,-0.818381
5.975,258.216,-0.818467
5.97667,258.233,-0.818556
5.97833,258.25,-0.818648
5.98,258.267,-0.818747
5.98167,258.283,-0.818846
5.98333,258.3,-0.818954
5.985,258.316,-0.81906
5.98667,258.333,-0.819164
5.98833,258.349,-0.819263
5.99,258.366,-0.819352
5.99167,258.382,-0.819433
5.99333,258.399,-0.819502
5.995,258.416,-0.819562
5.99667,258.432,-0.819624
5.99833,258.449,-0.819686
6,258.465,-0.819751
6.00167,258.482,-0.819821
6.00333,258.499,-0.819898
6.005,258.515,-0.819978
6.00667,258.532,-0.820063
6.00833,258.548,-0.820146
6.01,258.565,-0.820239
6.01167,258.581,-0.820337
6.01333,258.598,-0.820437
6.015,258.614,-0.820534
6.01667,258.631,-0.820631
6.01833,258.648,-0.82072
6.02,258.664,-0.820802
6.02167,258.681,-0.820878
6.02333,258.697,-0.820965
6.025,258.714,-0.821046
6.02667,258.73,-0.821127
6.02833,258.747,-0.821211
6.03,258.763,-0.821288
6.03167,258.78,-0.821373
6.03333,258.796,-0.821456
6.035,258.813,-0.821538
6.03667,258.83,-0.821628
6.03833,258.847,-0.821715
6.04,258.864,-0.821803
6.04167,258.88,-0.821895
6.04333,258.897,-0.821984
6.045,258.913,-0.822068
6.04667,258.93,-0.822147
6.04833,258.946,-0.822225
6.05,258.962,-0.822304
6.05167,258.979,-0.822375
6.05333,258.996,-0.822443
6.055,259.012,-0.822517
6.05667,259.029,-0.822598
6.05833,259.046,-0.822687
6.06,259.062,-0.822772
6.06167,259.079,-0.822858
6.06333,259.095,-0.822941
6.065,259.112,-0.823017
6.06667,259.129,-0.823091
6.06833,259.145,-0.823158
6.07,259.162,-0.823217
6.07167,259.178,-0.823271
6.07333,259.194,-0.823331
6.075,259.211,-0.823397
6.07667,259.228,-0.823465
6.07833,259.244,-0.823545
6.08,259.261,-0.823635
6.08167,259.278,-0.823731
6.08333,259.294,-0.823834
6.085,259.311,-0.823934
6.08667,259.327,-0.824035
6.08833,259.344,-0.824122
6.09,259.36,-0.824201
6.09167,259.377,-0.824271
6.09333,259.394,-0.824345
6.095,259.41,-0.824419
6.09667,259.427,-0.824496
6.09833,259.444,-0.824567
6.1,259.46,-0.824642
6.10167,259.477,-0.82471
6.10333,259.494,-0.824775
6.105,259.51,-0.824841
6.10667,259.527,-0.824909
6.10833,259.543,-0.824969
6.11,259.56,-0.825034
6.11167,259.576,-0.825108
6.11333,259.592,-0.82518
6.115,259.609,-0.825254
6.11667,259.625,-0.825326
6.11833,259.642,-0.825406
6.12,259.659,-0.825483
6.12167,259.676,-0.825558
6.12333,259.692,-0.825623
6.125,259.709,-0.825688
6.12667,259.725,-0.82574
6.12833,259.742,-0.825803
6.13,259.759,-0.825871
6.13167,259.775,-0.825932
6.13333,259.792,-0.825993
6.135,259.808,-0.826052
6.13667,259.825,-0.82612
6.13833,259.841,-0.82619
6.14,259.858,-0.826265
6.14167,259.874,-0.826339
6.14333,259.891,-0.826418
6.145,259.907,-0.826497
6.14667,259.924,-0.826581
6.14833,259.941,-0.826658
6.15,259.957,-0.826737
6.15167,259.974,-0.826824
6.15333,259.99,-0.826899
6.155,260.007,-0.826978
6.15667,260.024,-0.82706
6.15833,260.041,-0.827125
6.16,260.057,-0.827179
6.16167,260.074,-0.827229
6.16333,260.09,-0.827278
6.165,260.107,-0.827331
6.16667,260.123,-0.827386
6.16833,260.14,-0.827446
6.17,260.157,-0.827521
6.17167,260.173,-0.827601
6.17333,260.19,-0.827685
6.175,260.206,-0.827777
6.17667,260.223,-0.827867
6.17833,260.24,-0.827953
6.18,260.256,-0.828027
6.18167,260.273,-0.828087
6.18333,260.289,-0.828143
6.185,260.306,-0.828194
6.18667,260.323,-0.828238
6.18833,260.339,-0.82828
6.19,260.356,-0.828332
6.19167,260.372,-0.828385
6.19333,260.389,-0.828439
6.195,260.405,-0.828505
6.19667,260.422,-0.828577
6.19833,260.438,-0.828654
6.2,260.455,-0.828733
6.20167,260.472,-0.828814
6.20333,260.489,-0.828893
6.205,260.506,-0.82897
6.20667,260.522,-0.829042
6.20833,260.539,-0.829109
6.21,260.555,-0.829179
6.21167,260.572,-0.829255
6.21333,260.589,-0.829328
6.215,260.605,-0.829412
6.21667,260.622,-0.829498
6.21833,260.638,-0.829583
6.22,260.655,-0.829658
6.22167,260.672,-0.829729
6.22333,260.688,-0.829797
6.225,260.704,-0.829853
6.22667,260.721,-0.829906
6.22833,260.737,-0.829957
6.23,260.754,-0.830009
6.23167,260.771,-0.830062
6.23333,260.788,-0.830116
6.235,260.804,-0.830176
6.23667,260.821,-0.830232
6.23833,260.837,-0.830299
6.24,260.854,-0.830366
6.24167,260.871,-0.830437
6.24333,260.887,-0.830512
6.245,260.904,-0.830596
6.24667,260.92,-0.830675
6.24833,260.937,-0.830749
6.25,260.954,-0.830814
6.25167,260.971,-0.83087
6.25333,260.987,-0.830923
6.255,261.004,-0.830979
6.25667,261.021,-0.831029
6.25833,261.037,-0.831083
6.26,261.054,-0.831142
6.26167,261.071,-0.831203
6.26333,261.087,-0.831275
6.265,261.104,-0.831349
6.26667,261.12,-0.831421
6.26833,261.137,-0.831486
6.27,261.153,-0.831543
6.27167,261.17,-0.831598
6.27333,261.186,-0.831652
6.275,261.203,-0.831703
6.27667,261.22,-0.831764
6.27833,261.236,-0.831831
6.28,261.253,-0.831897
6.28167,261.27,-0.831974
6.28333,261.286,-0.832053
6.285,261.303,-0.832135
6.28667,261.32,-0.832208
6.28833,261.336,-0.83228
6.29,261.353,-0.83235
6.29167,261.369,-0.832409
6.29333,261.386,-0.832467
6.295,261.403,-0.832532
6.29667,261.419,-0.83259
6.29833,261.436,-0.832647
6.3,261.452,-0.832698
6.30167,261.469,-0.832751
6.30333,261.485,-0.832801
6.305,261.502,-0.832857
6.30667,261.518,-0.832918
6.30833,261.535,-0.832982
6.31,261.552,-0.833043
6.31167,261.568,-0.833106
6.31333,261.585,-0.833171
6.315,261.602,-0.833237
6.31667,261.619,-0.833305
6.31833,261.635,-0.833371
6.32,261.652,-0.833439
6.32167,261.668,-0.833509
6.32333,261.685,-0.833586
6.325,261.702,-0.833666
6.32667,261.718,-0.833742
6.32833,261.735,-0.833814
6.33,261.752,-0.833883
6.33167,261.768,-0.83394
6.33333,261.785,-0.833992
6.335,261.802,-0.834043
6.33667,261.818,-0.834084
6.33833,261.834,-0.834122
6.34,261.851,-0.834156
6.34167,261.867,-0.834194
6.34333,261.884,-0.834231
6.345,261.901,-0.834275
6.34667,261.917,-0.834315
6.34833,261.934,-0.834362
6.35,261.95,-0.834414
6.35167,261.967,-0.834477
6.35333,261.984,-0.834548
6.355,262.001,-0.834619
6.35667,262.018,-0.834682
6.35833,262.034,-0.834743
6.36,262.051,-0.8348
6.36167,262.067,-0.834852
6.36333,262.084,-0.834893
6.365,262.1,-0.834933
6.36667,262.117,-0.834967
6.36833,262.133,-0.834996
6.37,262.15,-0.835029
6.37167,262.167,-0.835071
6.37333,262.183,-0.835115
6.375,262.2,-0.835157
6.37667,262.217,-0.835197
6.37833,262.233,-0.835237
6.38,262.25,-0.83529
6.38167,262.266,-0.835352
6.38333,262.283,-0.835419
6.385,262.3,-0.835485
6.38667,262.316,-0.835557
6.38833,262.333,-0.835631
6.39,262.35,-0.835703
6.39167,262.366,-0.835768
6.39333,262.383,-0.835831
6.395,262.399,-0.835891
6.39667,262.416,-0.835943
6.39833,262.433,-0.835993
6.4,262.449,-0.836036
6.40167,262.466,-0.836077
6.40333,262.483,-0.836113
6.405,262.499,-0.836147
6.40667,262.516,-0.836181
6.40833,262.532,-0.836223
6.41,262.549,-0.836262
6.41167,262.566,-0.83631
6.41333,262.582,-0.83636
6.415,262.599,-0.836404
6.41667,262.616,-0.83645
6.41833,262.632,-0.836501
6.42,262.649,-0.836539
6.42167,262.666,-0.836575
6.42333,262.682,-0.836618
6.425,262.699,-0.836667
6.42667,262.715,-0.836712
6.42833,262.732,-0.836744
6.43,262.749,-0.836778
6.43167,262.766,-0.836817
6.43333,262.782,-0.836853
6.435,262.799,-0.836882
6.43667,262.816,-0.836925
6.43833,262.832,-0.836966
6.44,262.849,-0.837012
6.44167,262.865,-0.837069
6.44333,262.882,-0.83714
6.445,262.899,-0.837211
6.44667,262.916,-0.837286
6.44833,262.932,-0.83738
6.45,262.948,-0.83748
6.45167,262.965,-0.837623
6.45333,262.982,-0.837708
6.455,262.999,-0.83778
6.45667,263.015,-0.837844
6.45833,263.032,-0.837897
6.46,263.048,-0.837941
6.46167,263.065,-0.837973
6.46333,263.082,-0.837994
6.465,263.098,-0.83802
6.46667,263.115,-0.838049
6.46833,263.132,-0.838092
6.47,263.148,-0.838139
6.47167,263.165,-0.838186
6.47333,263.181,-0.838233
6.475,263.198,-0.838285
6.47667,263.215,-0.838337
6.47833,263.231,-0.838389
6.48,263.248,-0.83844
6.48167,263.265,-0.838489
6.48333,263.282,-0.838532
6.485,263.298,-0.838566
6.48667,263.314,-0.838599
6.48833,263.331,-0.838635
6.49,263.348,-0.838666
6.49167,263.364,-0.838703
6.49333,263.381,-0.838721
6.495,263.397,-0.838736
6.49667,263.414,-0.838751
6.49833,263.431,-0.838771
6.5,263.447,-0.838791
6.50167,263.464,-0.838818
6.50333,263.481,-0.838848
6.505,263.498,-0.838885
6.50667,263.514,-0.838932
6.50833,263.531,-0.838987
6.51,263.548,-0.839053
6.51167,263.564,-0.839113
6.51333,263.581,-0.839166
6.515,263.597,-0.839217
6.51667,263.614,-0.839269
6.51833,263.63,-0.839305
6.52,263.647,-0.839338
6.52167,263.664,-0.839365
6.52333,263.68,-0.839395
6.525,263.697,-0.839423
6.52667,263.713,-0.839452
6.52833,263.73,-0.839486
6.53,263.747,-0.839524
6.53167,263.764,-0.83957
6.53333,263.78,-0.839623
6.535,263.797,-0.839679
6.53667,263.813,-0.839734
6.53833,263.83,-0.83979
6.54,263.847,-0.839849
6.54167,263.863,-0.8399
6.54333,263.88,-0.839946
6.545,263.897,-0.83999
6.54667,263.913,-0.840031
6.54833,263.93,-0.84007
6.55,263.947,-0.840106
6.55167,263.963,-0.840141
6.55333,263.98,-0.840182
6.555,263.996,-0.840225
6.55667,264.013,-0.840269
6.55833,264.03,-0.840307
6.56,264.045,-0.840345
6.56167,264.062,-0.840379
6.56333,264.079,-0.840421
6.565,264.095,-0.840458
6.56667,264.112,-0.840492
6.56833,264.129,-0.840525
6.57,264.146,-0.840546
6.57167,264.162,-0.840563
6.57333,264.179,-0.840578
6.575,264.196,-0.840597
6.57667,264.212,-0.840617
6.57833,264.229,-0.840635
6.58,264.246,-0.840655
6.58167,264.263,-0.840686
6.58333,264.279,-0.840719
6.585,264.295,-0.840749
6.58667,264.313,-0.840783
6.58833,264.329,-0.84081
6.59,264.346,-0.840853
6.59167,264.362,-0.840909
6.59333,264.379,-0.840964
6.595,264.396,-0.841013
6.59667,264.412,-0.841058
6.59833,264.429,-0.841097
6.6,264.445,-0.841131
6.60167,264.462,-0.841161
6.60333,264.479,-0.841186
6.605,264.496,-0.841206
6.60667,264.512,-0.841228
6.60833,264.529,-0.841255
6.61,264.546,-0.841282
6.61167,264.563,-0.841311
6.61333,264.579,-0.841334
6.615,264.596,-0.841354
6.61667,264.612,-0.84137
6.61833,264.629,-0.841391
6.62,264.646,-0.841416
6.62167,264.662,-0.841446
6.62333,264.679,-0.841478
6.625,264.696,-0.84152
6.62667,264.712,-0.841556
6.62833,264.729,-0.841599
6.63,264.746,-0.841637
6.63167,264.763,-0.841675
6.63333,264.779,-0.841724
6.635,264.796,-0.841775
6.63667,264.812,-0.841824
6.63833,264.829,-0.841876
6.64,264.846,-0.841938
6.64167,264.862,-0.84204
6.64333,264.879,-0.842101
6.645,264.896,-0.842164
6.64667,264.912,-0.842221
6.64833,264.929,-0.842267
6.65,264.946,-0.842318
6.65167,264.963,-0.842363
6.65333,264.979,-0.842404
6.655,264.996,-0.842444
6.65667,265.012,-0.84248
6.65833,265.029,-0.842519
6.66,265.046,-0.842557
6.66167,265.063,-0.842586
6.66333,265.079,-0.842611
6.665,265.096,-0.842631
6.66667,265.112,-0.842659
6.66833,265.129,-0.8427
6.67,265.146,-0.842744
6.67167,265.162,-0.842788
6.67333,265.179,-0.842836
6.675,265.196,-0.842888
6.67667,265.212,-0.842938
6.67833,265.229,-0.842994
6.68,265.245,-0.843041
6.68167,265.262,-0.843083
6.68333,265.279,-0.843124
6.685,265.296,-0.843158
6.68667,265.312,-0.843186
6.68833,265.329,-0.843208
6.69,265.345,-0.843237
6.69167,265.362,-0.843266
6.69333,265.379,-0.8433
6.695,265.395,-0.843341
6.69667,265.412,-0.843389
6.69833,265.429,-0.843436
6.7,265.445,-0.843485
6.70167,265.462,-0.843534
6.70333,265.479,-0.843574
6.705,265.495,-0.843607
6.70667,265.512,-0.843629
6.70833,265.528,-0.843648
6.71,265.545,-0.843665
6.71167,265.562,-0.84368
6.71333,265.578,-0.843698
6.715,265.595,-0.843719
6.71667,265.611,-0.843746
6.71833,265.628,-0.843775
6.72,265.645,-0.843815
6.72167,265.662,-0.843851
6.72333,265.679,-0.843889
6.725,265.696,-0.843925
6.72667,265.712,-0.843959
6.72833,265.729,-0.843993
6.73,265.746,-0.844021
6.73167,265.762,-0.844041
6.73333,265.779,-0.84405
6.735,265.795,-0.844049
6.73667,265.812,-0.844048
6.73833,265.829,-0.844056
6.74,265.845,-0.844065
6.74167,265.862,-0.844079
6.74333,265.878,-0.844103
6.745,265.895,-0.844141
6.74667,265.911,-0.844189
6.74833,265.928,-0.844236
6.75,265.945,-0.84429
6.75167,265.962,-0.844376
6.75333,265.978,-0.844471
6.755,265.995,-0.844542
6.75667,266.012,-0.844596
6.75833,266.028,-0.844644
6.76,266.045,-0.844678
6.76167,266.061,-0.844705
6.76333,266.078,-0.844737
6.765,266.095,-0.844775
6.76667,266.112,-0.844807
6.76833,266.128,-0.844839
6.77,266.145,-0.844885
6.77167,266.161,-0.844928
6.77333,266.178,-0.844966
6.775,266.195,-0.844998
6.77667,266.211,-0.84503
6.77833,266.228,-0.845061
6.78,266.244,-0.845087
6.78167,266.261,-0.84511
6.78333,266.278,-0.845134
6.785,266.294,-0.845155
6.78667,266.311,-0.845179
6.78833,266.328,-0.845204
6.79,266.345,-0.845223
6.79167,266.361,-0.84525
6.79333,266.378,-0.845281
6.795,266.394,-0.845317
6.79667,266.411,-0.845358
6.79833,266.428,-0.845403
6.8,266.445,-0.845446
6.80167,266.461,-0.845488
6.80333,266.478,-0.845526
6.805,266.494,-0.845564
6.80667,266.511,-0.845596
6.80833,266.528,-0.845622
6.81,266.544,-0.845651
6.81167,266.561,-0.845686
6.81333,266.577,-0.845718
6.815,266.594,-0.845754
6.81667,266.611,-0.84579
6.81833,266.627,-0.845823
6.82,266.644,-0.845857
6.82167,266.661,-0.845882
6.82333,266.677,-0.845901
6.825,266.694,-0.845917
6.82667,266.71,-0.845935
6.82833,266.727,-0.845953
6.83,266.744,-0.84596
6.83167,266.76,-0.845969
6.83333,266.777,-0.845981
6.835,266.793,-0.845981
6.83667,266.811,-0.84597
6.83833,266.827,-0.845962
6.84,266.844,-0.845954
6.84167,266.86,-0.845949
6.84333,266.877,-0.845954
6.845,266.894,-0.845972
6.84667,266.91,-0.846005
6.84833,266.927,-0.846038
6.85,266.943,-0.846083
6.85167,266.96,-0.846186
6.85333,266.976,-0.846381
6.855,266.993,-0.846467
6.85667,267.01,-0.846534
6.85833,267.027,-0.846587
6.86,267.043,-0.846632
6.86167,267.06,-0.846659
6.86333,267.077,-0.84667
6.865,267.093,-0.846668
6.86667,267.11,-0.846658
6.86833,267.127,-0.846644
6.87,267.143,-0.846636
6.87167,267.16,-0.846642
6.87333,267.176,-0.846641
6.875,267.193,-0.846652
6.87667,267.21,-0.846671
6.87833,267.226,-0.846705
6.88,267.243,-0.84675
6.88167,267.26,-0.846793
6.88333,267.277,-0.846835
6.885,267.293,-0.846873
6.88667,267.31,-0.846912
6.88833,267.327,-0.846951
6.89,267.343,-0.846983
6.89167,267.36,-0.847006
6.89333,267.376,-0.847032
6.895,267.393,-0.847057
6.89667,267.409,-0.847086
6.89833,267.426,-0.847116
6.9,267.443,-0.84715
6.90167,267.459,-0.847183
6.90333,267.476,-0.847211
6.905,267.493,-0.847235
6.90667,267.51,-0.847266
6.90833,267.526,-0.847296
6.91,267.543,-0.847326
6.91167,267.559,-0.84736
6.91333,267.576,-0.847394
6.915,267.593,-0.847424
6.91667,267.609,-0.847459
6.91833,267.626,-0.847495
6.92,267.643,-0.847535
6.92167,267.659,-0.847569
6.92333,267.676,-0.847592
6.925,267.692,-0.847609
6.92667,267.709,-0.847622
6.92833,267.725,-0.847633
6.93,267.742,-0.847643
6.93167,267.759,-0.847651
6.93333,267.775,-0.847654
6.935,267.792,-0.847665
6.93667,267.809,-0.847687
6.93833,267.825,-0.847711
6.94,267.842,-0.847743
6.94167,267.858,-0.847772
6.94333,267.875,-0.847798
6.945,267.892,-0.847829
6.94667,267.909,-0.847853
6.94833,267.926,-0.84787
6.95,267.942,-0.847879
6.95167,267.959,-0.847894
6.95333,267.975,-0.847908
6.955,267.992,-0.847928
6.95667,268.008,-0.847951
6.95833,268.025,-0.847984
6.96,268.041,-0.84803
6.96167,268.058,-0.848075
6.96333,268.075,-0.848124
6.965,268.091,-0.84817
6.96667,268.108,-0.848204
6.96833,268.124,-0.848228
6.97,268.141,-0.848256
6.97167,268.158,-0.848286
6.97333,268.174,-0.848312
6.975,268.191,-0.848326
6.97667,268.208,-0.848348
6.97833,268.224,-0.848378
6.98,268.241,-0.848399
6.98167,268.258,-0.848418
6.98333,268.275,-0.848439
6.985,268.291,-0.848454
6.98667,268.308,-0.848471
6.98833,268.325,-0.848497
6.99,268.341,-0.848533
6.99167,268.358,-0.848565
6.99333,268.375,-0.848601
6.995,268.391,-0.848633
6.99667,268.408,-0.848665
6.99833,268.425,-0.848694
7,268.441,-0.848724
7.00167,268.457,-0.848757
7.00333,268.474,-0.848787
7.005,268.491,-0.84881
7.00667,268.507,-0.84883
7.00833,268.524,-0.848839
7.01,268.541,-0.848843
7.01167,268.558,-0.848844
7.01333,268.574,-0.848838
7.015,268.59,-0.848831
7.01667,268.607,-0.848833
7.01833,268.624,-0.848834
7.02,268.64,-0.848853
7.02167,268.657,-0.848868
7.02333,268.674,-0.848887
7.025,268.69,-0.848918
7.02667,268.707,-0.848958
7.02833,268.724,-0.848995
7.03,268.74,-0.849037
7.03167,268.757,-0.849074
7.03333,268.773,-0.849112
7.035,268.79,-0.849162
7.03667,268.807,-0.849217
7.03833,268.823,-0.849279
7.04,268.84,-0.84934
7.04167,268.857,-0.849398
7.04333,268.874,-0.849441
7.045,268.89,-0.849483
7.04667,268.907,-0.849527
7.04833,268.923,-0.849567
7.05,268.94,-0.8496
7.05167,268.956,-0.849625
7.05333,268.973,-0.849648
7.055,268.99,-0.849656
7.05667,269.006,-0.849657
7.05833,269.022,-0.849668
7.06,269.039,-0.849679
7.06167,269.056,-0.849696
7.06333,269.073,-0.849726
7.065,269.09,-0.849759
7.06667,269.107,-0.849789
7.06833,269.123,-0.849821
7.07,269.139,-0.849854
7.07167,269.156,-0.849877
7.07333,269.173,-0.849897
7.075,269.19,-0.84992
7.07667,269.206,-0.849939
7.07833,269.223,-0.849956
7.08,269.24,-0.849972
7.08167,269.257,-0.849994
7.08333,269.274,-0.850026
7.085,269.29,-0.850054
7.08667,269.306,-0.85008
7.08833,269.323,-0.850106
7.09,269.34,-0.850124
7.09167,269.356,-0.850142
7.09333,269.373,-0.850163
7.095,269.389,-0.850177
7.09667,269.406,-0.850193
7.09833,269.422,-0.850211
7.1,269.439,-0.850236
7.10167,269.456,-0.850264
7.10333,269.472,-0.850294
7.105,269.489,-0.85032
7.10667,269.506,-0.850358
7.10833,269.522,-0.8504
7.11,269.539,-0.850445
7.11167,269.556,-0.850487
7.11333,269.572,-0.850531
7.115,269.589,-0.850579
7.11667,269.606,-0.85063
7.11833,269.622,-0.850678
7.12,269.639,-0.850721
7.12167,269.655,-0.850757
7.12333,269.672,-0.850785
7.125,269.689,-0.850807
7.12667,269.705,-0.85083
7.12833,269.722,-0.850856
7.13,269.739,-0.850881
7.13167,269.755,-0.850902
7.13333,269.772,-0.850927
7.135,269.789,-0.85096
7.13667,269.805,-0.850996
7.13833,269.822,-0.851033
7.14,269.839,-0.851068
7.14167,269.855,-0.851101
7.14333,269.872,-0.851126
7.145,269.888,-0.851141
7.14667,269.905,-0.851151
7.14833,269.922,-0.851166
7.15,269.938,-0.851172
7.15167,269.955,-0.851176
7.15333,269.971,-0.851185
7.155,269.988,-0.85119
7.15667,270.004,-0.851199
7.15833,270.021,-0.851211
7.16,270.038,-0.851232
7.16167,270.055,-0.851262
7.16333,270.071,-0.851291
7.165,270.088,-0.851331
7.16667,270.104,-0.851372
7.16833,270.121,-0.851417
7.17,270.138,-0.851458
7.17167,270.154,-0.851495
7.17333,270.171,-0.851525
7.175,270.188,-0.851541
7.17667,270.204,-0.851552
7.17833,270.221,-0.851561
7.18,270.238,-0.85157
7.18167,270.254,-0.851574
7.18333,270.271,-0.851582
7.185,270.288,-0.851601
7.18667,270.304,-0.851633
7.18833,270.321,-0.851672
7.19,270.338,-0.851718
7.19167,270.354,-0.85177
7.19333,270.371,-0.851819
7.195,270.388,-0.851866
7.19667,270.404,-0.851907
7.19833,270.421,-0.851945
7.2,270.438,-0.851967
7.20167,270.454,-0.85198
7.20333,270.471,-0.851988
7.205,270.488,-0.851994
7.20667,270.504,-0.852001
7.20833,270.521,-0.852009
7.21,270.537,-0.852018
7.21167,270.554,-0.852026
7.21333,270.571,-0.852038
7.215,270.587,-0.852048
7.21667,270.604,-0.852061
7.21833,270.621,-0.852073
7.22,270.637,-0.852091
7.22167,270.654,-0.85211
7.22333,270.67,-0.852131
7.225,270.687,-0.852161
7.22667,270.704,-0.852191
7.22833,270.72,-0.852221
7.23,270.737,-0.852248
7.23167,270.754,-0.852277
7.23333,270.771,-0.852297
7.235,270.787,-0.852317
7.23667,270.804,-0.852331
7.23833,270.821,-0.852342
7.24,270.837,-0.852359
7.24167,270.854,-0.852379
7.24333,270.871,-0.852409
7.245,270.887,-0.852453
7.24667,270.904,-0.852495
7.24833,270.92,-0.852544
7.25,270.937,-0.852592
7.25167,270.953,-0.852654
7.25333,270.97,-0.852738
7.255,270.987,-0.852792
7.25667,271.003,-0.852838
7.25833,271.02,-0.852878
7.26,271.037,-0.852915
7.26167,271.053,-0.852945
7.26333,271.07,-0.852972
7.265,271.087,-0.852994
7.26667,271.103,-0.853022
7.26833,271.12,-0.853047
7.27,271.137,-0.853069
7.27167,271.154,-0.853098
7.27333,271.17,-0.853126
7.275,271.187,-0.85316
7.27667,271.204,-0.853204
7.27833,271.221,-0.853249
7.28,271.237,-0.853292
7.28167,271.253,-0.85333
7.28333,271.27,-0.853375
7.285,271.287,-0.853422
7.28667,271.303,-0.853465
7.28833,271.32,-0.853499
7.29,271.336,-0.853534
7.29167,271.353,-0.853559
7.29333,271.37,-0.853591
7.295,271.387,-0.853623
7.29667,271.404,-0.853652
7.29833,271.421,-0.853682
7.3,271.437,-0.853711
7.30167,271.454,-0.85374
7.30333,271.47,-0.853765
7.305,271.487,-0.853787
7.30667,271.504,-0.853811
7.30833,271.52,-0.853835
7.31,271.537,-0.853855
7.31167,271.553,-0.85388
7.31333,271.57,-0.8539
7.315,271.586,-0.853921
7.31667,271.603,-0.853946
7.31833,271.62,-0.853974
7.32,271.636,-0.853994
7.32167,271.653,-0.854014
7.32333,271.67,-0.854032
7.325,271.687,-0.854048
7.32667,271.704,-0.854067
7.32833,271.721,-0.854098
7.33,271.738,-0.85413
7.33167,271.754,-0.854161
7.33333,271.771,-0.854203
7.335,271.788,-0.854251
7.33667,271.804,-0.854301
7.33833,271.821,-0.854354
7.34,271.837,-0.85441
7.34167,271.854,-0.854461
7.34333,271.871,-0.854502
7.345,271.888,-0.854539
7.34667,271.904,-0.854574
7.34833,271.921,-0.854605
7.35,271.937,-0.854622
7.35167,271.954,-0.854638
7.35333,271.971,-0.854654
7.355,271.987,-0.854667
7.35667,272.004,-0.854695
7.35833,272.02,-0.854723
7.36,272.037,-0.854756
7.36167,272.054,-0.854791
7.36333,272.07,-0.854826
7.365,272.087,-0.854862
7.36667,272.104,-0.854892
7.36833,272.12,-0.854919
7.37,272.137,-0.85494
7.37167,272.154,-0.854959
7.37333,272.171,-0.854975
7.375,272.187,-0.854994
7.37667,272.204,-0.855012
7.37833,272.221,-0.855034
7.38,272.237,-0.855065
7.38167,272.254,-0.855099
7.38333,272.271,-0.855137
7.385,272.287,-0.855182
7.38667,272.304,-0.855232
7.38833,272.321,-0.855284
7.39,272.337,-0.85533
7.39167,272.354,-0.855368
7.39333,272.37,-0.855401
7.395,272.387,-0.855424
7.39667,272.404,-0.855442
7.39833,272.42,-0.855455
7.4,272.437,-0.855465
7.40167,272.454,-0.855477
7.40333,272.471,-0.855496
7.405,272.487,-0.855516
7.40667,272.504,-0.85554
7.40833,272.521,-0.855568
7.41,272.537,-0.855587
7.41167,272.554,-0.855614
7.41333,272.57,-0.855644
7.415,272.587,-0.855674
7.41667,272.604,-0.855705
7.41833,272.62,-0.855737
7.42,272.637,-0.855776
7.42167,272.654,-0.855813
7.42333,272.671,-0.855848
7.425,272.688,-0.855884
7.42667,272.704,-0.855924
7.42833,272.721,-0.855955
7.43,272.737,-0.855982
7.43167,272.754,-0.855998
7.43333,272.771,-0.85601
7.435,272.787,-0.856016
7.43667,272.803,-0.856026
7.43833,272.82,-0.856045
7.44,272.837,-0.85606
7.44167,272.853,-0.85608
7.44333,272.87,-0.856108
7.445,272.887,-0.856142
7.44667,272.904,-0.856166
7.44833,272.92,-0.856185
7.45,272.937,-0.856203
7.45167,272.954,-0.856219
7.45333,272.97,-0.856243
7.455,272.987,-0.856266
7.45667,273.004,-0.856291
7.45833,273.02,-0.856318
7.46,273.037,-0.85635
7.46167,273.054,-0.856383
7.46333,273.071,-0.856427
7.465,273.087,-0.856469
7.46667,273.104,-0.856509
7.46833,273.12,-0.856546
7.47,273.137,-0.856575
7.47167,273.154,-0.856602
7.47333,273.17,-0.856623
7.475,273.186,-0.856639
7.47667,273.203,-0.856655
7.47833,273.22,-0.856672
7.48,273.237,-0.856692
7.48167,273.254,-0.856715
7.48333,273.27,-0.856749
7.485,273.287,-0.856779
7.48667,273.304,-0.856812
7.48833,273.32,-0.856837
7.49,273.337,-0.856854
7.49167,273.354,-0.856862
7.49333,273.369,-0.856868
7.495,273.386,-0.856883
7.49667,273.403,-0.8569
7.49833,273.42,-0.856917
7.5,273.437,-0.856947
7.50167,273.453,-0.856988
7.50333,273.47,-0.857029
7.505,273.487,-0.857069
7.50667,273.503,-0.857106
7.50833,273.52,-0.857137
7.51,273.537,-0.857159
7.51167,273.553,-0.857175
7.51333,273.569,-0.857182
7.515,273.586,-0.857179
7.51667,273.603,-0.857179
7.51833,273.62,-0.857186
7.52,273.636,-0.857199
7.52167,273.653,-0.857219
7.52333,273.67,-0.857238
7.525,273.686,-0.857257
7.52667,273.703,-0.857281
7.52833,273.72,-0.857307
7.53,273.736,-0.857334
7.53167,273.753,-0.857372
7.53333,273.77,-0.857404
7.535,273.786,-0.85743
7.53667,273.803,-0.857461
7.53833,273.819,-0.857489
7.54,273.836,-0.857523
7.54167,273.852,-0.857562
7.54333,273.869,-0.857602
7.545,273.886,-0.857638
7.54667,273.902,-0.857671
7.54833,273.919,-0.857704
7.55,273.936,-0.857735
7.55167,273.952,-0.857769
7.55333,273.969,-0.857806
7.555,273.986,-0.857843
7.55667,274.003,-0.857875
7.55833,274.019,-0.857902
7.56,274.036,-0.857934
7.56167,274.053,-0.857956
7.56333,274.069,-0.85797
7.565,274.086,-0.857983
7.56667,274.103,-0.857993
7.56833,274.119,-0.857995
7.57,274.136,-0.857988
7.57167,274.153,-0.85798
7.57333,274.17,-0.857992
7.575,274.186,-0.858006
7.57667,274.202,-0.858022
7.57833,274.219,-0.858046
7.58,274.236,-0.858078
7.58167,274.252,-0.858101
7.58333,274.269,-0.858128
7.585,274.286,-0.858167
7.58667,274.302,-0.858214
7.58833,274.319,-0.858259
7.59,274.336,-0.858303
7.59167,274.352,-0.858348
7.59333,274.369,-0.858391
7.595,274.386,-0.858424
7.59667,274.402,-0.858446
7.59833,274.419,-0.858469
7.6,274.435,-0.858489
7.60167,274.452,-0.858506
7.60333,274.468,-0.858521
7.605,274.485,-0.858538
7.60667,274.502,-0.85855
7.60833,274.519,-0.858569
7.61,274.535,-0.858584
7.61167,274.552,-0.858596
7.61333,274.568,-0.858615
7.615,274.585,-0.858629
7.61667,274.602,-0.858636
7.61833,274.619,-0.858643
7.62,274.636,-0.858657
7.62167,274.652,-0.858682
7.62333,274.668,-0.858711
7.625,274.685,-0.85874
7.62667,274.702,-0.858765
7.62833,274.719,-0.85878
7.63,274.736,-0.858794
7.63167,274.752,-0.858809
7.63333,274.769,-0.858831
7.635,274.786,-0.858853
7.63667,274.802,-0.858873
7.63833,274.819,-0.858893
7.64,274.835,-0.858915
7.64167,274.852,-0.858943
7.64333,274.869,-0.858966
7.645,274.885,-0.858995
7.64667,274.902,-0.859014
7.64833,274.918,-0.859033
7.65,274.935,-0.859052
7.65167,274.952,-0.859079
7.65333,274.968,-0.859113
7.655,274.985,-0.859151
7.65667,275.002,-0.859186
7.65833,275.019,-0.859229
7.66,275.035,-0.859268
7.66167,275.052,-0.859306
7.66333,275.068,-0.859346
7.665,275.085,-0.85938
7.66667,275.101,-0.859414
7.66833,275.118,-0.859445
7.67,275.134,-0.859482
7.67167,275.151,-0.859511
7.67333,275.168,-0.859535
7.675,275.184,-0.859555
7.67667,275.201,-0.85958
7.67833,275.218,-0.859602
7.68,275.235,-0.859629
7.68167,275.251,-0.859659
7.68333,275.268,-0.859681
7.685,275.285,-0.859702
7.68667,275.301,-0.859723
7.68833,275.318,-0.859745
7.69,275.334,-0.859764
7.69167,275.351,-0.859791
7.69333,275.367,-0.859812
7.695,275.384,-0.859836
7.69667,275.401,-0.859862
7.69833,275.418,-0.859888
7.7,275.434,-0.859925
7.70167,275.451,-0.859965
7.70333,275.468,-0.860002
7.705,275.485,-0.860033
7.70667,275.502,-0.860048
7.70833,275.518,-0.860056
7.71,275.535,-0.860052
7.71167,275.551,-0.86004
7.71333,275.568,-0.860026
7.715,275.584,-0.860017
7.71667,275.601,-0.860016
7.71833,275.617,-0.860014
7.72,275.634,-0.860019
7.72167,275.651,-0.860031
7.72333,275.667,-0.860053
7.725,275.684,-0.860079
7.72667,275.701,-0.860116
7.72833,275.718,-0.860164
7.73,275.734,-0.86021
7.73167,275.75,-0.860253
7.73333,275.767,-0.860291
7.735,275.784,-0.860333
7.73667,275.801,-0.860377
7.73833,275.817,-0.860416
7.74,275.834,-0.860445
7.74167,275.851,-0.860466
7.74333,275.867,-0.860484
7.745,275.884,-0.860492
7.74667,275.901,-0.860504
7.74833,275.917,-0.860515
7.75,275.934,-0.860525
7.75167,275.951,-0.860525
7.75333,275.967,-0.860525
7.755,275.984,-0.860534
7.75667,276.001,-0.860561
7.75833,276.017,-0.860594
7.76,276.034,-0.860632
7.76167,276.05,-0.860672
7.76333,276.067,-0.860716
7.765,276.084,-0.860761
7.76667,276.1,-0.860801
7.76833,276.117,-0.860828
7.77,276.133,-0.860846
7.77167,276.15,-0.86086
7.77333,276.167,-0.860884
7.775,276.184,-0.860921
7.77667,276.2,-0.860953
7.77833,276.217,-0.860983
7.78,276.234,-0.861016
7.78167,276.25,-0.861042
7.78333,276.267,-0.861065
7.785,276.284,-0.861085
7.78667,276.3,-0.861107
7.78833,276.316,-0.861125
7.79,276.333,-0.861151
7.79167,276.35,-0.861184
7.79333,276.367,-0.861214
7.795,276.383,-0.861246
7.79667,276.4,-0.861276
7.79833,276.417,-0.861303
7.8,276.433,-0.861323
7.80167,276.45,-0.861347
7.80333,276.467,-0.86137
7.805,276.483,-0.861391
7.80667,276.5,-0.861406
7.80833,276.516,-0.861428
7.81,276.533,-0.861454
7.81167,276.55,-0.861485
7.81333,276.567,-0.861517
7.815,276.583,-0.861546
7.81667,276.6,-0.861573
7.81833,276.616,-0.861592
7.82,276.633,-0.861618
7.82167,276.65,-0.861648
7.82333,276.667,-0.861672
7.825,276.684,-0.8617
7.82667,276.7,-0.861726
7.82833,276.717,-0.861755
7.83,276.733,-0.861783
7.83167,276.75,-0.861804
7.83333,276.766,-0.861825
7.835,276.783,-0.861841
7.83667,276.799,-0.861853
7.83833,276.816,-0.861861
7.84,276.833,-0.861875
7.84167,276.85,-0.861888
7.84333,276.867,-0.861901
7.845,276.883,-0.861923
7.84667,276.9,-0.861951
7.84833,276.917,-0.861973
7.85,276.933,-0.862002
7.85167,276.95,-0.862039
7.85333,276.966,-0.862071
7.855,276.983,-0.862107
7.85667,276.999,-0.862143
7.85833,277.016,-0.862181
7.86,277.033,-0.862219
7.86167,277.05,-0.862257
7.86333,277.067,-0.862294
7.865,277.083,-0.862324
7.86667,277.1,-0.862352
7.86833,277.116,-0.862378
7.87,277.133,-0.862398
7.87167,277.15,-0.862405
7.87333,277.166,-0.862408
7.875,277.183,-0.862416
7.87667,277.199,-0.862424
7.87833,277.216,-0.862436
7.88,277.233,-0.862453
7.88167,277.249,-0.862472
7.88333,277.266,-0.862498
7.885,277.283,-0.862531
7.88667,277.3,-0.862566
7.88833,277.316,-0.862605
7.89,277.333,-0.862646
7.89167,277.349,-0.86268
7.89333,277.366,-0.862715
7.895,277.383,-0.862745
7.89667,277.4,-0.862772
7.89833,277.417,-0.862797
7.9,277.433,-0.862815
7.90167,277.45,-0.862837
7.90333,277.466,-0.862848
7.905,277.483,-0.862865
7.90667,277.5,-0.862885
7.90833,277.516,-0.862913
7.91,277.533,-0.862939
7.91167,277.55,-0.862971
7.91333,277.566,-0.863001
7.915,277.583,-0.863039
7.91667,277.599,-0.863079
7.91833,277.616,-0.863118
7.92,277.633,-0.863161
7.92167,277.649,-0.863202
7.92333,277.665,-0.863231
7.925,277.682,-0.863253
7.92667,277.699,-0.863276
7.92833,277.716,-0.863292
7.93,277.732,-0.863299
7.93167,277.749,-0.863301
7.93333,277.766,-0.863305
7.935,277.783,-0.863315
7.93667,277.799,-0.863327
7.93833,277.815,-0.863352
7.94,277.832,-0.863385
7.94167,277.849,-0.863424
7.94333,277.865,-0.863458
7.945,277.882,-0.863497
7.94667,277.899,-0.863541
7.94833,277.915,-0.863582
7.95,277.932,-0.863618
7.95167,277.949,-0.863657
7.95333,277.966,-0.863702
7.955,277.983,-0.863747
7.95667,277.999,-0.863796
7.95833,278.016,-0.863837
7.96,278.033,-0.863872
7.96167,278.049,-0.863892
7.96333,278.066,-0.863912
7.965,278.083,-0.863928
7.96667,278.1,-0.863934
7.96833,278.116,-0.863939
7.97,278.133,-0.863946
7.97167,278.149,-0.863953
7.97333,278.166,-0.863965
7.975,278.182,-0.863988
7.97667,278.199,-0.864015
7.97833,278.215,-0.864033
7.98,278.232,-0.86406
7.98167,278.249,-0.864087
7.98333,278.265,-0.864113
7.985,278.282,-0.864143
7.98667,278.299,-0.864176
7.98833,278.316,-0.86421
7.99,278.333,-0.864238
7.99167,278.349,-0.864258
7.99333,278.366,-0.86428
7.995,278.382,-0.864297
7.99667,278.399,-0.86431
7.99833,278.416,-0.864321
8,278.432,-0.864332
8.00167,278.449,-0.864344
8.00333,278.466,-0.864357
8.005,278.482,-0.86437
8.00667,278.499,-0.864391
8.00833,278.516,-0.864412
8.01,278.532,-0.864434
8.01167,278.549,-0.864455
8.01333,278.566,-0.864488
8.015,278.582,-0.864522
8.01667,278.599,-0.864554
8.01833,278.615,-0.864587
8.02,278.632,-0.864623
8.02167,278.649,-0.864663
8.02333,278.665,-0.864706
8.025,278.682,-0.864746
8.02667,278.699,-0.864794
8.02833,278.716,-0.864847
8.03,278.732,-0.864901
8.03167,278.749,-0.864947
8.03333,278.766,-0.864993
8.035,278.782,-0.865037
8.03667,278.799,-0.865068
8.03833,278.815,-0.865091
8.04,278.832,-0.865107
8.04167,278.849,-0.865113
8.04333,278.866,-0.865121
8.045,278.882,-0.865125
8.04667,278.899,-0.86513
8.04833,278.915,-0.865133
8.05,278.932,-0.865137
8.05167,278.949,-0.865144
8.05333,278.965,-0.865161
8.055,278.982,-0.865178
8.05667,278.998,-0.865202
8.05833,279.015,-0.865226
8.06,279.032,-0.865244
8.06167,279.048,-0.865261
8.06333,279.065,-0.865276
8.065,279.082,-0.865284
8.06667,279.099,-0.865289
8.06833,279.115,-0.865301
8.07,279.132,-0.865314
8.07167,279.149,-0.865333
8.07333,279.166,-0.865369
8.075,279.182,-0.86541
8.07667,279.199,-0.865474
8.07833,279.215,-0.86555
8.08,279.232,-0.86564
8.08167,279.248,-0.865733
8.08333,279.265,-0.865827
8.085,279.282,-0.865881
8.08667,279.299,-0.865929
8.08833,279.315,-0.865963
8.09,279.332,-0.86599
8.09167,279.348,-0.866003
8.09333,279.365,-0.866005
8.095,279.382,-0.866003
8.09667,279.398,-0.865995
8.09833,279.415,-0.865988
8.1,279.432,-0.865985
8.10167,279.449,-0.865991
8.10333,279.465,-0.866001
8.105,279.482,-0.866011
8.10667,279.499,-0.866017
8.10833,279.516,-0.866025
8.11,279.532,-0.866043
8.11167,279.549,-0.86606
8.11333,279.565,-0.866076
8.115,279.582,-0.866096
8.11667,279.599,-0.866124
8.11833,279.615,-0.866152
8.12,279.632,-0.866189
8.12167,279.648,-0.866223
8.12333,279.665,-0.866262
8.125,279.682,-0.866305
8.12667,279.698,-0.866349
8.12833,279.715,-0.866391
8.13,279.732,-0.866427
8.13167,279.748,-0.86646
8.13333,279.765,-0.866487
8.135,279.782,-0.866507
8.13667,279.798,-0.866527
8.13833,279.815,-0.866549
8.14,279.831,-0.866573
8.14167,279.848,-0.866594
8.14333,279.865,-0.866624
8.145,279.881,-0.866651
8.14667,279.898,-0.866678
8.14833,279.915,-0.866701
8.15,279.932,-0.866725
8.15167,279.948,-0.866748
8.15333,279.965,-0.866771
8.155,279.982,-0.866802
8.15667,279.998,-0.866826
8.15833,280.015,-0.866856
8.16,280.031,-0.866887
8.16167,280.048,-0.866919
8.16333,280.065,-0.866942
8.165,280.082,-0.866961
8.16667,280.098,-0.86698
8.16833,280.115,-0.866993
8.17,280.132,-0.867003
8.17167,280.148,-0.867012
8.17333,280.165,-0.867025
8.175,280.182,-0.867035
8.17667,280.199,-0.867041
8.17833,280.215,-0.867038
8.18,280.232,-0.867042
8.18167,280.248,-0.867054
8.18333,280.265,-0.867078
8.185,280.281,-0.867108
8.18667,280.298,-0.867142
8.18833,280.315,-0.867184
8.19,280.331,-0.86723
8.19167,280.348,-0.867277
8.19333,280.365,-0.867323
8.195,280.382,-0.86736
8.19667,280.398,-0.867398
8.19833,280.415,-0.86743
8.2,280.431,-0.86746
8.20167,280.448,-0.867485
8.20333,280.465,-0.867505
8.205,280.482,-0.867531
8.20667,280.498,-0.867568
8.20833,280.515,-0.867608
8.21,280.532,-0.867641
8.21167,280.548,-0.867668
8.21333,280.565,-0.867693
8.215,280.581,-0.867718
8.21667,280.598,-0.867733
8.21833,280.615,-0.867748
8.22,280.631,-0.867757
8.22167,280.648,-0.86776
8.22333,280.665,-0.867763
8.225,280.681,-0.867775
8.22667,280.698,-0.867796
8.22833,280.714,-0.867817
8.23,280.731,-0.867835
8.23167,280.748,-0.867859
8.23333,280.765,-0.867884
8.235,280.781,-0.867912
8.23667,280.798,-0.867938
8.23833,280.814,-0.867965
8.24,280.831,-0.867991
8.24167,280.847,-0.868021
8.24333,280.864,-0.868061
8.245,280.881,-0.868108
8.24667,280.898,-0.868151
8.24833,280.915,-0.868191
8.25,280.931,-0.868233
8.25167,280.948,-0.868277
8.25333,280.965,-0.86832
8.255,280.981,-0.868344
8.25667,280.998,-0.868358
8.25833,281.014,-0.868368
8.26,281.031,-0.86838
8.26167,281.048,-0.868397
8.26333,281.064,-0.868409
8.265,281.081,-0.868418
8.26667,281.098,-0.868426
8.26833,281.114,-0.868447
8.27,281.131,-0.86847
8.27167,281.148,-0.868496
8.27333,281.164,-0.868514
8.275,281.181,-0.868528
8.27667,281.198,-0.868545
8.27833,281.214,-0.868562
8.28,281.231,-0.868583
8.28167,281.248,-0.868598
8.28333,281.264,-0.868609
8.285,281.281,-0.868623
8.28667,281.298,-0.868642
8.28833,281.314,-0.868665
8.29,281.33,-0.868689
8.29167,281.347,-0.868711
8.29333,281.364,-0.868738
8.295,281.38,-0.868757
8.29667,281.397,-0.868769
8.29833,281.414,-0.868781
8.3,281.431,-0.868795
8.30167,281.448,-0.868816
8.30333,281.464,-0.868842
8.305,281.481,-0.868866
8.30667,281.497,-0.868899
8.30833,281.514,-0.868941
8.31,281.53,-0.868999
8.31167,281.548,-0.869071
8.31333,281.564,-0.869163
8.315,281.581,-0.86922
8.31667,281.597,-0.869269
8.31833,281.614,-0.869314
8.32,281.631,-0.869354
8.32167,281.647,-0.869385
8.32333,281.664,-0.869408
8.325,281.68,-0.869424
8.32667,281.697,-0.869439
8.32833,281.714,-0.86945
8.33,281.731,-0.869471
8.33167,281.748,-0.8695
8.33333,281.764,-0.869524
8.335,281.781,-0.869549
8.33667,281.798,-0.869577
8.33833,281.814,-0.869601
8.34,281.831,-0.869618
8.34167,281.847,-0.869633
8.34333,281.864,-0.869645
8.345,281.881,-0.869655
8.34667,281.897,-0.869661
8.34833,281.914,-0.869667
8.35,281.93,-0.869675
8.35167,281.947,-0.869694
8.35333,281.964,-0.869718
8.355,281.98,-0.869747
8.35667,281.997,-0.869779
8.35833,282.014,-0.869815
8.36,282.031,-0.869862
8.36167,282.047,-0.869906
8.36333,282.064,-0.869954
8.365,282.081,-0.870011
8.36667,282.097,-0.870066
8.36833,282.114,-0.870109
8.37,282.13,-0.870152
8.37167,282.147,-0.87019
8.37333,282.163,-0.870221
8.375,282.18,-0.870238
8.37667,282.197,-0.870247
8.37833,282.214,-0.870258
8.38,282.23,-0.870268
8.38167,282.247,-0.870279
8.38333,282.263,-0.87029
8.385,282.28,-0.870309
8.38667,282.297,-0.870324
8.38833,282.314,-0.870335
8.39,282.331,-0.870351
8.39167,282.347,-0.870371
8.39333,282.364,-0.870396
8.395,282.381,-0.870421
8.39667,282.397,-0.870448
8.39833,282.414,-0.870472
8.4,282.43,-0.870499
8.40167,282.447,-0.870519
8.40333,282.463,-0.870541
8.405,282.48,-0.870572
8.40667,282.496,-0.870601
8.40833,282.513,-0.870627
8.41,282.53,-0.870653
8.41167,282.546,-0.870692
8.41333,282.563,-0.870731
8.415,282.58,-0.870768
8.41667,282.596,-0.8708
8.41833,282.613,-0.870823
8.42,282.63,-0.870844
8.42167,282.646,-0.870862
8.42333,282.663,-0.870876
8.425,282.68,-0.870889
8.42667,282.697,-0.870898
8.42833,282.713,-0.870906
8.43,282.73,-0.870919
8.43167,282.747,-0.87094
8.43333,282.763,-0.870964
8.435,282.78,-0.870994
8.43667,282.797,-0.871031
8.43833,282.813,-0.871069
8.44,282.83,-0.871112
8.44167,282.847,-0.871149
8.44333,282.863,-0.871179
8.445,282.88,-0.871204
8.44667,282.897,-0.87123
8.44833,282.914,-0.871261
8.45,282.93,-0.87129
8.45167,282.947,-0.871308
8.45333,282.964,-0.871332
8.455,282.98,-0.87136
8.45667,282.997,-0.871393
8.45833,283.013,-0.871434
8.46,283.03,-0.871478
8.46167,283.047,-0.871518
8.46333,283.063,-0.871561
8.465,283.08,-0.8716
8.46667,283.097,-0.871641
8.46833,283.113,-0.87168
8.47,283.13,-0.871714
8.47167,283.147,-0.871738
8.47333,283.164,-0.871762
8.475,283.18,-0.871784
8.47667,283.197,-0.871806
8.47833,283.214,-0.871823
8.48,283.23,-0.871841
8.48167,283.247,-0.871863
8.48333,283.263,-0.871894
8.485,283.28,-0.871928
8.48667,283.297,-0.871953
8.48833,283.313,-0.871979
8.49,283.33,-0.871999
8.49167,283.347,-0.872019
8.49333,283.363,-0.87204
8.495,283.38,-0.872066
8.49667,283.397,-0.872092
8.49833,283.413,-0.872112
8.5,283.43,-0.872138
8.50167,283.446,-0.872163
8.50333,283.463,-0.8722
8.505,283.48,-0.872228
8.50667,283.497,-0.872255
8.50833,283.513,-0.872287
8.51,283.53,-0.872319
8.51167,283.547,-0.872354
8.51333,283.563,-0.872389
8.515,283.58,-0.872419
8.51667,283.596,-0.872439
8.51833,283.613,-0.872453
8.52,283.63,-0.872457
8.52167,283.647,-0.872464
8.52333,283.663,-0.87247
8.525,283.68,-0.872477
8.52667,283.696,-0.872488
8.52833,283.713,-0.872513
8.53,283.73,-0.872547
8.53167,283.746,-0.872586
8.53333,283.763,-0.87262
8.535,283.78,-0.872651
8.53667,283.797,-0.872683
8.53833,283.813,-0.872717
8.54,283.83,-0.872757
8.54167,283.846,-0.872791
8.54333,283.863,-0.872816
8.545,283.88,-0.87284
8.54667,283.896,-0.872862
8.54833,283.913,-0.872886
8.55,283.93,-0.872908
8.55167,283.946,-0.872927
8.55333,283.963,-0.872947
8.555,283.979,-0.87296
8.55667,283.996,-0.872973
8.55833,284.012,-0.873001
8.56,284.03,-0.873036
8.56167,284.046,-0.873072
8.56333,284.063,-0.873112
8.565,284.079,-0.87315
8.56667,284.096,-0.873201
8.56833,284.113,-0.873258
8.57,284.129,-0.873312
8.57167,284.146,-0.873361
8.57333,284.163,-0.873402
8.575,284.179,-0.873439
8.57667,284.196,-0.873474
8.57833,284.213,-0.87352
8.58,284.23,-0.873579
8.58167,284.247,-0.873637
8.58333,284.263,-0.873698
8.585,284.28,-0.873753
8.58667,284.296,-0.873799
8.58833,284.313,-0.873834
8.59,284.33,-0.873858
8.59167,284.346,-0.873873
8.59333,284.362,-0.873877
8.595,284.379,-0.873879
8.59667,284.396,-0.873881
8.59833,284.413,-0.873886
8.6,284.429,-0.873884
8.60167,284.446,-0.873878
8.60333,284.462,-0.873878
8.605,284.479,-0.873887
8.60667,284.496,-0.873905
8.60833,284.513,-0.873934
8.61,284.529,-0.873975
8.61167,284.546,-0.874018
8.61333,284.562,-0.874065
8.615,284.579,-0.87411
8.61667,284.596,-0.874152
8.61833,284.612,-0.87419
8.62,284.629,-0.874216
8.62167,284.646,-0.874241
8.62333,284.663,-0.87428
8.625,284.679,-0.874314
8.62667,284.696,-0.874346
8.62833,284.713,-0.874392
8.63,284.729,-0.874443
8.63167,284.746,-0.874494
8.63333,284.763,-0.874539
8.635,284.779,-0.874581
8.63667,284.796,-0.874624
8.63833,284.813,-0.874669
8.64,284.829,-0.874704
8.64167,284.846,-0.874728
8.64333,284.862,-0.874745
8.645,284.879,-0.874761
8.64667,284.895,-0.874777
8.64833,284.912,-0.874792
8.65,284.929,-0.87481
8.65167,284.946,-0.874824
8.65333,284.962,-0.874842
8.655,284.979,-0.874864
8.65667,284.996,-0.87489
8.65833,285.013,-0.87492
8.66,285.029,-0.874943
8.66167,285.046,-0.874961
8.66333,285.063,-0.874982
8.665,285.079,-0.875001
8.66667,285.096,-0.875023
8.66833,285.112,-0.875054
8.67,285.129,-0.87508
8.67167,285.145,-0.875109
8.67333,285.162,-0.875137
8.675,285.178,-0.875168
8.67667,285.195,-0.875205
8.67833,285.212,-0.875238
8.68,285.229,-0.875265
8.68167,285.245,-0.875289
8.68333,285.262,-0.875312
8.685,285.278,-0.875336
8.68667,285.295,-0.875364
8.68833,285.312,-0.875379
8.69,285.329,-0.875403
8.69167,285.345,-0.875431
8.69333,285.362,-0.875459
8.695,285.379,-0.875481
8.69667,285.395,-0.875505
8.69833,285.412,-0.875524
8.7,285.428,-0.875546
8.70167,285.445,-0.875571
8.70333,285.462,-0.875596
8.705,285.478,-0.875634
8.70667,285.495,-0.875677
8.70833,285.512,-0.875728
8.71,285.529,-0.875779
8.71167,285.545,-0.875846
8.71333,285.562,-0.875905
8.715,285.578,-0.875957
8.71667,285.595,-0.876001
8.71833,285.612,-0.876041
8.72,285.628,-0.876078
8.72167,285.645,-0.876108
8.72333,285.662,-0.876138
8.725,285.678,-0.876164
8.72667,285.695,-0.876181
8.72833,285.712,-0.876187
8.73,285.728,-0.876191
8.73167,285.745,-0.876203
8.73333,285.761,-0.876214
8.735,285.778,-0.876228
8.73667,285.795,-0.876244
8.73833,285.811,-0.876259
8.74,285.828,-0.876281
8.74167,285.845,-0.876311
8.74333,285.861,-0.876343
8.745,285.878,-0.876379
8.74667,285.895,-0.876422
8.74833,285.911,-0.87647
8.75,285.928,-0.876526
8.75167,285.945,-0.876575
8.75333,285.961,-0.876631
8.755,285.978,-0.876684
8.75667,285.994,-0.876738
8.75833,286.011,-0.876787
8.76,286.027,-0.87683
8.76167,286.044,-0.876874
8.76333,286.061,-0.876915
8.765,286.078,-0.876959
8.76667,286.094,-0.877007
8.76833,286.111,-0.877065
8.77,286.127,-0.877135
8.77167,286.144,-0.877251
8.77333,286.161,-0.877407
8.775,286.177,-0.877501
8.77667,286.194,-0.877564
8.77833,286.211,-0.877618
8.78,286.227,-0.877657
8.78167,286.244,-0.877684
8.78333,286.261,-0.877702
8.785,286.277,-0.877711
8.78667,286.294,-0.877724
8.78833,286.311,-0.877737
8.79,286.327,-0.877753
8.79167,286.344,-0.877778
8.79333,286.361,-0.877807
8.795,286.378,-0.877829
8.79667,286.395,-0.877857
8.79833,286.411,-0.87789
8.8,286.428,-0.877912
8.80167,286.444,-0.877936
8.80333,286.461,-0.877965
8.805,286.477,-0.878
8.80667,286.494,-0.878032
8.80833,286.51,-0.878061
8.81,286.527,-0.878099
8.81167,286.544,-0.878136
8.81333,286.56,-0.878172
8.815,286.577,-0.878212
8.81667,286.593,-0.878255
8.81833,286.61,-0.878296
8.82,286.627,-0.878343
8.82167,286.644,-0.878388
8.82333,286.661,-0.878434
8.825,286.677,-0.878492
8.82667,286.694,-0.878546
8.82833,286.711,-0.878594
8.83,286.727,-0.878645
8.83167,286.744,-0.878691
8.83333,286.761,-0.87874
8.835,286.777,-0.87878
8.83667,286.794,-0.878816
8.83833,286.81,-0.878842
8.84,286.827,-0.878858
8.84167,286.844,-0.878871
8.84333,286.86,-0.878885
8.845,286.877,-0.878905
8.84667,286.894,-0.87892
8.84833,286.91,-0.878949
8.85,286.927,-0.878991
8.85167,286.944,-0.879044
8.85333,286.961,-0.879121
8.855,286.977,-0.879209
8.85667,286.994,-0.879292
8.85833,287.011,-0.879375
8.86,287.027,-0.879431
8.86167,287.044,-0.879481
8.86333,287.061,-0.879527
8.865,287.077,-0.879565
8.86667,287.094,-0.879595
8.86833,287.11,-0.879621
8.87,287.127,-0.879643
8.87167,287.144,-0.879667
8.87333,287.161,-0.879699
8.875,287.177,-0.879735
8.87667,287.194,-0.879776
8.87833,287.21,-0.879819
8.88,287.227,-0.879869
8.88167,287.243,-0.879922
8.88333,287.26,-0.879975
8.885,287.277,-0.880025
8.88667,287.294,-0.880067
8.88833,287.31,-0.880104
8.89,287.327,-0.880138
8.89167,287.344,-0.88018
8.89333,287.361,-0.880213
8.895,287.377,-0.880229
8.89667,287.394,-0.880246
8.89833,287.41,-0.880269
8.9,287.427,-0.880301
8.90167,287.443,-0.880336
8.90333,287.46,-0.880378
8.905,287.477,-0.880424
8.90667,287.493,-0.880469
8.90833,287.51,-0.880512
8.91,287.527,-0.880554
8.91167,287.543,-0.880599
8.91333,287.56,-0.880641
8.915,287.576,-0.880682
8.91667,287.593,-0.88072
8.91833,287.61,-0.880754
8.92,287.626,-0.88079
8.92167,287.643,-0.880823
8.92333,287.66,-0.88086
8.925,287.677,-0.880898
8.92667,287.693,-0.880929
8.92833,287.71,-0.88096
8.93,287.727,-0.880984
8.93167,287.743,-0.881017
8.93333,287.76,-0.881054
8.935,287.777,-0.881092
8.93667,287.794,-0.881142
8.93833,287.81,-0.881185
8.94,287.827,-0.881232
8.94167,287.843,-0.881279
8.94333,287.86,-0.88132
8.945,287.877,-0.881353
8.94667,287.893,-0.881382
8.94833,287.91,-0.881402
8.95,287.927,-0.881415
8.95167,287.943,-0.88143
8.95333,287.96,-0.881461
8.955,287.977,-0.881502
8.95667,287.993,-0.881549
8.95833,288.01,-0.881603
8.96,288.027,-0.881665
8.96167,288.043,-0.881727
8.96333,288.06,-0.881789
8.965,288.077,-0.881849
8.96667,288.093,-0.881904
8.96833,288.109,-0.881955
8.97,288.126,-0.882006
8.97167,288.143,-0.88206
8.97333,288.16,-0.882116
8.975,288.177,-0.882175
8.97667,288.193,-0.882229
8.97833,288.21,-0.882283
8.98,288.227,-0.882336
8.98167,288.243,-0.882382
8.98333,288.26,-0.882428
8.985,288.276,-0.882467
8.98667,288.293,-0.8825
8.98833,288.309,-0.882521
8.99,288.326,-0.882537
8.99167,288.343,-0.88256
8.99333,288.359,-0.882588
8.995,288.376,-0.882614
8.99667,288.393,-0.882656
8.99833,288.409,-0.882693
9,288.426,-0.882737
9.00167,288.442,-0.882779
9.00333,288.459,-0.882825
9.005,288.476,-0.882868
9.00667,288.493,-0.882909
9.00833,288.509,-0.882946
9.01,288.526,-0.882985
9.01167,288.543,-0.883028
9.01333,288.559,-0.883074
9.015,288.576,-0.883127
9.01667,288.593,-0.883191
9.01833,288.61,-0.883297
9.02,288.627,-0.883377
9.02167,288.643,-0.883457
9.02333,288.66,-0.883524
9.025,288.676,-0.883581
9.02667,288.692,-0.883627
9.02833,288.709,-0.883662
9.03,288.726,-0.883682
9.03167,288.742,-0.883693
9.03333,288.759,-0.883706
9.035,288.776,-0.883727
9.03667,288.792,-0.883756
9.03833,288.809,-0.883789
9.04,288.826,-0.883827
9.04167,288.842,-0.883873
9.04333,288.859,-0.883931
9.045,288.876,-0.88399
9.04667,288.893,-0.88405
9.04833,288.909,-0.884112
9.05,288.926,-0.884175
9.05167,288.942,-0.884235
9.05333,288.959,-0.884296
9.055,288.976,-0.884358
9.05667,288.993,-0.884424
9.05833,289.009,-0.884488
9.06,289.025,-0.884549
9.06167,289.042,-0.884606
9.06333,289.059,-0.884651
9.065,289.076,-0.884688
9.06667,289.092,-0.884724
9.06833,289.109,-0.88475
9.07,289.126,-0.884774
9.07167,289.142,-0.884786
9.07333,289.159,-0.884807
9.075,289.175,-0.884828
9.07667,289.192,-0.884849
9.07833,289.209,-0.884868
9.08,289.226,-0.884897
9.08167,289.243,-0.884936
9.08333,289.259,-0.884986
9.085,289.276,-0.885039
9.08667,289.292,-0.885098
9.08833,289.309,-0.885161
9.09,289.325,-0.885247
9.09167,289.342,-0.885426
9.09333,289.359,-0.885602
9.095,289.375,-0.885678
9.09667,289.392,-0.885744
9.09833,289.409,-0.885807
9.1,289.425,-0.885869
9.10167,289.442,-0.88593
9.10333,289.459,-0.885981
9.105,289.476,-0.886022
9.10667,289.492,-0.886059
9.10833,289.509,-0.886094
9.11,289.526,-0.886131
9.11167,289.542,-0.886166
9.11333,289.559,-0.886198
9.115,289.576,-0.886225
9.11667,289.592,-0.88625
9.11833,289.609,-0.886276
9.12,289.626,-0.886303
9.12167,289.642,-0.886334
9.12333,289.659,-0.886366
9.125,289.675,-0.886405
9.12667,289.692,-0.886441
9.12833,289.709,-0.886476
9.13,289.726,-0.88651
9.13167,289.742,-0.886551
9.13333,289.759,-0.886594
9.135,289.776,-0.886642
9.13667,289.792,-0.886682
9.13833,289.809,-0.886723
9.14,289.825,-0.886764
9.14167,289.842,-0.886818
9.14333,289.858,-0.886871
9.145,289.875,-0.886926
9.14667,289.892,-0.886981
9.14833,289.909,-0.887036
9.15,289.925,-0.88709
9.15167,289.942,-0.887142
9.15333,289.959,-0.887187
9.155,289.975,-0.887224
9.15667,289.992,-0.887262
9.15833,290.009,-0.887301
9.16,290.025,-0.887346
9.16167,290.042,-0.887392
9.16333,290.058,-0.88744
9.165,290.075,-0.887501
9.16667,290.091,-0.887566
9.16833,290.108,-0.887639
9.17,290.125,-0.887711
9.17167,290.141,-0.887779
9.17333,290.158,-0.88785
9.175,290.175,-0.887927
9.17667,290.192,-0.887996
9.17833,290.208,-0.888058
9.18,290.225,-0.888108
9.18167,290.242,-0.888158
9.18333,290.258,-0.888208
9.185,290.275,-0.888265
9.18667,290.291,-0.888315
9.18833,290.308,-0.888367
9.19,290.325,-0.888428
9.19167,290.342,-0.888494
9.19333,290.358,-0.88856
9.195,290.375,-0.888619
9.19667,290.391,-0.888683
9.19833,290.408,-0.888732
9.2,290.425,-0.888781
9.20167,290.441,-0.888827
9.20333,290.458,-0.888866
9.205,290.475,-0.888901
9.20667,290.492,-0.888935
9.20833,290.508,-0.888964
9.21,290.525,-0.888998
9.21167,290.541,-0.889037
9.21333,290.558,-0.889081
9.215,290.575,-0.889125
9.21667,290.591,-0.889171
9.21833,290.608,-0.889214
9.22,290.624,-0.889263
9.22167,290.641,-0.889311
9.22333,290.658,-0.889361
9.225,290.675,-0.889409
9.22667,290.691,-0.889451
9.22833,290.708,-0.889499
9.23,290.724,-0.889549
9.23167,290.741,-0.889596
9.23333,290.758,-0.889655
9.235,290.774,-0.889711
9.23667,290.791,-0.889768
9.23833,290.807,-0.889825
9.24,290.824,-0.889875
9.24167,290.841,-0.889918
9.24333,290.858,-0.889967
9.245,290.874,-0.890005
9.24667,290.891,-0.890044
9.24833,290.908,-0.890087
9.25,290.924,-0.890129
9.25167,290.941,-0.890171
9.25333,290.957,-0.89021
9.255,290.974,-0.890257
9.25667,290.991,-0.890317
9.25833,291.007,-0.890379
9.26,291.024,-0.890445
9.26167,291.041,-0.890507
9.26333,291.058,-0.890571
9.265,291.074,-0.890643
9.26667,291.091,-0.890716
9.26833,291.108,-0.890784
9.27,291.125,-0.890847
9.27167,291.141,-0.890897
9.27333,291.158,-0.890939
9.275,291.174,-0.890978
9.27667,291.19,-0.891018
9.27833,291.207,-0.891063
9.28,291.224,-0.891105
9.28167,291.241,-0.891152
9.28333,291.257,-0.891199
9.285,291.274,-0.891251
9.28667,291.291,-0.891301
9.28833,291.308,-0.891347
9.29,291.324,-0.891387
9.29167,291.341,-0.891436
9.29333,291.358,-0.891485
9.295,291.374,-0.891539
9.29667,291.391,-0.891589
9.29833,291.408,-0.891645
9.3,291.424,-0.891709
9.30167,291.441,-0.891773
9.30333,291.458,-0.891845
9.305,291.474,-0.891915
9.30667,291.491,-0.891982
9.30833,291.507,-0.892041
9.31,291.524,-0.892104
9.31167,291.541,-0.89217
9.31333,291.557,-0.892239
9.315,291.574,-0.892307
9.31667,291.591,-0.892374
9.31833,291.607,-0.892438
9.32,291.624,-0.8925
9.32167,291.64,-0.892569
9.32333,291.657,-0.892641
9.325,291.674,-0.892717
9.32667,291.69,-0.892795
9.32833,291.707,-0.892867
9.33,291.724,-0.89294
9.33167,291.741,-0.893009
9.33333,291.757,-0.893068
9.335,291.774,-0.893123
9.33667,291.791,-0.893172
9.33833,291.807,-0.893205
9.34,291.824,-0.893242
9.34167,291.84,-0.893279
9.34333,291.857,-0.893319
9.345,291.874,-0.893364
9.34667,291.89,-0.893416
9.34833,291.907,-0.893467
9.35,291.924,-0.893519
9.35167,291.94,-0.893572
9.35333,291.957,-0.893635
9.355,291.973,-0.893693
9.35667,291.99,-0.893752
9.35833,292.007,-0.893811
9.36,292.023,-0.893871
9.36167,292.04,-0.89393
9.36333,292.056,-0.893988
9.365,292.073,-0.894055
9.36667,292.09,-0.894118
9.36833,292.106,-0.894183
9.37,292.123,-0.894241
9.37167,292.14,-0.894296
9.37333,292.157,-0.894358
9.375,292.173,-0.894417
9.37667,292.19,-0.89448
9.37833,292.207,-0.894535
9.38,292.224,-0.894583
9.38167,292.24,-0.894627
9.38333,292.257,-0.894672
9.385,292.273,-0.894718
9.38667,292.29,-0.894768
9.38833,292.306,-0.89481
9.39,292.323,-0.894853
9.39167,292.339,-0.894903
9.39333,292.356,-0.894955
9.395,292.373,-0.895012
9.39667,292.389,-0.895065
9.39833,292.406,-0.895121
9.4,292.423,-0.89517
9.40167,292.439,-0.895216
9.40333,292.456,-0.895261
9.405,292.473,-0.895309
9.40667,292.489,-0.895346
9.40833,292.506,-0.895378
9.41,292.522,-0.895406
9.41167,292.539,-0.895437
9.41333,292.556,-0.895474
9.415,292.573,-0.895508
9.41667,292.589,-0.89555
9.41833,292.606,-0.895593
9.42,292.623,-0.895644
9.42167,292.639,-0.895701
9.42333,292.656,-0.895774
9.425,292.673,-0.895846
9.42667,292.689,-0.895917
9.42833,292.706,-0.895993
9.43,292.722,-0.896078
9.43167,292.739,-0.896162
9.43333,292.756,-0.896235
9.435,292.772,-0.896294
9.43667,292.789,-0.896344
9.43833,292.806,-0.896396
9.44,292.823,-0.896444
9.44167,292.839,-0.896488
9.44333,292.856,-0.896526
9.445,292.873,-0.896558
9.44667,292.889,-0.896591
9.44833,292.905,-0.896627
9.45,292.922,-0.89667
9.45167,292.939,-0.896725
9.45333,292.956,-0.896787
9.455,292.972,-0.896854
9.45667,292.989,-0.896919
9.45833,293.006,-0.896986
9.46,293.022,-0.897052
9.46167,293.039,-0.89712
9.46333,293.056,-0.897177
9.465,293.072,-0.897225
9.46667,293.089,-0.897262
9.46833,293.106,-0.897296
9.47,293.122,-0.897337
9.47167,293.139,-0.89738
9.47333,293.156,-0.897427
9.475,293.172,-0.897482
9.47667,293.189,-0.89754
9.47833,293.206,-0.897608
9.48,293.222,-0.897673
9.48167,293.239,-0.897739
9.48333,293.256,-0.897806
9.485,293.273,-0.897872
9.48667,293.289,-0.897932
9.48833,293.306,-0.897986
9.49,293.322,-0.898026
9.49167,293.339,-0.898059
9.49333,293.355,-0.898092
9.495,293.372,-0.898119
9.49667,293.389,-0.898143
9.49833,293.405,-0.89816
9.5,293.422,-0.898186
9.50167,293.439,-0.898211
9.50333,293.455,-0.89824
9.505,293.472,-0.89828
9.50667,293.489,-0.898321
9.50833,293.506,-0.89838
9.51,293.522,-0.898442
9.51167,293.539,-0.898506
9.51333,293.555,-0.898574
9.515,293.572,-0.89864
9.51667,293.589,-0.898709
9.51833,293.605,-0.898771
9.52,293.622,-0.898833
9.52167,293.639,-0.898893
9.52333,293.655,-0.898952
9.525,293.672,-0.899006
9.52667,293.689,-0.899063
9.52833,293.705,-0.899125
9.53,293.722,-0.899188
9.53167,293.738,-0.899245
9.53333,293.755,-0.899293
9.535,293.771,-0.899341
9.53667,293.788,-0.899388
9.53833,293.805,-0.899426
9.54,293.822,-0.899462
9.54167,293.838,-0.899495
9.54333,293.855,-0.899527
9.545,293.872,-0.899569
9.54667,293.889,-0.899612
9.54833,293.905,-0.899653
9.55,293.921,-0.899698
9.55167,293.938,-0.899752
9.55333,293.955,-0.899813
9.555,293.971,-0.89988
9.55667,293.988,-0.899951
9.55833,294.005,-0.900016
9.56,294.021,-0.900074
9.56167,294.038,-0.900125
9.56333,294.055,-0.900177
9.565,294.071,-0.900222
9.56667,294.088,-0.90026
9.56833,294.104,-0.900296
9.57,294.121,-0.90033
9.57167,294.138,-0.900372
9.57333,294.155,-0.900422
9.575,294.171,-0.900475
9.57667,294.188,-0.900535
9.57833,294.205,-0.9006
9.58,294.221,-0.900663
9.58167,294.238,-0.900731
9.58333,294.254,-0.900806
9.585,294.271,-0.900876
9.58667,294.288,-0.900945
9.58833,294.305,-0.901013
9.59,294.321,-0.901081
9.59167,294.338,-0.901143
9.59333,294.354,-0.901195
9.595,294.371,-0.901243
9.59667,294.388,-0.901276
9.59833,294.405,-0.901306
9.6,294.421,-0.901324
9.60167,294.438,-0.901345
9.60333,294.454,-0.901366
9.605,294.471,-0.901385
9.60667,294.488,-0.901399
9.60833,294.504,-0.901423
9.61,294.521,-0.901453
9.61167,294.537,-0.901489
9.61333,294.554,-0.901526
9.615,294.571,-0.901571
9.61667,294.587,-0.901623
9.61833,294.604,-0.901676
9.62,294.62,-0.901727
9.62167,294.638,-0.901776
9.62333,294.654,-0.901821
9.625,294.671,-0.901874
9.62667,294.688,-0.901924
9.62833,294.704,-0.901972
9.63,294.721,-0.90201
9.63167,294.738,-0.90205
9.63333,294.755,-0.9021
9.635,294.771,-0.902157
9.63667,294.788,-0.902218
9.63833,294.804,-0.902278
9.64,294.821,-0.902357
9.64167,294.838,-0.902424
9.64333,294.854,-0.90249
9.645,294.871,-0.902548
9.64667,294.887,-0.902596
9.64833,294.904,-0.902641
9.65,294.921,-0.902674
9.65167,294.938,-0.902703
9.65333,294.954,-0.902726
9.655,294.971,-0.902738
9.65667,294.988,-0.902757
9.65833,295.005,-0.902781
9.66,295.021,-0.902807
9.66167,295.038,-0.902839
9.66333,295.055,-0.902872
9.665,295.072,-0.902914
9.66667,295.088,-0.902965
9.66833,295.105,-0.903019
9.67,295.121,-0.903079
9.67167,295.138,-0.903137
9.67333,295.154,-0.903204
9.675,295.171,-0.903261
9.67667,295.187,-0.903317
9.67833,295.204,-0.903371
9.68,295.221,-0.903419
9.68167,295.237,-0.903466
9.68333,295.254,-0.903516
9.685,295.27,-0.90357
9.68667,295.288,-0.903622
9.68833,295.304,-0.90368
9.69,295.321,-0.903738
9.69167,295.338,-0.903798
9.69333,295.354,-0.903862
9.695,295.371,-0.903924
9.69667,295.387,-0.903986
9.69833,295.404,-0.904044
9.7,295.42,-0.904101
9.70167,295.437,-0.904156
9.70333,295.454,-0.904207
9.705,295.47,-0.904252
9.70667,295.487,-0.904292
9.70833,295.503,-0.904329
9.71,295.52,-0.904356
9.71167,295.537,-0.904385
9.71333,295.554,-0.904415
9.715,295.57,-0.904441
9.71667,295.587,-0.904465
9.71833,295.604,-0.904493
9.72,295.62,-0.904519
9.72167,295.637,-0.904561
9.72333,295.654,-0.904605
9.725,295.67,-0.904654
9.72667,295.687,-0.904701
9.72833,295.703,-0.90475
9.73,295.72,-0.904798
9.73167,295.736,-0.904849
9.73333,295.753,-0.904905
9.735,295.77,-0.904952
9.73667,295.786,-0.904996
9.73833,295.803,-0.905037
9.74,295.82,-0.90508
9.74167,295.836,-0.905121
9.74333,295.853,-0.905156
9.745,295.87,-0.905186
9.74667,295.887,-0.90522
9.74833,295.903,-0.905255
9.75,295.919,-0.905288
9.75167,295.936,-0.905324
9.75333,295.953,-0.905361
9.755,295.97,-0.905405
9.75667,295.986,-0.905464
9.75833,296.003,-0.905522
9.76,296.019,-0.90559
9.76167,296.036,-0.905666
9.76333,296.053,-0.905744
9.765,296.07,-0.905858
9.76667,296.086,-0.905935
9.76833,296.103,-0.906001
9.77,296.119,-0.906062
9.77167,296.136,-0.906116
9.77333,296.153,-0.906166
9.775,296.169,-0.906202
9.77667,296.186,-0.90623
9.77833,296.202,-0.906252
9.78,296.219,-0.906269
9.78167,296.236,-0.906281
9.78333,296.253,-0.9063
9.785,296.269,-0.906315
9.78667,296.286,-0.906337
9.78833,296.302,-0.906363
9.79,296.319,-0.906401
9.79167,296.336,-0.906443
9.79333,296.353,-0.906487
9.795,296.369,-0.906534
9.79667,296.386,-0.906585
9.79833,296.403,-0.906641
9.8,296.419,-0.906696
9.80167,296.436,-0.90675
9.80333,296.453,-0.906806
9.805,296.469,-0.906869
9.80667,296.486,-0.906936
9.80833,296.503,-0.906999
9.81,296.519,-0.907055
9.81167,296.536,-0.907102
9.81333,296.553,-0.907139
9.815,296.569,-0.907166
9.81667,296.586,-0.907192
9.81833,296.602,-0.907218
9.82,296.619,-0.907248
9.82167,296.636,-0.907282
9.82333,296.653,-0.907316
9.825,296.669,-0.907358
9.82667,296.686,-0.907409
9.82833,296.703,-0.907467
9.83,296.719,-0.907521
9.83167,296.736,-0.907569
9.83333,296.753,-0.90761
9.835,296.769,-0.90765
9.83667,296.786,-0.907688
9.83833,296.803,-0.907722
9.84,296.819,-0.907751
9.84167,296.836,-0.90778
9.84333,296.852,-0.907802
9.845,296.869,-0.907824
9.84667,296.886,-0.907842
9.84833,296.903,-0.907871
9.85,296.919,-0.907906
9.85167,296.936,-0.907955
9.85333,296.953,-0.908013
9.855,296.969,-0.908073
9.85667,296.986,-0.908155
9.85833,297.003,-0.908281
9.86,297.019,-0.908438
9.86167,297.036,-0.908513
9.86333,297.052,-0.908581
9.865,297.069,-0.908639
9.86667,297.086,-0.9087
9.86833,297.103,-0.908752
9.87,297.119,-0.908793
9.87167,297.136,-0.908829
9.87333,297.153,-0.908859
9.875,297.17,-0.908888
9.87667,297.186,-0.908922
9.87833,297.203,-0.908956
9.88,297.219,-0.908997
9.88167,297.236,-0.909032
9.88333,297.253,-0.909068
9.885,297.269,-0.909108
9.88667,297.286,-0.909158
9.88833,297.302,-0.909209
9.89,297.319,-0.909258
9.89167,297.336,-0.909309
9.89333,297.352,-0.909361
9.895,297.369,-0.909409
9.89667,297.385,-0.909461
9.89833,297.402,-0.909511
9.9,297.419,-0.90956
9.90167,297.435,-0.909614
9.90333,297.452,-0.909656
9.905,297.469,-0.909697
9.90667,297.486,-0.909734
9.90833,297.502,-0.909772
9.91,297.519,-0.909818
9.91167,297.536,-0.909863
9.91333,297.553,-0.909911
9.915,297.569,-0.909956
9.91667,297.586,-0.910011
9.91833,297.603,-0.910067
9.92,297.62,-0.910127
9.92167,297.636,-0.910191
9.92333,297.653,-0.910241
9.925,297.669,-0.91028
9.92667,297.686,-0.910316
9.92833,297.702,-0.910347
9.93,297.719,-0.910377
9.93167,297.736,-0.91041
9.93333,297.752,-0.910442
9.935,297.769,-0.910484
9.93667,297.786,-0.910527
9.93833,297.803,-0.910577
9.94,297.819,-0.91063
9.94167,297.836,-0.910678
9.94333,297.852,-0.910727
9.945,297.869,-0.91078
9.94667,297.885,-0.910835
9.94833,297.902,-0.910878
9.95,297.919,-0.91092
9.95167,297.935,-0.910955
9.95333,297.952,-0.910991
9.955,297.969,-0.911032
9.95667,297.986,-0.911075
9.95833,298.002,-0.911114
9.96,298.019,-0.911155
9.96167,298.035,-0.911199
9.96333,298.052,-0.911242
9.965,298.069,-0.911298
9.96667,298.086,-0.91135
9.96833,298.103,-0.911394
9.97,298.119,-0.911431
9.97167,298.135,-0.911463
9.97333,298.152,-0.911488
9.975,298.169,-0.911516
9.97667,298.185,-0.911541
9.97833,298.202,-0.911568
9.98,298.219,-0.911599
9.98167,298.235,-0.911628
9.98333,298.252,-0.911669
9.985,298.268,-0.911708
9.98667,298.285,-0.911749
9.98833,298.302,-0.911799
9.99,298.319,-0.911853
9.99167,298.335,-0.911905
9.99333,298.352,-0.911964
9.995,298.369,-0.912033
9.99667,298.386,-0.912104
9.99833,298.402,-0.91217
10,298.419,-0.912227
10.0017,298.435,-0.912282
10.0033,298.452,-0.91233
10.005,298.468,-0.912365
10.0067,298.485,-0.912388
10.0083,298.501,-0.912404
10.01,298.518,-0.91241
10.0117,298.535,-0.912419
10.0133,298.552,-0.912437
10.015,298.568,-0.912461
10.0167,298.585,-0.912491
10.0183,298.602,-0.912527
10.02,298.619,-0.912566
10.0217,298.635,-0.912609
10.0233,298.652,-0.912648
10.025,298.669,-0.912691
10.0267,298.685,-0.912741
10.0283,298.702,-0.912784
10.03,298.718,-0.912829
10.0317,298.735,-0.91288
10.0333,298.752,-0.91293
10.035,298.769,-0.912984
10.0367,298.785,-0.913042
10.0383,298.802,-0.913097
10.04,298.819,-0.913157
10.0417,298.835,-0.913215
10.0433,298.852,-0.913265
10.045,298.869,-0.913311
10.0467,298.885,-0.913356
10.0483,298.902,-0.913398
10.05,298.918,-0.91343
10.0517,298.935,-0.913463
10.0533,298.952,-0.913494
10.055,298.968,-0.913524
10.0567,298.985,-0.913564
10.0583,299.002,-0.913605
10.06,299.019,-0.913642
10.0617,299.035,-0.913676
10.0633,299.052,-0.913705
10.065,299.069,-0.913729
10.0667,299.085,-0.913756
10.0683,299.102,-0.913786
10.07,299.119,-0.913824
10.0717,299.135,-0.91386
10.0733,299.152,-0.913896
10.075,299.168,-0.913942
10.0767,299.185,-0.913985
10.0783,299.202,-0.91403
10.08,299.218,-0.914088
10.0817,299.235,-0.914147
10.0833,299.251,-0.914204
10.085,299.268,-0.914261
10.0867,299.285,-0.914319
10.0883,299.302,-0.914378
10.09,299.318,-0.914431
10.0917,299.335,-0.914476
10.0933,299.352,-0.91452
10.095,299.369,-0.914552
10.0967,299.385,-0.914587
10.0983,299.402,-0.914627
10.1,299.418,-0.91467
10.1017,299.435,-0.914716
10.1033,299.452,-0.914758
10.105,299.469,-0.914801
10.1067,299.485,-0.914847
10.1083,299.502,-0.914892
10.11,299.518,-0.914933
10.1117,299.535,-0.914967
10.1133,299.552,-0.914989
10.115,299.568,-0.915005
10.1167,299.585,-0.915019
10.1183,299.602,-0.915038
10.12,299.619,-0.915063
10.1217,299.635,-0.915105
10.1233,299.652,-0.915153
10.125,299.669,-0.915215
10.1267,299.685,-0.915283
10.1283,299.702,-0.915372
10.13,299.718,-0.915469
10.1317,299.735,-0.915535
10.1333,299.751,-0.915602
10.135,299.768,-0.915665
10.1367,299.785,-0.915712
10.1383,299.801,-0.915751
10.14,299.818,-0.915781
10.1417,299.835,-0.915806
10.1433,299.852,-0.915825
10.145,299.868,-0.915852
10.1467,299.885,-0.915886
10.1483,299.902,-0.915919
10.15,299.918,-0.915954
10.1517,299.935,-0.915996
10.1533,299.952,-0.916049
10.155,299.968,-0.916104
10.1567,299.985,-0.916158
10.1583,300.002,-0.916214
10.16,300.018,-0.916276
10.1617,300.035,-0.916346
10.1633,300.052,-0.916405
10.165,300.068,-0.916459
10.1667,300.085,-0.916507
10.1683,300.101,-0.916562
10.17,300.118,-0.91661
10.1717,300.135,-0.916648
10.1733,300.152,-0.916683
10.175,300.169,-0.916719
10.1767,300.185,-0.916755
10.1783,300.202,-0.916796
10.18,300.219,-0.916838
10.1817,300.236,-0.916878
10.1833,300.252,-0.916907
10.185,300.269,-0.916936
10.1867,300.285,-0.916966
10.1883,300.302,-0.916992
10.19,300.319,-0.917006
10.1917,300.335,-0.91702
10.1933,300.352,-0.917034
10.195,300.369,-0.917049
10.1967,300.386,-0.917071
10.1983,300.402,-0.917099
10.2,300.418,-0.91713
10.2017,300.435,-0.917162
10.2033,300.452,-0.917199
10.205,300.469,-0.917243
10.2067,300.485,-0.917291
10.2083,300.502,-0.917343
10.21,300.519,-0.917395
10.2117,300.535,-0.917446
10.2133,300.552,-0.917504
10.215,300.568,-0.917565
10.2167,300.585,-0.917619
10.2183,300.601,-0.917667
10.22,300.618,-0.917707
10.2217,300.635,-0.917741
10.2233,300.652,-0.917774
10.225,300.668,-0.917815
10.2267,300.685,-0.917857
10.2283,300.701,-0.917897
10.23,300.718,-0.917936
10.2317,300.735,-0.917969
10.2333,300.752,-0.918008
10.235,300.768,-0.918046
10.2367,300.785,-0.918083
10.2383,300.801,-0.918125
10.24,300.818,-0.918168
10.2417,300.835,-0.918213
10.2433,300.851,-0.918253
10.245,300.868,-0.918295
10.2467,300.884,-0.918343
10.2483,300.901,-0.91839
10.25,300.918,-0.918431
10.2517,300.934,-0.918471
10.2533,300.951,-0.918514
10.255,300.967,-0.91856
10.2567,300.984,-0.91861
10.2583,301.001,-0.918665
10.26,301.018,-0.918709
10.2617,301.035,-0.918749
10.2633,301.051,-0.918782
10.265,301.068,-0.918815
10.2667,301.084,-0.918851
10.2683,301.1,-0.918887
10.27,301.117,-0.918922
10.2717,301.134,-0.918962
10.2733,301.151,-0.919004
10.275,301.167,-0.919056
10.2767,301.184,-0.919107
10.2783,301.2,-0.919152
10.28,301.217,-0.919191
10.2817,301.233,-0.919223
10.2833,301.251,-0.919253
10.285,301.267,-0.919287
10.2867,301.284,-0.919328
10.2883,301.301,-0.91936
10.29,301.317,-0.91939
10.2917,301.334,-0.919419
10.2933,301.351,-0.919454
10.295,301.367,-0.919492
10.2967,301.384,-0.91954
10.2983,301.401,-0.919587
10.3,301.417,-0.91963
10.3017,301.434,-0.919673
10.3033,301.45,-0.919704
10.305,301.467,-0.919733
10.3067,301.483,-0.919758
10.3083,301.5,-0.919786
10.31,301.516,-0.919806
10.3117,301.533,-0.919824
10.3133,301.55,-0.919847
10.315,301.566,-0.919878
10.3167,301.583,-0.919919
10.3183,301.6,-0.919971
10.32,301.617,-0.920031
10.3217,301.633,-0.920093
10.3233,301.65,-0.920156
10.325,301.666,-0.920219
10.3267,301.683,-0.920282
10.3283,301.7,-0.920342
10.33,301.717,-0.920398
10.3317,301.733,-0.92044
10.3333,301.749,-0.92048
10.335,301.766,-0.920516
10.3367,301.783,-0.920553
10.3383,301.8,-0.920586
10.34,301.816,-0.920629
10.3417,301.833,-0.920672
10.3433,301.85,-0.920713
10.345,301.866,-0.920749
10.3467,301.883,-0.920789
10.3483,301.899,-0.920824
10.35,301.916,-0.920854
10.3517,301.933,-0.920884
10.3533,301.95,-0.920915
10.355,301.966,-0.920949
10.3567,301.983,-0.920979
10.3583,301.999,-0.921001
10.36,302.016,-0.921029
10.3617,302.033,-0.921062
10.3633,302.049,-0.921094
10.365,302.066,-0.921134
10.3667,302.082,-0.921168
10.3683,302.099,-0.921205
10.37,302.116,-0.921246
10.3717,302.132,-0.921291
10.3733,302.149,-0.921333
10.375,302.165,-0.921373
10.3767,302.182,-0.921406
10.3783,302.199,-0.921438
10.38,302.216,-0.921477
10.3817,302.232,-0.921505
10.3833,302.249,-0.921537
10.385,302.266,-0.921575
10.3867,302.283,-0.92162
10.3883,302.299,-0.921669
10.39,302.316,-0.921714
10.3917,302.332,-0.921752
10.3933,302.349,-0.92179
10.395,302.366,-0.921823
10.3967,302.383,-0.921853
10.3983,302.399,-0.921889
10.4,302.416,-0.921929
10.4017,302.432,-0.921978
10.4033,302.449,-0.922029
10.405,302.466,-0.922077
10.4067,302.482,-0.922137
10.4083,302.499,-0.922201
10.41,302.515,-0.922264
10.4117,302.532,-0.922325
10.4133,302.549,-0.922387
10.415,302.565,-0.92244
10.4167,302.582,-0.922492
10.4183,302.599,-0.922548
10.42,302.615,-0.922601
10.4217,302.632,-0.922643
10.4233,302.648,-0.922682
10.425,302.665,-0.922729
10.4267,302.682,-0.922777
10.4283,302.698,-0.922827
10.43,302.715,-0.92287
10.4317,302.732,-0.92291
10.4333,302.749,-0.922958
10.435,302.765,-0.923005
10.4367,302.782,-0.923054
10.4383,302.799,-0.923099
10.44,302.815,-0.923138
10.4417,302.832,-0.923173
10.4433,302.848,-0.923205
10.445,302.865,-0.923242
10.4467,302.881,-0.923283
10.4483,302.898,-0.923323
10.45,302.914,-0.923359
10.4517,302.931,-0.923402
10.4533,302.947,-0.923447
10.455,302.964,-0.923492
10.4567,302.981,-0.923536
10.4583,302.998,-0.923578
10.46,303.014,-0.923612
10.4617,303.031,-0.923638
10.4633,303.048,-0.923666
10.465,303.064,-0.923694
10.4667,303.081,-0.923722
10.4683,303.098,-0.923753
10.47,303.114,-0.923798
10.4717,303.131,-0.923841
10.4733,303.148,-0.923885
10.475,303.164,-0.923931
10.4767,303.181,-0.923973
10.4783,303.198,-0.924018
10.48,303.214,-0.924063
10.4817,303.231,-0.924115
10.4833,303.247,-0.924168
10.485,303.264,-0.924219
10.4867,303.281,-0.924272
10.4883,303.297,-0.924326
10.49,303.314,-0.924368
10.4917,303.331,-0.924409
10.4933,303.348,-0.924447
10.495,303.364,-0.924482
10.4967,303.381,-0.924522
10.4983,303.398,-0.924567
10.5,303.414,-0.924609
10.5017,303.431,-0.924643
10.5033,303.448,-0.924674
10.505,303.464,-0.924699
10.5067,303.481,-0.924724
10.5083,303.497,-0.924751
10.51,303.514,-0.924787
10.5117,303.53,-0.924824
10.5133,303.547,-0.924869
10.515,303.564,-0.924919
10.5167,303.58,-0.924973
10.5183,303.597,-0.925039
10.52,303.613,-0.925101
10.5217,303.63,-0.925151
10.5233,303.647,-0.925196
10.525,303.663,-0.925237
10.5267,303.68,-0.925274
10.5283,303.697,-0.925305
10.53,303.713,-0.925333
10.5317,303.73,-0.925359
10.5333,303.747,-0.925389
10.535,303.763,-0.925416
10.5367,303.78,-0.925449
10.5383,303.797,-0.925499
10.54,303.814,-0.92555
10.5417,303.83,-0.925598
10.5433,303.847,-0.925651
10.545,303.863,-0.925698
10.5467,303.88,-0.925752
10.5483,303.896,-0.925798
10.55,303.913,-0.925836
10.5517,303.93,-0.925875
10.5533,303.946,-0.925916
10.555,303.963,-0.92595
10.5567,303.979,-0.925987
10.5583,303.996,-0.926016
10.56,304.013,-0.926051
10.5617,304.029,-0.92609
10.5633,304.046,-0.926131
10.565,304.063,-0.926176
10.5667,304.079,-0.926226
10.5683,304.096,-0.926284
10.57,304.113,-0.926347
10.5717,304.129,-0.92641
10.5733,304.146,-0.926472
10.575,304.163,-0.926535
10.5767,304.18,-0.926593
10.5783,304.196,-0.926648
10.58,304.213,-0.926696
10.5817,304.229,-0.926744
10.5833,304.246,-0.926777
10.585,304.263,-0.926803
10.5867,304.28,-0.926828
10.5883,304.296,-0.926849
10.59,304.313,-0.926878
10.5917,304.329,-0.926911
10.5933,304.346,-0.926953
10.595,304.362,-0.927006
10.5967,304.379,-0.927067
10.5983,304.396,-0.927133
10.6,304.412,-0.927205
10.6017,304.429,-0.927269
10.6033,304.445,-0.927323
10.605,304.462,-0.927376
10.6067,304.479,-0.927423
10.6083,304.495,-0.927471
10.61,304.512,-0.927512
10.6117,304.529,-0.92756
10.6133,304.545,-0.927609
10.615,304.562,-0.927658
10.6167,304.578,-0.92771
10.6183,304.595,-0.927769
10.62,304.612,-0.927829
10.6217,304.629,-0.927889
10.6233,304.645,-0.927946
10.625,304.662,-0.927996
10.6267,304.679,-0.928045
10.6283,304.695,-0.928091
10.63,304.712,-0.928137
10.6317,304.729,-0.928172
10.6333,304.745,-0.928202
10.635,304.762,-0.928222
10.6367,304.778,-0.92824
10.6383,304.795,-0.928269
10.64,304.812,-0.928301
10.6417,304.828,-0.928334
10.6433,304.845,-0.928368
10.645,304.862,-0.928409
10.6467,304.879,-0.928458
10.6483,304.895,-0.928509
10.65,304.912,-0.928564
10.6517,304.928,-0.928614
10.6533,304.945,-0.928666
10.655,304.961,-0.928722
10.6567,304.978,-0.928786
10.6583,304.995,-0.928847
10.66,305.012,-0.928904
10.6617,305.028,-0.928959
10.6633,305.045,-0.929016
10.665,305.062,-0.92908
10.6667,305.079,-0.929141
10.6683,305.095,-0.929198
10.67,305.112,-0.929249
10.6717,305.129,-0.929294
10.6733,305.145,-0.929339
10.675,305.162,-0.929377
10.6767,305.179,-0.929408
10.6783,305.195,-0.929434
10.68,305.212,-0.92945
10.6817,305.228,-0.929462
10.6833,305.245,-0.929481
10.685,305.261,-0.929506
10.6867,305.278,-0.929536
10.6883,305.294,-0.92957
10.69,305.311,-0.929606
10.6917,305.328,-0.929649
10.6933,305.345,-0.929688
10.695,305.361,-0.929732
10.6967,305.378,-0.92979
10.6983,305.395,-0.929847
10.7,305.411,-0.929908
10.7017,305.428,-0.929968
10.7033,305.445,-0.930028
10.705,305.461,-0.930077
10.7067,305.478,-0.930128
10.7083,305.495,-0.930179
10.71,305.511,-0.930235
10.7117,305.528,-0.93029
10.7133,305.545,-0.930347
10.715,305.561,-0.930416
10.7167,305.578,-0.930491
10.7183,305.595,-0.930565
10.72,305.611,-0.930638
10.7217,305.628,-0.930726
10.7233,305.644,-0.9308
10.725,305.661,-0.93087
10.7267,305.677,-0.930942
10.7283,305.694,-0.931016
10.73,305.711,-0.93109
10.7317,305.728,-0.931162
10.7333,305.744,-0.93122
10.735,305.761,-0.93126
10.7367,305.777,-0.931297
10.7383,305.794,-0.931326
10.74,305.811,-0.931352
10.7417,305.827,-0.93137
10.7433,305.844,-0.93138
10.745,305.861,-0.931392
10.7467,305.877,-0.93141
10.7483,305.894,-0.931435
10.75,305.911,-0.931456
10.7517,305.927,-0.931477
10.7533,305.944,-0.931501
10.755,305.96,-0.931534
10.7567,305.977,-0.931566
10.7583,305.994,-0.931608
10.76,306.01,-0.931655
10.7617,306.027,-0.931701
10.7633,306.043,-0.931756
10.765,306.06,-0.931824
10.7667,306.077,-0.931896
10.7683,306.093,-0.931973
10.77,306.11,-0.932045
10.7717,306.127,-0.932112
10.7733,306.144,-0.932176
10.775,306.16,-0.932236
10.7767,306.176,-0.932288
10.7783,306.194,-0.932331
10.78,306.21,-0.932365
10.7817,306.227,-0.932388
10.7833,306.243,-0.932402
10.785,306.26,-0.932415
10.7867,306.276,-0.932433
10.7883,306.293,-0.93245
10.79,306.31,-0.932475
10.7917,306.327,-0.932507
10.7933,306.343,-0.932544
10.795,306.36,-0.932576
10.7967,306.377,-0.932612
10.7983,306.393,-0.932657
10.8,306.41,-0.932708
10.8017,306.427,-0.932769
10.8033,306.443,-0.93283
10.805,306.46,-0.932892
10.8067,306.477,-0.932957
10.8083,306.493,-0.93302
10.81,306.51,-0.933092
10.8117,306.527,-0.933155
10.8133,306.544,-0.933209
10.815,306.56,-0.933254
10.8167,306.577,-0.933299
10.8183,306.593,-0.933337
10.82,306.609,-0.933385
10.8217,306.626,-0.933431
10.8233,306.643,-0.933473
10.825,306.66,-0.933521
10.8267,306.676,-0.933568
10.8283,306.693,-0.93362
10.83,306.709,-0.933678
10.8317,306.726,-0.93374
10.8333,306.743,-0.933794
10.835,306.76,-0.933848
10.8367,306.776,-0.933899
10.8383,306.793,-0.933943
10.84,306.81,-0.933979
10.8417,306.827,-0.934023
10.8433,306.843,-0.934074
10.845,306.86,-0.93412
10.8467,306.877,-0.934173
10.8483,306.893,-0.934232
10.85,306.91,-0.934293
10.8517,306.927,-0.934351
10.8533,306.943,-0.934408
10.855,306.96,-0.934465
10.8567,306.977,-0.934517
10.8583,306.993,-0.934562
10.86,307.01,-0.93461
10.8617,307.027,-0.934658
10.8633,307.043,-0.934709
10.865,307.06,-0.934752
10.8667,307.077,-0.934792
10.8683,307.093,-0.934846
10.87,307.11,-0.934911
10.8717,307.127,-0.934981
10.8733,307.143,-0.935044
10.875,307.16,-0.935115
10.8767,307.176,-0.935188
10.8783,307.193,-0.935263
10.88,307.21,-0.935339
10.8817,307.227,-0.935406
10.8833,307.243,-0.935472
10.885,307.26,-0.935539
10.8867,307.277,-0.935601
10.8883,307.293,-0.935643
10.89,307.31,-0.935684
10.8917,307.327,-0.935723
10.8933,307.343,-0.93575
10.895,307.36,-0.935773
10.8967,307.377,-0.935793
10.8983,307.393,-0.935811
10.9,307.41,-0.935836
10.9017,307.427,-0.935865
10.9033,307.444,-0.935893
10.905,307.46,-0.93593
10.9067,307.477,-0.935966
10.9083,307.494,-0.936005
10.91,307.51,-0.936051
10.9117,307.527,-0.936107
10.9133,307.543,-0.936168
10.915,307.56,-0.936232
10.9167,307.577,-0.936303
10.9183,307.593,-0.936395
10.92,307.61,-0.93647
10.9217,307.627,-0.936541
10.9233,307.643,-0.936619
10.925,307.66,-0.9367
10.9267,307.677,-0.936774
10.9283,307.694,-0.936847
10.93,307.71,-0.936914
10.9317,307.727,-0.936982
10.9333,307.744,-0.937054
10.935,307.76,-0.937115
10.9367,307.776,-0.937173
10.9383,307.793,-0.937237
10.94,307.81,-0.937294
10.9417,307.827,-0.93734
10.9433,307.843,-0.937386
10.945,307.86,-0.937433
10.9467,307.877,-0.937475
10.9483,307.893,-0.937521
10.95,307.91,-0.937569
10.9517,307.927,-0.937615
10.9533,307.943,-0.937663
10.955,307.96,-0.937709
10.9567,307.977,-0.937755
10.9583,307.993,-0.93781
10.96,308.01,-0.937862
10.9617,308.027,-0.937911
10.9633,308.043,-0.937963
10.965,308.06,-0.938013
10.9667,308.077,-0.93806
10.9683,308.094,-0.938106
10.97,308.11,-0.938151
10.9717,308.127,-0.938191
10.9733,308.144,-0.938228
10.975,308.16,-0.93826
10.9767,308.177,-0.938295
10.9783,308.194,-0.938322
10.98,308.21,-0.938354
10.9817,308.227,-0.938391
10.9833,308.243,-0.938427
10.985,308.26,-0.938479
10.9867,308.277,-0.938537
10.9883,308.293,-0.938606
10.99,308.31,-0.938714
10.9917,308.327,-0.938818
10.9933,308.343,-0.938966
10.995,308.36,-0.939044
10.9967,308.377,-0.939111
10.9983,308.393,-0.939176
11,308.41,-0.939235
11.0017,308.427,-0.939287
11.0033,308.444,-0.939332
11.005,308.46,-0.939369
11.0067,308.477,-0.939412
11.0083,308.494,-0.939462
11.01,308.51,-0.939511
11.0117,308.527,-0.93956
11.0133,308.543,-0.939598
11.015,308.56,-0.939635
11.0167,308.577,-0.939665
11.0183,308.593,-0.939685
11.02,308.61,-0.939703
11.0217,308.626,-0.939723
11.0233,308.643,-0.93975
11.025,308.66,-0.939781
11.0267,308.676,-0.939817
11.0283,308.693,-0.939864
11.03,308.71,-0.939913
11.0317,308.727,-0.939974
11.0333,308.743,-0.940044
11.035,308.76,-0.940121
11.0367,308.776,-0.940196
11.0383,308.793,-0.940274
11.04,308.81,-0.940378
11.0417,308.826,-0.940456
11.0433,308.843,-0.940545
11.045,308.859,-0.940612
11.0467,308.876,-0.940677
11.0483,308.893,-0.940741
11.05,308.91,-0.940806
11.0517,308.926,-0.940862
11.0533,308.943,-0.940921
11.055,308.96,-0.940978
11.0567,308.977,-0.94104
11.0583,308.993,-0.9411
11.06,309.01,-0.941152
11.0617,309.026,-0.9412
11.0633,309.043,-0.941239
11.065,309.06,-0.941277
11.0667,309.076,-0.941318
11.0683,309.093,-0.941356
11.07,309.11,-0.941388
11.0717,309.127,-0.941409
11.0733,309.143,-0.94143
11.075,309.16,-0.941453
11.0767,309.177,-0.941482
11.0783,309.193,-0.941508
11.08,309.21,-0.941533
11.0817,309.226,-0.94157
11.0833,309.243,-0.941617
11.085,309.26,-0.94167
11.0867,309.276,-0.941724
11.0883,309.293,-0.941778
11.09,309.31,-0.941835
11.0917,309.326,-0.941887
11.0933,309.343,-0.941945
11.095,309.36,-0.942006
11.0967,309.376,-0.942066
11.0983,309.393,-0.942132
11.1,309.41,-0.9422
11.1017,309.426,-0.942287
11.1033,309.443,-0.942354
11.105,309.46,-0.942416
11.1067,309.477,-0.942473
11.1083,309.493,-0.942534
11.11,309.51,-0.942587
11.1117,309.526,-0.942635
11.1133,309.544,-0.942676
11.115,309.56,-0.942708
11.1167,309.577,-0.942754
11.1183,309.593,-0.942808
11.12,309.61,-0.94286
11.1217,309.627,-0.942915
11.1233,309.643,-0.942978
11.125,309.66,-0.94305
11.1267,309.677,-0.94312
11.1283,309.694,-0.943194
11.13,309.71,-0.943262
11.1317,309.727,-0.943324
11.1333,309.743,-0.943387
11.135,309.76,-0.943451
11.1367,309.776,-0.943509
11.1383,309.793,-0.943566
11.14,309.81,-0.943619
11.1417,309.826,-0.943666
11.1433,309.843,-0.943709
11.145,309.859,-0.943737
11.1467,309.876,-0.943762
11.1483,309.893,-0.943784
11.15,309.91,-0.943799
11.1517,309.926,-0.943823
11.1533,309.943,-0.943845
11.155,309.96,-0.943867
11.1567,309.976,-0.943895
11.1583,309.993,-0.943936
11.16,310.01,-0.943986
11.1617,310.026,-0.944042
11.1633,310.043,-0.94409
11.165,310.06,-0.944142
11.1667,310.076,-0.94419
11.1683,310.093,-0.944239
11.17,310.109,-0.944293
11.1717,310.126,-0.944344
11.1733,310.143,-0.944393
11.175,310.16,-0.944437
11.1767,310.176,-0.944488
11.1783,310.193,-0.944548
11.18,310.209,-0.944613
11.1817,310.226,-0.944678
11.1833,310.243,-0.944732
11.185,310.259,-0.944775
11.1867,310.276,-0.94481
11.1883,310.293,-0.944852
11.19,310.309,-0.94489
11.1917,310.326,-0.944923
11.1933,310.342,-0.944955
11.195,310.359,-0.944979
11.1967,310.376,-0.945009
11.1983,310.392,-0.945054
11.2,310.409,-0.9451
11.2017,310.424,-0.945144
11.2033,310.441,-0.945195
11.205,310.458,-0.945244
11.2067,310.475,-0.945299
11.2083,310.492,-0.945352
11.21,310.509,-0.945408
11.2117,310.525,-0.945456
11.2133,310.542,-0.945497
11.215,310.559,-0.945541
11.2167,310.575,-0.945578
11.2183,310.592,-0.945615
11.22,310.609,-0.945659
11.2217,310.625,-0.945712
11.2233,310.642,-0.945765
11.225,310.658,-0.945822
11.2267,310.675,-0.94588
11.2283,310.692,-0.945938
11.23,310.708,-0.945992
11.2317,310.725,-0.946046
11.2333,310.742,-0.946098
11.235,310.759,-0.946145
11.2367,310.775,-0.946188
11.2383,310.792,-0.946237
11.24,310.809,-0.946295
11.2417,310.826,-0.946354
11.2433,310.842,-0.946416
11.245,310.859,-0.94649
11.2467,310.876,-0.946563
11.2483,310.892,-0.946632
11.25,310.908,-0.946698
11.2517,310.925,-0.946755
11.2533,310.942,-0.946802
11.255,310.958,-0.94684
11.2567,310.975,-0.946877
11.2583,310.991,-0.946914
11.26,311.008,-0.946953
11.2617,311.025,-0.946986
11.2633,311.042,-0.947017
11.265,311.059,-0.947053
11.2667,311.076,-0.947104
11.2683,311.092,-0.947165
11.27,311.109,-0.947233
11.2717,311.125,-0.947307
11.2733,311.142,-0.947425
11.275,311.159,-0.947511
11.2767,311.176,-0.947593
11.2783,311.192,-0.947667
11.28,311.209,-0.947738
11.2817,311.225,-0.947796
11.2833,311.242,-0.947848
11.285,311.259,-0.947898
11.2867,311.275,-0.947932
11.2883,311.292,-0.947964
11.29,311.309,-0.947995
11.2917,311.325,-0.948031
11.2933,311.342,-0.948077
11.295,311.359,-0.948131
11.2967,311.375,-0.948196
11.2983,311.392,-0.948265
11.3,311.409,-0.948337
11.3017,311.425,-0.948415
11.3033,311.442,-0.94849
11.305,311.459,-0.948557
11.3067,311.475,-0.948614
11.3083,311.492,-0.948673
11.31,311.509,-0.948724
11.3117,311.525,-0.948768
11.3133,311.542,-0.94881
11.315,311.559,-0.94886
11.3167,311.575,-0.948913
11.3183,311.592,-0.948971
11.32,311.608,-0.949033
11.3217,311.625,-0.949096
11.3233,311.642,-0.949152
11.325,311.658,-0.949219
11.3267,311.675,-0.9493
11.3283,311.692,-0.949371
11.33,311.709,-0.949435
11.3317,311.725,-0.949495
11.3333,311.742,-0.949555
11.335,311.759,-0.949624
11.3367,311.775,-0.949687
11.3383,311.792,-0.949742
11.34,311.809,-0.9498
11.3417,311.825,-0.949848
11.3433,311.842,-0.949901
11.345,311.859,-0.949953
11.3467,311.876,-0.949995
11.3483,311.892,-0.950023
11.35,311.909,-0.950043
11.3517,311.926,-0.95007
11.3533,311.942,-0.950092
11.355,311.959,-0.950112
11.3567,311.975,-0.950125
11.3583,311.992,-0.950145
11.36,312.009,-0.950167
11.3617,312.026,-0.950195
11.3633,312.042,-0.950233
11.365,312.059,-0.950281
11.3667,312.076,-0.950341
11.3683,312.092,-0.950406
11.37,312.108,-0.950476
11.3717,312.125,-0.950566
11.3733,312.142,-0.950716
11.375,312.158,-0.950836
11.3767,312.175,-0.950922
11.3783,312.191,-0.951016
11.38,312.208,-0.951095
11.3817,312.225,-0.951161
11.3833,312.242,-0.951217
11.385,312.258,-0.951274
11.3867,312.275,-0.951329
11.3883,312.292,-0.951382
11.39,312.309,-0.951432
11.3917,312.325,-0.951492
11.3933,312.342,-0.951556
11.395,312.359,-0.951615
11.3967,312.376,-0.951664
11.3983,312.392,-0.951713
11.4,312.409,-0.951759
11.4017,312.425,-0.951797
11.4033,312.442,-0.951835
11.405,312.458,-0.951884
11.4067,312.475,-0.951933
11.4083,312.492,-0.95198
11.41,312.508,-0.952035
11.4117,312.525,-0.952095
11.4133,312.542,-0.952153
11.415,312.558,-0.952215
11.4167,312.575,-0.952273
11.4183,312.592,-0.952331
11.42,312.609,-0.952387
11.4217,312.625,-0.952445
11.4233,312.642,-0.952505
11.425,312.658,-0.952562
11.4267,312.675,-0.952619
11.4283,312.692,-0.952681
11.43,312.708,-0.952747
11.4317,312.725,-0.952813
11.4333,312.742,-0.952877
11.435,312.758,-0.952942
11.4367,312.775,-0.953006
11.4383,312.792,-0.953069
11.44,312.808,-0.953127
11.4417,312.825,-0.953188
11.4433,312.841,-0.953247
11.445,312.858,-0.953307
11.4467,312.875,-0.953371
11.4483,312.891,-0.953434
11.45,312.908,-0.953504
11.4517,312.924,-0.953567
11.4533,312.941,-0.953628
11.455,312.957,-0.953688
11.4567,312.974,-0.953747
11.4583,312.991,-0.953807
11.46,313.008,-0.953853
11.4617,313.025,-0.953901
11.4633,313.041,-0.953941
11.465,313.058,-0.953988
11.4667,313.075,-0.954041
11.4683,313.091,-0.954093
11.47,313.108,-0.954149
11.4717,313.125,-0.954208
11.4733,313.141,-0.954267
11.475,313.158,-0.954325
11.4767,313.174,-0.954383
11.4783,313.191,-0.954428
11.48,313.208,-0.954474
11.4817,313.224,-0.954516
11.4833,313.241,-0.954562
11.485,313.258,-0.954614
11.4867,313.274,-0.954664
11.4883,313.291,-0.95472
11.49,313.308,-0.954781
11.4917,313.325,-0.954839
11.4933,313.341,-0.954892
11.495,313.358,-0.95494
11.4967,313.374,-0.954994
11.4983,313.391,-0.95505
11.5,313.408,-0.955109
11.5017,313.424,-0.955166
11.5033,313.441,-0.95522
11.505,313.458,-0.955266
11.5067,313.475,-0.955313
11.5083,313.491,-0.95535
11.51,313.508,-0.955384
11.5117,313.524,-0.955412
11.5133,313.541,-0.955441
11.515,313.557,-0.955475
11.5167,313.574,-0.95552
11.5183,313.591,-0.955571
11.52,313.607,-0.955626
11.5217,313.624,-0.955684
11.5233,313.641,-0.955751
11.525,313.657,-0.955824
11.5267,313.674,-0.955896
11.5283,313.691,-0.955976
11.53,313.708,-0.956072
11.5317,313.724,-0.956158
11.5333,313.741,-0.956274
11.535,313.758,-0.956385
11.5367,313.775,-0.95648
11.5383,313.791,-0.956564
11.54,313.808,-0.95664
11.5417,313.824,-0.956714
11.5433,313.841,-0.956784
11.545,313.858,-0.956855
11.5467,313.874,-0.956922
11.5483,313.891,-0.956993
11.55,313.907,-0.957059
11.5517,313.924,-0.957122
11.5533,313.941,-0.957185
11.555,313.957,-0.957247
11.5567,313.974,-0.957311
11.5583,313.991,-0.95738
11.56,314.008,-0.957443
11.5617,314.024,-0.957498
11.5633,314.041,-0.957556
11.565,314.058,-0.957615
11.5667,314.075,-0.957684
11.5683,314.091,-0.957763
11.57,314.108,-0.957843
11.5717,314.124,-0.957921
11.5733,314.141,-0.957995
11.575,314.157,-0.958072
11.5767,314.174,-0.95815
11.5783,314.191,-0.958222
11.58,314.208,-0.958288
11.5817,314.224,-0.958338
11.5833,314.241,-0.958385
11.585,314.258,-0.958429
11.5867,314.274,-0.958479
11.5883,314.291,-0.958534
11.59,314.307,-0.958588
11.5917,314.324,-0.95864
11.5933,314.341,-0.958689
11.595,314.357,-0.958739
11.5967,314.374,-0.958787
11.5983,314.39,-0.958831
11.6,314.407,-0.958869
11.6017,314.423,-0.958911
11.6033,314.44,-0.958957
11.605,314.457,-0.95901
11.6067,314.473,-0.959058
11.6083,314.49,-0.959108
11.61,314.507,-0.959165
11.6117,314.524,-0.95923
11.6133,314.54,-0.959294
11.615,314.557,-0.959367
11.6167,314.573,-0.95943
11.6183,314.59,-0.959498
11.62,314.607,-0.959569
11.6217,314.623,-0.959633
11.6233,314.64,-0.959694
11.625,314.656,-0.959754
11.6267,314.673,-0.959814
11.6283,314.69,-0.959878
11.63,314.706,-0.959942
11.6317,314.723,-0.960001
11.6333,314.74,-0.96007
11.635,314.756,-0.960134
11.6367,314.773,-0.960199
11.6383,314.789,-0.960267
11.64,314.807,-0.960332
11.6417,314.823,-0.960401
11.6433,314.84,-0.960462
11.645,314.857,-0.960528
11.6467,314.873,-0.960592
11.6483,314.89,-0.960646
11.65,314.906,-0.960696
11.6517,314.923,-0.960747
11.6533,314.94,-0.960792
11.655,314.956,-0.960832
11.6567,314.973,-0.960884
11.6583,314.99,-0.960936
11.66,315.007,-0.960992
11.6617,315.023,-0.961047
11.6633,315.039,-0.961106
11.665,315.056,-0.961175
11.6667,315.073,-0.961249
11.6683,315.089,-0.961317
11.67,315.106,-0.961387
11.6717,315.122,-0.961459
11.6733,315.139,-0.961531
11.675,315.155,-0.961597
11.6767,315.172,-0.961667
11.6783,315.189,-0.961736
11.68,315.206,-0.961794
11.6817,315.222,-0.961847
11.6833,315.239,-0.961904
11.685,315.256,-0.961959
11.6867,315.273,-0.96202
11.6883,315.289,-0.962082
11.69,315.306,-0.962151
11.6917,315.322,-0.962224
11.6933,315.339,-0.962296
11.695,315.356,-0.962376
11.6967,315.372,-0.96246
11.6983,315.389,-0.962549
11.7,315.405,-0.962634
11.7017,315.422,-0.962724
11.7033,315.439,-0.962829
11.705,315.455,-0.963002
11.7067,315.472,-0.963095
11.7083,315.489,-0.963185
11.71,315.505,-0.963261
11.7117,315.522,-0.963328
11.7133,315.539,-0.963391
11.715,315.555,-0.963451
11.7167,315.572,-0.963501
11.7183,315.588,-0.963548
11.72,315.605,-0.963589
11.7217,315.622,-0.963636
11.7233,315.638,-0.963692
11.725,315.655,-0.963756
11.7267,315.672,-0.963829
11.7283,315.688,-0.963906
11.73,315.705,-0.96399
11.7317,315.722,-0.964073
11.7333,315.739,-0.964169
11.735,315.755,-0.964258
11.7367,315.772,-0.964344
11.7383,315.788,-0.964421
11.74,315.805,-0.964495
11.7417,315.821,-0.964575
11.7433,315.838,-0.96466
11.745,315.855,-0.964736
11.7467,315.872,-0.964806
11.7483,315.888,-0.964876
11.75,315.905,-0.964948
11.7517,315.922,-0.965015
11.7533,315.938,-0.965085
11.755,315.955,-0.965149
11.7567,315.971,-0.965216
11.7583,315.988,-0.965272
11.76,316.004,-0.96533
11.7617,316.021,-0.965388
11.7633,316.037,-0.965439
11.765,316.054,-0.965489
11.7667,316.071,-0.965541
11.7683,316.087,-0.965604
11.77,316.104,-0.965675
11.7717,316.12,-0.965753
11.7733,316.137,-0.965826
11.775,316.154,-0.965907
11.7767,316.17,-0.965988
11.7783,316.187,-0.966071
11.78,316.204,-0.966154
11.7817,316.221,-0.966238
11.7833,316.237,-0.96632
11.785,316.254,-0.966398
11.7867,316.27,-0.966481
11.7883,316.287,-0.966566
11.79,316.304,-0.966648
11.7917,316.321,-0.966725
11.7933,316.337,-0.966788
11.795,316.354,-0.966846
11.7967,316.37,-0.96691
11.7983,316.387,-0.966975
11.8,316.404,-0.967046
11.8017,316.42,-0.967125
11.8033,316.436,-0.967207
11.805,316.453,-0.967294
11.8067,316.47,-0.967389
11.8083,316.487,-0.967498
11.81,316.504,-0.967678
11.8117,316.52,-0.967827
11.8133,316.537,-0.967953
11.815,316.553,-0.968069
11.8167,316.57,-0.968162
11.8183,316.586,-0.968244
11.82,316.603,-0.968319
11.8217,316.62,-0.968393
11.8233,316.637,-0.968466
11.825,316.653,-0.968537
11.8267,316.67,-0.968611
11.8283,316.686,-0.968686
11.83,316.703,-0.968769
11.8317,316.719,-0.968862
11.8333,316.736,-0.968961
11.835,316.753,-0.969059
11.8367,316.77,-0.96915
11.8383,316.786,-0.969231
11.84,316.803,-0.969311
11.8417,316.819,-0.969383
11.8433,316.836,-0.969447
11.845,316.853,-0.969508
11.8467,316.869,-0.969574
11.8483,316.886,-0.969642
11.85,316.903,-0.969713
11.8517,316.919,-0.969797
11.8533,316.936,-0.969883
11.855,316.953,-0.969976
11.8567,316.97,-0.970075
11.8583,316.986,-0.970219
11.86,317.003,-0.970317
11.8617,317.02,-0.970417
11.8633,317.036,-0.970512
11.865,317.053,-0.970606
11.8667,317.07,-0.970695
11.8683,317.086,-0.970777
11.87,317.102,-0.97086
11.8717,317.119,-0.970935
11.8733,317.135,-0.970999
11.875,317.152,-0.971058
11.8767,317.168,-0.971112
11.8783,317.185,-0.971159
11.88,317.202,-0.971208
11.8817,317.219,-0.971266
11.8833,317.236,-0.971331
11.885,317.252,-0.971397
11.8867,317.269,-0.971468
11.8883,317.286,-0.971546
11.89,317.302,-0.97163
11.8917,317.319,-0.971727
11.8933,317.336,-0.971883
11.895,317.352,-0.971982
11.8967,317.369,-0.972078
11.8983,317.385,-0.972167
11.9,317.402,-0.972258
11.9017,317.418,-0.97235
11.9033,317.435,-0.972434
11.905,317.452,-0.972511
11.9067,317.468,-0.972589
11.9083,317.485,-0.972664
11.91,317.501,-0.972743
11.9117,317.518,-0.972823
11.9133,317.535,-0.972898
11.915,317.552,-0.972975
11.9167,317.568,-0.973059
11.9183,317.585,-0.973149
11.92,317.601,-0.973245
11.9217,317.618,-0.973342
11.9233,317.635,-0.973451
11.925,317.651,-0.973601
11.9267,317.668,-0.973746
11.9283,317.685,-0.973895
11.93,317.702,-0.97408
11.9317,317.718,-0.974245
11.9333,317.735,-0.974352
11.935,317.751,-0.974469
11.9367,317.768,-0.974572
11.9383,317.785,-0.974671
11.94,317.801,-0.974771
11.9417,317.818,-0.974869
11.9433,317.835,-0.974959
11.945,317.851,-0.975047
11.9467,317.867,-0.975134
11.9483,317.884,-0.975215
11.95,317.901,-0.975294
11.9517,317.918,-0.975373
11.9533,317.934,-0.975457
11.955,317.951,-0.975541
11.9567,317.968,-0.975627
11.9583,317.984,-0.975713
11.96,318.001,-0.975798
11.9617,318.017,-0.975884
11.9633,318.034,-0.975968
11.965,318.051,-0.97605
11.9667,318.067,-0.976128
11.9683,318.084,-0.976206
11.97,318.1,-0.976285
11.9717,318.117,-0.976372
11.9733,318.133,-0.976463
11.975,318.15,-0.976558
11.9767,318.167,-0.976658
11.9783,318.184,-0.976751
11.98,318.2,-0.976841
11.9817,318.217,-0.976937
11.9833,318.234,-0.977032
11.985,318.251,-0.977123
11.9867,318.267,-0.977205
11.9883,318.284,-0.977291
11.99,318.3,-0.977373
11.9917,318.317,-0.977459
11.9933,318.334,-0.977549
11.995,318.35,-0.977644
11.9967,318.367,-0.977739
11.9983,318.384,-0.977835
12,318.4,-0.977941
12.0017,318.417,-0.978075
12.0033,318.434,-0.978189
12.005,318.45,-0.978297
12.0067,318.467,-0.978406
12.0083,318.484,-0.978513
12.01,318.5,-0.978626
12.0117,318.517,-0.978737
12.0133,318.534,-0.978844
12.015,318.551,-0.978948
12.0167,318.567,-0.979051
12.0183,318.583,-0.979152
12.02,318.6,-0.979259
12.0217,318.616,-0.979358
12.0233,318.633,-0.979455
12.025,318.65,-0.979546
12.0267,318.666,-0.979634
12.0283,318.683,-0.979732
12.03,318.7,-0.97983
12.0317,318.717,-0.979929
12.0333,318.733,-0.980037
12.035,318.749,-0.980147
12.0367,318.766,-0.980248
12.0383,318.783,-0.980358
12.04,318.8,-0.980469
12.0417,318.816,-0.980586
12.0433,318.833,-0.980702
12.045,318.849,-0.980813
12.0467,318.866,-0.980925
12.0483,318.883,-0.981032
12.05,318.899,-0.981138
12.0517,318.916,-0.981234
12.0533,318.933,-0.981327
12.055,318.95,-0.981415
12.0567,318.966,-0.981503
12.0583,318.983,-0.981586
12.06,319,-0.981671
12.0617,319.016,-0.981763
12.0633,319.033,-0.981856
12.065,319.049,-0.981961
12.0667,319.066,-0.982073
12.0683,319.083,-0.982246
12.07,319.099,-0.982363
12.0717,319.116,-0.982476
12.0733,319.132,-0.982594
12.075,319.149,-0.982714
12.0767,319.166,-0.982825
12.0783,319.183,-0.98293
12.08,319.199,-0.983038
12.0817,319.216,-0.983152
12.0833,319.233,-0.983268
12.085,319.249,-0.983387
12.0867,319.266,-0.983573
12.0883,319.283,-0.983733
12.09,319.299,-0.983868
12.0917,319.316,-0.984022
12.0933,319.333,-0.984147
12.095,319.349,-0.984272
12.0967,319.366,-0.984394
12.0983,319.383,-0.984513
12.1,319.399,-0.984629
12.1017,319.416,-0.984733
12.1033,319.432,-0.984841
12.105,319.449,-0.984947
12.1067,319.466,-0.985051
12.1083,319.482,-0.985143
12.11,319.499,-0.985231
12.1117,319.516,-0.98532
12.1133,319.532,-0.985415
12.115,319.549,-0.985516
12.1167,319.566,-0.985627
12.1183,319.582,-0.985742
12.12,319.599,-0.985865
12.1217,319.616,-0.986023
12.1233,319.633,-0.986157
12.125,319.649,-0.986277
12.1267,319.666,-0.986381
12.1283,319.683,-0.986483
12.13,319.699,-0.986579
12.1317,319.716,-0.986678
12.1333,319.732,-0.986782
12.135,319.749,-0.986894
12.1367,319.765,-0.987012
12.1383,319.783,-0.987175
12.14,319.799,-0.987354
12.1417,319.815,-0.987695
12.1433,319.832,-0.988019
12.145,319.849,-0.988248
12.1467,319.865,-0.988453
12.1483,319.882,-0.988584
12.15,319.898,-0.988704
12.1517,319.915,-0.988817
12.1533,319.932,-0.988925
12.155,319.948,-0.989034
12.1567,319.965,-0.98914
12.1583,319.982,-0.989243
12.16,319.998,-0.989345
12.1617,320.015,-0.98945
12.1633,320.031,-0.989557
12.165,320.048,-0.98967
12.1667,320.065,-0.989785
12.1683,320.082,-0.989895
12.17,320.099,-0.990006
12.1717,320.115,-0.990122
12.1733,320.132,-0.990273
12.175,320.148,-0.990495
12.1767,320.165,-0.99068
12.1783,320.181,-0.990877
12.18,320.198,-0.99112
12.1817,320.215,-0.991283
12.1833,320.232,-0.991456
12.185,320.248,-0.991646
12.1867,320.265,-0.99181
12.1883,320.282,-0.991943
12.19,320.298,-0.992074
12.1917,320.315,-0.992199
12.1933,320.332,-0.992318
12.195,320.348,-0.992443
12.1967,320.364,-0.992568
12.1983,320.381,-0.992696
12.2,320.398,-0.99282
12.2017,320.414,-0.992947
12.2033,320.431,-0.993072
12.205,320.448,-0.993196
12.2067,320.465,-0.993329
12.2083,320.481,-0.993459
12.21,320.498,-0.993591
12.2117,320.515,-0.993717
12.2133,320.531,-0.993842
12.215,320.548,-0.993981
12.2167,320.565,-0.99422
12.2183,320.581,-0.994457
12.22,320.598,-0.994604
12.2217,320.616,-0.994781
12.2233,320.632,-0.994917
12.225,320.649,-0.99505
12.2267,320.666,-0.995186
12.2283,320.682,-0.995314
12.23,320.699,-0.995429
12.2317,320.715,-0.995544
12.2333,320.732,-0.99566
12.235,320.748,-0.995787
12.2367,320.765,-0.995919
12.2383,320.782,-0.996053
12.24,320.798,-0.996192
12.2417,320.815,-0.996353
12.2433,320.832,-0.99649
12.245,320.849,-0.996645
12.2467,320.865,-0.996835
12.2483,320.881,-0.996975
12.25,320.898,-0.997107
12.2517,320.915,-0.997236
12.2533,320.932,-0.997363
12.255,320.948,-0.997485
12.2567,320.965,-0.997613
12.2583,320.981,-0.997737
12.26,320.998,-0.997872
12.2617,321.015,-0.998016
12.2633,321.031,-0.998156
12.265,321.048,-0.9984
12.2667,321.065,-0.998729
12.2683,321.081,-0.9991
12.27,321.098,-0.999479
12.2717,321.114,-0.99974
12.2733,321.131,-0.999914
12.275,321.148,-1.00005
12.2767,321.164,-1.00021
12.2783,321.181,-1.00033
12.28,321.197,-1.00045
12.2817,321.214,-1.00057
12.2833,321.23,-1.00069
12.285,321.247,-1.00082
12.2867,321.264,-1.00096
12.2883,321.281,-1.00112
12.29,321.297,-1.00141
12.2917,321.314,-1.00167
12.2933,321.331,-1.002
12.295,321.348,-1.00236
12.2967,321.364,-1.00259
12.2983,321.381,-1.00282
12.3,321.397,-1.00296
12.3017,321.413,-1.00309
12.3033,321.43,-1.00322
12.305,321.447,-1.00335
12.3067,321.463,-1.00348
12.3083,321.48,-1.00362
12.31,321.497,-1.00376
12.3117,321.513,-1.00389
12.3133,321.53,-1.00403
12.315,321.547,-1.00417
12.3167,321.563,-1.00431
12.3183,321.58,-1.0045
12.32,321.596,-1.00477
12.3217,321.613,-1.00509
12.3233,321.63,-1.00547
12.325,321.646,-1.00584
12.3267,321.663,-1.00622
12.3283,321.679,-1.00665
12.33,321.696,-1.00715
12.3317,321.713,-1.00751
12.3333,321.73,-1.00769
12.335,321.746,-1.00783
12.3367,321.763,-1.00798
12.3383,321.78,-1.00812
12.34,321.796,-1.00826
12.3417,321.813,-1.0084
12.3433,321.83,-1.00853
12.345,321.846,-1.00867
12.3467,321.862,-1.00884
12.3483,321.879,-1.00911
12.35,321.895,-1.00951
12.3517,321.912,-1.00977
12.3533,321.928,-1.00998
12.355,321.945,-1.0102
12.3567,321.962,-1.01035
12.3583,321.978,-1.0105
12.36,321.995,-1.01064
12.3617,322.012,-1.01079
12.3633,322.028,-1.01092
12.365,322.045,-1.01106
12.3667,322.062,-1.01121
12.3683,322.078,-1.01136
12.37,322.095,-1.01151
12.3717,322.112,-1.01172
12.3733,322.128,-1.01198
12.375,322.145,-1.01234
12.3767,322.161,-1.0128
12.3783,322.178,-1.01336
12.38,322.195,-1.01381
12.3817,322.211,-1.01433
12.3833,322.228,-1.01486
12.385,322.244,-1.0154
12.3867,322.261,-1.01582
12.3883,322.278,-1.0161
12.39,322.295,-1.01631
12.3917,322.311,-1.01653
12.3933,322.328,-1.01675
12.395,322.345,-1.01701
12.3967,322.361,-1.01735
12.3983,322.378,-1.01759
12.4,322.395,-1.01778
12.4017,322.411,-1.01793
12.4033,322.428,-1.01812
12.405,322.444,-1.01846
12.4067,322.461,-1.0187
12.4083,322.478,-1.01891
12.41,322.494,-1.01915
12.4117,322.511,-1.01946
12.4133,322.527,-1.01988
12.415,322.544,-1.02024
12.4167,322.561,-1.02059
12.4183,322.577,-1.0209
12.42,322.594,-1.0211
12.4217,322.611,-1.0213
12.4233,322.627,-1.02157
12.425,322.644,-1.02197
12.4267,322.66,-1.02231
12.4283,322.677,-1.02255
12.43,322.694,-1.02277
12.4317,322.71,-1.02307
12.4333,322.727,-1.02353
12.435,322.743,-1.02404
12.4367,322.76,-1.02462
12.4383,322.777,-1.02512
12.44,322.794,-1.02557
12.4417,322.81,-1.02594
12.4433,322.827,-1.02645
12.445,322.843,-1.02693
12.4467,322.86,-1.02733
12.4483,322.876,-1.02761
12.45,322.893,-1.02791
12.4517,322.91,-1.0283
12.4533,322.926,-1.02902
12.455,322.943,-1.02982
12.4567,322.96,-1.03057
12.4583,322.976,-1.03127
12.46,322.993,-1.03202
12.4617,323.01,-1.03262
12.4633,323.026,-1.03318
12.465,323.043,-1.03361
12.4667,323.06,-1.0339
12.4683,323.076,-1.03411
12.47,323.093,-1.03428
12.4717,323.109,-1.03451
12.4733,323.126,-1.03469
12.475,323.143,-1.03493
12.4767,323.159,-1.03526
12.4783,323.176,-1.03569
12.48,323.193,-1.03617
12.4817,323.209,-1.03686
12.4833,323.226,-1.03766
12.485,323.242,-1.03854
12.4867,323.259,-1.03935
12.4883,323.276,-1.04002
12.49,323.292,-1.04068
12.4917,323.308,-1.04107
12.4933,323.325,-1.04137
12.495,323.342,-1.04173
12.4967,323.358,-1.04189
12.4983,323.375,-1.04202
12.5,323.392,-1.04216
12.5017,323.409,-1.04231
12.5033,323.425,-1.0425
12.505,323.442,-1.04274
12.5067,323.458,-1.04298
12.5083,323.475,-1.04336
12.51,323.491,-1.04372
12.5117,323.508,-1.04407
12.5133,323.525,-1.04463
12.515,323.542,-1.04536
12.5167,323.558,-1.04615
12.5183,323.575,-1.0469
12.52,323.592,-1.04786
12.5217,323.608,-1.04851
12.5233,323.625,-1.04899
12.525,323.641,-1.04958
12.5267,323.658,-1.05042
12.5283,323.674,-1.05117
12.53,323.691,-1.05185
12.5317,323.707,-1.05252
12.5333,323.724,-1.05361
12.535,323.74,-1.0547
12.5367,323.757,-1.05551
12.5383,323.774,-1.05634
12.54,323.79,-1.05695
12.5417,323.807,-1.05741
12.5433,323.823,-1.05769
12.545,323.84,-1.05795
12.5467,323.857,-1.0582
12.5483,323.873,-1.05844
12.55,323.89,-1.05868
12.5517,323.907,-1.05908
12.5533,323.924,-1.05976
12.555,323.94,-1.06047
12.5567,323.957,-1.06115
12.5583,323.974,-1.06199
12.56,323.99,-1.06287
12.5617,324.007,-1.06357
12.5633,324.023,-1.0643
12.565,324.04,-1.06502
12.5667,324.057,-1.0654
12.5683,324.073,-1.06578
12.57,324.09,-1.06612
12.5717,324.106,-1.06656
12.5733,324.123,-1.06707
12.575,324.14,-1.0676
12.5767,324.156,-1.06816
12.5783,324.173,-1.06876
12.58,324.189,-1.06953
12.5817,324.206,-1.07031
12.5833,324.223,-1.07147
12.585,324.239,-1.07273
12.5867,324.256,-1.07444
12.5883,324.272,-1.0763
12.59,324.289,-1.07833
12.5917,324.305,-1.07993
12.5933,324.322,-1.08118
12.595,324.339,-1.08213
12.5967,324.355,-1.08288
12.5983,324.372,-1.08357
12.6,324.389,-1.08418
12.6017,324.405,-1.08479
12.6033,324.421,-1.08576
12.605,324.438,-1.08692
12.6067,324.455,-1.08823
12.6083,324.471,-1.08945
12.61,324.488,-1.09042
12.6117,324.504,-1.09122
12.6133,324.521,-1.09212
12.615,324.538,-1.09285
12.6167,324.555,-1.09349
12.6183,324.571,-1.09403
12.62,324.588,-1.09452
12.6217,324.604,-1.09497
12.6233,324.621,-1.09549
12.625,324.638,-1.09596
12.6267,324.654,-1.09655
12.6283,324.671,-1.09701
12.63,324.687,-1.09764
12.6317,324.704,-1.09845
12.6333,324.721,-1.09922
12.635,324.737,-1.09979
12.6367,324.754,-1.10037
12.6383,324.77,-1.1011
12.64,324.787,-1.10178
12.6417,324.804,-1.10253
12.6433,324.82,-1.10333
12.645,324.837,-1.10417
12.6467,324.854,-1.10512
12.6483,324.87,-1.10621
12.65,324.887,-1.10704
12.6517,324.903,-1.10816
12.6533,324.92,-1.10943
12.655,324.936,-1.11075
12.6567,324.953,-1.11196
12.6583,324.97,-1.11299
12.66,324.986,-1.11413
12.6617,325.003,-1.11547
12.6633,325.019,-1.11669
12.665,325.036,-1.11806
12.6667,325.053,-1.11935
12.6683,325.069,-1.12054
12.67,325.086,-1.12157
12.6717,325.102,-1.12248
12.6733,325.119,-1.12337
12.675,325.135,-1.1241
12.6767,325.152,-1.12486
12.6783,325.169,-1.12568
12.68,325.185,-1.12639
12.6817,325.202,-1.12726
12.6833,325.218,-1.12826
12.685,325.235,-1.12923
12.6867,325.252,-1.13048
12.6883,325.268,-1.13189
12.69,325.285,-1.13304
12.6917,325.302,-1.13442
12.6933,325.318,-1.13547
12.695,325.335,-1.13677
12.6967,325.352,-1.13803
12.6983,325.368,-1.13936
12.7,325.385,-1.14051
12.7017,325.402,-1.14172
12.7033,325.418,-1.14325
12.705,325.434,-1.14525
12.7067,325.451,-1.14743
12.7083,325.467,-1.14959
12.71,325.484,-1.15165
12.7117,325.501,-1.15375
12.7133,325.517,-1.15577
12.715,325.534,-1.15742
12.7167,325.551,-1.15868
12.7183,325.567,-1.15967
12.72,325.584,-1.16059
12.7217,325.6,-1.16133
12.7233,325.617,-1.16209
12.725,325.633,-1.16257
12.7267,325.649,-1.16322
12.7283,325.666,-1.16359
12.73,325.683,-1.16408
12.7317,325.698,-1.16476
12.7333,325.715,-1.16575
12.735,325.731,-1.16683
12.7367,325.748,-1.1682
12.7383,325.765,-1.16998
12.74,325.782,-1.17207
12.7417,325.799,-1.17438
12.7433,325.815,-1.17674
12.745,325.832,-1.17862
12.7467,325.848,-1.18024
12.7483,325.865,-1.18207
12.75,325.881,-1.18382
12.7517,325.898,-1.1857
12.7533,325.914,-1.18735
12.755,325.931,-1.18865
12.7567,325.948,-1.18991
12.7583,325.964,-1.19124
12.76,325.981,-1.19261
12.7617,325.997,-1.19381
12.7633,326.014,-1.19546
12.765,326.03,-1.19705
12.7667,326.047,-1.19894
12.7683,326.064,-1.20079
12.77,326.08,-1.2028
12.7717,326.097,-1.2052
12.7733,326.114,-1.20783
12.775,326.13,-1.20992
12.7767,326.147,-1.21124
12.7783,326.163,-1.2124
12.78,326.18,-1.21329
12.7817,326.196,-1.21406
12.7833,326.213,-1.21493
12.785,326.23,-1.21586
12.7867,326.246,-1.21702
12.7883,326.262,-1.21832
12.79,326.279,-1.22011
12.7917,326.296,-1.22248
12.7933,326.312,-1.22516
12.795,326.329,-1.22741
12.7967,326.346,-1.22942
12.7983,326.362,-1.2315
12.8,326.379,-1.23331
12.8017,326.396,-1.23584
12.8033,326.412,-1.23825
12.805,326.428,-1.24058
12.8067,326.445,-1.24313
12.8083,326.461,-1.24531
12.81,326.478,-1.24824
12.8117,326.494,-1.2516
12.8133,326.511,-1.25427
12.815,326.528,-1.2568
12.8167,326.544,-1.25959
12.8183,326.561,-1.2623
12.82,326.577,-1.26535
12.8217,326.594,-1.26767
12.8233,326.61,-1.26934
12.825,326.627,-1.27135
12.8267,326.643,-1.27293
12.8283,326.66,-1.27537
12.83,326.676,-1.27797
12.8317,326.693,-1.27994
12.8333,326.71,-1.2821
12.835,326.726,-1.28514
12.8367,326.743,-1.28804
12.8383,326.759,-1.29151
12.84,326.776,-1.29311
12.8417,326.792,-1.29513
12.8433,326.809,-1.29701
12.845,326.825,-1.29906
12.8467,326.842,-1.30144
12.8483,326.858,-1.30322
12.85,326.875,-1.3057
12.8517,326.891,-1.30838
12.8533,326.908,-1.31065
12.855,326.924,-1.31319
12.8567,326.941,-1.31613
12.8583,326.957,-1.31865
12.86,326.974,-1.32095
12.8617,326.991,-1.32319
12.8633,327.007,-1.32537
12.865,327.024,-1.32704
12.8667,327.04,-1.32913
12.8683,327.057,-1.33176
12.87,327.073,-1.33492
12.8717,327.09,-1.33781
12.8733,327.106,-1.34107
12.875,327.122,-1.34496
12.8767,327.139,-1.34857
12.8783,327.155,-1.35221
12.88,327.171,-1.35598
12.8817,327.188,-1.35928
12.8833,327.205,-1.36138
12.885,327.221,-1.3642
12.8867,327.237,-1.36683
12.8883,327.254,-1.37081
12.89,327.27,-1.37517
12.8917,327.287,-1.37785
12.8933,327.303,-1.38079
12.895,327.32,-1.3854
12.8967,327.337,-1.38824
12.8983,327.353,-1.39201
12.9,327.37,-1.3959
12.9017,327.386,-1.39948
12.9033,327.403,-1.40388
12.905,327.419,-1.40671
12.9067,327.435,-1.40949
12.9083,327.451,-1.41268
12.91,327.468,-1.417
12.9117,327.485,-1.41996
12.9133,327.501,-1.42373
12.915,327.518,-1.42695
12.9167,327.534,-1.42974
12.9183,327.551,-1.43319
12.92,327.567,-1.43667
12.9217,327.584,-1.44002
12.9233,327.6,-1.44363
12.925,327.616,-1.44654
12.9267,327.633,-1.45109
12.9283,327.65,-1.45528
12.93,327.666,-1.45856
12.9317,327.682,-1.46183
12.9333,327.698,-1.46564
12.935,327.715,-1.47015
12.9367,327.731,-1.4747
12.9383,327.748,-1.47992
12.94,327.764,-1.48394
12.9417,327.781,-1.48775
12.9433,327.797,-1.49126
12.945,327.813,-1.49739
12.9467,327.83,-1.5025
12.9483,327.847,-1.5062
12.95,327.863,-1.51058
12.9517,327.879,-1.5148
12.9533,327.896,-1.51948
12.955,327.912,-1.52343
12.9567,327.928,-1.52866
12.9583,327.945,-1.53299
12.96,327.961,-1.53756
12.9617,327.977,-1.54115
12.9633,327.994,-1.54446
12.965,328.01,-1.5491
12.9667,328.027,-1.55262
12.9683,328.043,-1.55738
12.97,328.059,-1.5627
12.9717,328.076,-1.56628
12.9733,328.092,-1.57139
12.975,328.109,-1.57616
12.9767,328.125,-1.5835
12.9783,328.141,-1.59095
12.98,328.157,-1.59655
12.9817,328.174,-1.60338
12.9833,328.19,-1.60935
12.985,328.206,-1.61471
12.9867,328.223,-1.61923
12.9883,328.239,-1.62312
12.99,328.256,-1.62676
12.9917,328.272,-1.63018
12.9933,328.288,-1.63333
12.995,328.304,-1.63717
12.9967,328.321,-1.64079
12.9983,328.337,-1.64584
13,328.354,-1.6516
13.0017,328.37,-1.65672
13.0033,328.387,-1.66184
13.005,328.403,-1.66901
13.0067,328.419,-1.67576
13.0083,328.435,-1.68202
13.01,328.452,-1.68857
13.0117,328.468,-1.69492
13.0133,328.485,-1.70173
13.015,328.501,-1.70792
13.0167,328.517,-1.71272
13.0183,328.533,-1.71879
13.02,328.55,-1.72345
13.0217,328.566,-1.73048
13.0233,328.582,-1.73656
13.025,328.599,-1.74403
13.0267,328.615,-1.74943
13.0283,328.631,-1.75519
13.03,328.648,-1.76016
13.0317,328.664,-1.76602
13.0333,328.68,-1.77133
13.035,328.696,-1.77599
13.0367,328.712,-1.78133
13.0383,328.729,-1.78615
13.04,328.744,-1.79054
13.0417,328.761,-1.79652
13.0433,328.777,-1.80207
13.045,328.794,-1.80924
13.0467,328.81,-1.81681
13.0483,328.826,-1.82471
13.05,328.843,-1.8326
13.0517,328.859,-1.8385
13.0533,328.875,-1.84523
13.055,328.892,-1.8528
13.0567,328.907,-1.85885
13.0583,328.924,-1.86474
13.06,328.94,-1.86966
13.0617,328.956,-1.87463
13.0633,328.973,-1.87936
13.065,328.989,-1.88444
13.0667,329.005,-1.89019
13.0683,329.022,-1.89583
13.07,329.038,-1.90147
13.0717,329.054,-1.90799
13.0733,329.07,-1.91498
13.075,329.087,-1.91916
13.0767,329.103,-1.9253
13.0783,329.119,-1.93078
13.08,329.135,-1.93584
13.0817,329.151,-1.94156
13.0833,329.167,-1.94623
13.085,329.184,-1.95214
13.0867,329.2,-1.95765
13.0883,329.216,-1.96367
13.09,329.232,-1.96967
13.0917,329.249,-1.97545
13.0933,329.265,-1.97997
13.095,329.281,-1.98601
13.0967,329.298,-1.99216
13.0983,329.314,-1.9977
13.1,329.33,-2.00196
13.1017,329.346,-2.00752
13.1033,329.362,-2.01304
13.105,329.379,-2.01803
13.1067,329.395,-2.02317
13.1083,329.412,-2.02877
13.11,329.428,-2.03366
13.1117,329.444,-2.03655
13.1133,329.461,-2.04074
13.115,329.477,-2.04298
13.1167,329.493,-2.04647
13.1183,329.509,-2.04812
13.12,329.525,-2.04939
13.1217,329.541,-2.05125
13.1233,329.557,-2.05474
13.125,329.574,-2.05743
13.1267,329.59,-2.06049
13.1283,329.607,-2.06384
13.13,329.623,-2.06696
13.1317,329.639,-2.06832
13.1333,329.656,-2.07052
13.135,329.672,-2.07262
13.1367,329.688,-2.07344
13.1383,329.705,-2.07446
13.14,329.721,-2.07498
13.1417,329.737,-2.07532
13.1433,329.753,-2.07542
13.145,329.77,-2.07562
13.1467,329.786,-2.07689
13.1483,329.803,-2.07687
13.15,329.819,-2.07578
13.1517,329.835,-2.07496
13.1533,329.851,-2.07455
13.155,329.868,-2.07308
13.1567,329.884,-2.0718
13.1583,329.901,-2.07014
13.16,329.917,-2.06437
13.1617,329.934,-2.06131
13.1633,329.95,-2.05826
13.165,329.967,-2.05455
13.1667,329.983,-2.05082
13.1683,329.999,-2.04807
13.17,330.016,-2.04521
13.1717,330.033,-2.04286
13.1733,330.049,-2.03965
13.175,330.066,-2.03528
13.1767,330.082,-2.03048
13.1783,330.099,-2.02398
13.18,330.115,-2.01681
13.1817,330.132,-2.00995
13.1833,330.149,-2.00248
13.185,330.166,-1.99379
13.1867,330.182,-1.98467
13.1883,330.199,-1.97646
13.19,330.216,-1.96717
13.1917,330.233,-1.95845
13.1933,330.249,-1.94998
13.195,330.266,-1.93956
13.1967,330.283,-1.93061
13.1983,330.3,-1.92115
13.2,330.317,-1.91254
13.2017,330.333,-1.90378
13.2033,330.35,-1.89491
13.205,330.367,-1.88529
13.2067,330.383,-1.87631
13.2083,330.4,-1.86744
13.21,330.418,-1.85695
13.2117,330.435,-1.84726
13.2133,330.451,-1.83625
13.215,330.468,-1.82374
13.2167,330.485,-1.81131
13.2183,330.502,-1.79866
13.22,330.519,-1.7854
13.2217,330.536,-1.77282
13.2233,330.553,-1.75923
13.225,330.57,-1.74703
13.2267,330.587,-1.7361
13.2283,330.604,-1.72502
13.23,330.621,-1.7132
13.2317,330.638,-1.7028
13.2333,330.655,-1.6906
13.235,330.673,-1.67879
13.2367,330.689,-1.66694
13.2383,330.707,-1.65605
13.24,330.724,-1.64362
13.2417,330.741,-1.6311
13.2433,330.758,-1.61821
13.245,330.776,-1.60603
13.2467,330.793,-1.59415
13.2483,330.81,-1.5823
13.25,330.828,-1.57025
13.2517,330.845,-1.5589
13.2533,330.862,-1.54889
13.255,330.88,-1.53961
13.2567,330.897,-1.52954
13.2583,330.914,-1.51912
13.26,330.931,-1.50971
13.2617,330.948,-1.49948
13.2633,330.965,-1.48778
13.265,330.983,-1.47722
13.2667,331,-1.46729
13.2683,331.017,-1.45745
13.27,331.034,-1.44834
13.2717,331.052,-1.4388
13.2733,331.069,-1.42943
13.275,331.086,-1.42058
13.2767,331.104,-1.41059
13.2783,331.121,-1.40042
13.28,331.138,-1.39159
13.2817,331.155,-1.3823
13.2833,331.173,-1.37269
13.285,331.19,-1.36418
13.2867,331.207,-1.35621
13.2883,331.224,-1.34715
13.29,331.242,-1.33951
13.2917,331.259,-1.3313
13.2933,331.276,-1.32547
13.295,331.293,-1.31733
13.2967,331.311,-1.31084
13.2983,331.328,-1.30435
13.3,331.345,-1.29809
13.3017,331.362,-1.29165
13.3033,331.379,-1.28499
13.305,331.397,-1.27897
13.3067,331.414,-1.27248
13.3083,331.431,-1.26684
13.31,331.448,-1.26005
13.3117,331.466,-1.25348
13.3133,331.483,-1.2469
13.315,331.5,-1.23986
13.3167,331.518,-1.23394
13.3183,331.535,-1.22816
13.32,331.552,-1.22278
13.3217,331.57,-1.21818
13.3233,331.587,-1.21256
13.325,331.604,-1.208
13.3267,331.621,-1.20354
13.3283,331.638,-1.1998
13.33,331.655,-1.19412
13.3317,331.672,-1.18785
13.3333,331.69,-1.18264
13.335,331.707,-1.17782
13.3367,331.724,-1.1726
13.3383,331.741,-1.16794
13.34,331.759,-1.16305
13.3417,331.776,-1.15792
13.3433,331.793,-1.15492
13.345,331.81,-1.15199
13.3467,331.827,-1.14866
13.3483,331.844,-1.14433
13.35,331.862,-1.13924
13.3517,331.878,-1.13555
13.3533,331.895,-1.13143
13.355,331.913,-1.12808
13.3567,331.93,-1.12504
13.3583,331.947,-1.12136
13.36,331.964,-1.11839
13.3617,331.981,-1.11564
13.3633,331.998,-1.11157
13.365,332.015,-1.10875
13.3667,332.032,-1.10344
13.3683,332.05,-1.09974
13.37,332.067,-1.09632
13.3717,332.084,-1.09375
13.3733,332.101,-1.08966
13.375,332.118,-1.08727
13.3767,332.135,-1.08518
13.3783,332.152,-1.08351
13.38,332.169,-1.08108
13.3817,332.186,-1.07868
13.3833,332.203,-1.07523
13.385,332.22,-1.07174
13.3867,332.237,-1.06839
13.3883,332.254,-1.06498
13.39,332.271,-1.06335
13.3917,332.288,-1.0601
13.3933,332.305,-1.05728
13.395,332.322,-1.05479
13.3967,332.338,-1.05271
13.3983,332.355,-1.05177
13.4,332.372,-1.04962
13.4017,332.389,-1.04867
13.4033,332.407,-1.04761
13.405,332.423,-1.04629
13.4067,332.44,-1.04449
13.4083,332.458,-1.04321
13.41,332.474,-1.04042
13.4117,332.491,-1.03829
13.4133,332.508,-1.03603
13.415,332.526,-1.03321
13.4167,332.542,-1.03105
13.4183,332.559,-1.02745
13.42,332.577,-1.02462
13.4217,332.593,-1.0225
13.4233,332.611,-1.02089
13.425,332.627,-1.01934
13.4267,332.644,-1.01774
13.4283,332.66,-1.01624
13.43,332.677,-1.01516
13.4317,332.694,-1.01399
13.4333,332.711,-1.01356
13.435,332.728,-1.01307
13.4367,332.745,-1.01131
13.4383,332.762,-1.00937
13.44,332.779,-1.00785
13.4417,332.796,-1.0064
13.4433,332.813,-1.00506
13.445,332.83,-1.00299
13.4467,332.846,-1.00135
13.4483,332.863,-1.00029
13.45,332.88,-0.999903
13.4517,332.897,-0.998955
13.4533,332.914,-0.997596
13.455,332.931,-0.996123
13.4567,332.947,-0.994302
13.4583,332.964,-0.99287
13.46,332.981,-0.991872
13.4617,332.998,-0.990389
13.4633,333.015,-0.98944
13.465,333.031,-0.988328
13.4667,333.048,-0.987704
13.4683,333.065,-0.987149
13.47,333.082,-0.986676
13.4717,333.098,-0.985692
13.4733,333.116,-0.984588
13.475,333.132,-0.983673
13.4767,333.149,-0.982958
13.4783,333.166,-0.982497
13.48,333.183,-0.981795
13.4817,333.2,-0.981216
13.4833,333.217,-0.980758
13.485,333.234,-0.980482
13.4867,333.25,-0.980066
13.4883,333.267,-0.979595
13.49,333.284,-0.978981
13.4917,333.3,-0.978201
13.4933,333.317,-0.977893
13.495,333.334,-0.977369
13.4967,333.351,-0.976661
13.4983,333.367,-0.975647
13.5,333.384,-0.974665
13.5017,333.401,-0.973525
13.5033,333.418,-0.972556
13.505,333.435,-0.971168
13.5067,333.451,-0.970184
13.5083,333.468,-0.969288
13.51,333.485,-0.96865
13.5117,333.502,-0.968197
13.5133,333.518,-0.967802
13.515,333.535,-0.967274
13.5167,333.552,-0.966719
13.5183,333.569,-0.965887
13.52,333.585,-0.965047
13.5217,333.602,-0.96417
13.5233,333.619,-0.963444
13.525,333.636,-0.962802
13.5267,333.653,-0.962068
13.5283,333.669,-0.96164
13.53,333.686,-0.961367
13.5317,333.703,-0.961193
13.5333,333.72,-0.96102
13.535,333.737,-0.960878
13.5367,333.753,-0.960611
13.5383,333.77,-0.960372
13.54,333.787,-0.96017
13.5417,333.803,-0.959703
13.5433,333.82,-0.959162
13.545,333.837,-0.958672
13.5467,333.854,-0.957997
13.5483,333.87,-0.957275
13.55,333.887,-0.956673
13.5517,333.903,-0.956008
13.5533,333.92,-0.955379
13.555,333.937,-0.954885
13.5567,333.954,-0.954467
13.5583,333.97,-0.954057
13.56,333.987,-0.953638
13.5617,334.004,-0.953197
13.5633,334.021,-0.952755
13.565,334.037,-0.952569
13.5667,334.054,-0.95245
13.5683,334.071,-0.95238
13.57,334.088,-0.95231
13.5717,334.104,-0.952231
13.5733,334.121,-0.952183
13.575,334.138,-0.952127
13.5767,334.154,-0.952016
13.5783,334.171,-0.951796
13.58,334.187,-0.951544
13.5817,334.204,-0.951246
13.5833,334.221,-0.950825
13.585,334.238,-0.950262
13.5867,334.255,-0.949504
13.5883,334.271,-0.948712
13.59,334.288,-0.948076
13.5917,334.305,-0.947607
13.5933,334.322,-0.947327
13.595,334.338,-0.947126
13.5967,334.355,-0.947003
13.5983,334.371,-0.946905
13.6,334.388,-0.946831
13.6017,334.405,-0.946735
13.6033,334.421,-0.946689
13.605,334.438,-0.946654
13.6067,334.455,-0.946595
13.6083,334.472,-0.946509
13.61,334.488,-0.94633
13.6117,334.505,-0.94616
13.6133,334.522,-0.945992
13.615,334.539,-0.945833
13.6167,334.556,-0.945682
13.6183,334.572,-0.945554
13.62,334.589,-0.94542
13.6217,334.606,-0.945299
13.6233,334.623,-0.945199
13.625,334.639,-0.945133
13.6267,334.656,-0.945086
13.6283,334.673,-0.945026
13.63,334.689,-0.944962
13.6317,334.706,-0.944911
13.6333,334.723,-0.944845
13.635,334.739,-0.944786
13.6367,334.756,-0.944715
13.6383,334.772,-0.944632
13.64,334.789,-0.944524
13.6417,334.806,-0.944426
13.6433,334.822,-0.944302
13.645,334.839,-0.94416
13.6467,334.856,-0.944073
13.6483,334.873,-0.943956
13.65,334.889,-0.943847
13.6517,334.906,-0.943767
13.6533,334.923,-0.943668
13.655,334.94,-0.943557
13.6567,334.956,-0.943386
13.6583,334.973,-0.943159
13.66,334.989,-0.94285
13.6617,335.006,-0.942465
13.6633,335.023,-0.942066
13.665,335.039,-0.941817
13.6667,335.056,-0.941657
13.6683,335.073,-0.941572
13.67,335.089,-0.941468
13.6717,335.106,-0.941398
13.6733,335.123,-0.941066
13.675,335.14,-0.940998
13.6767,335.156,-0.940735
13.6783,335.173,-0.94051
13.68,335.19,-0.940449
13.6817,335.206,-0.940385
13.6833,335.223,-0.940314
13.685,335.239,-0.940242
13.6867,335.256,-0.94017
13.6883,335.273,-0.940101
13.69,335.29,-0.939924
13.6917,335.306,-0.939822
13.6933,335.323,-0.939706
13.695,335.34,-0.93963
13.6967,335.357,-0.939586
13.6983,335.373,-0.939543
13.7,335.389,-0.939458
13.7017,335.406,-0.939403
13.7033,335.423,-0.939349
13.705,335.44,-0.939294
13.7067,335.456,-0.939225
13.7083,335.473,-0.939158
13.71,335.49,-0.939086
13.7117,335.507,-0.93902
13.7133,335.523,-0.938949
13.715,335.54,-0.938879
13.7167,335.557,-0.938804
13.7183,335.573,-0.938721
13.72,335.59,-0.938631
13.7217,335.606,-0.938477
13.7233,335.623,-0.938259
13.725,335.64,-0.938026
13.7267,335.657,-0.937811
13.7283,335.673,-0.937675
13.73,335.69,-0.937537
13.7317,335.706,-0.937382
13.7333,335.723,-0.937255
13.735,335.74,-0.937175
13.7367,335.757,-0.93711
13.7383,335.774,-0.937053
13.74,335.79,-0.936999
13.7417,335.807,-0.936949
13.7433,335.823,-0.936901
13.745,335.84,-0.936856
13.7467,335.857,-0.936814
13.7483,335.874,-0.936768
13.75,335.89,-0.936712
13.7517,335.907,-0.936641
13.7533,335.924,-0.936568
13.755,335.94,-0.936493
13.7567,335.957,-0.936416
13.7583,335.974,-0.936332
13.76,335.99,-0.936243
13.7617,336.007,-0.936155
13.7633,336.024,-0.936067
13.765,336.04,-0.935983
13.7667,336.057,-0.935909
13.7683,336.073,-0.93584
13.77,336.09,-0.935785
13.7717,336.107,-0.935731
13.7733,336.123,-0.93568
13.775,336.14,-0.935637
13.7767,336.157,-0.935597
13.7783,336.173,-0.935555
13.78,336.19,-0.935507
13.7817,336.207,-0.935453
13.7833,336.224,-0.935396
13.785,336.24,-0.93534
13.7867,336.257,-0.93528
13.7883,336.273,-0.935218
13.79,336.29,-0.935156
13.7917,336.307,-0.93509
13.7933,336.324,-0.935027
13.795,336.34,-0.934963
13.7967,336.357,-0.934894
13.7983,336.374,-0.934819
13.8,336.39,-0.934742
13.8017,336.407,-0.93467
13.8033,336.423,-0.934599
13.805,336.44,-0.934535
13.8067,336.457,-0.934484
13.8083,336.473,-0.934433
13.81,336.49,-0.934393
13.8117,336.507,-0.934352
13.8133,336.524,-0.93431
13.815,336.54,-0.93426
13.8167,336.557,-0.934211
13.8183,336.574,-0.934149
13.82,336.591,-0.934083
13.8217,336.607,-0.934026
13.8233,336.624,-0.933962
13.825,336.64,-0.933896
13.8267,336.657,-0.933837
13.8283,336.673,-0.933776
13.83,336.69,-0.933719
13.8317,336.707,-0.933664
13.8333,336.724,-0.933614
13.835,336.74,-0.933556
13.8367,336.757,-0.93349
13.8383,336.774,-0.933417
13.84,336.79,-0.933342
13.8417,336.807,-0.933263
13.8433,336.824,-0.933183
13.845,336.84,-0.93311
13.8467,336.857,-0.933047
13.8483,336.874,-0.932987
13.85,336.891,-0.932938
13.8517,336.908,-0.932893
13.8533,336.924,-0.932851
13.855,336.941,-0.932813
13.8567,336.957,-0.932767
13.8583,336.974,-0.932715
13.86,336.99,-0.932652
13.8617,337.007,-0.932592
13.8633,337.024,-0.93253
13.865,337.041,-0.932469
13.8667,337.057,-0.932409
13.8683,337.074,-0.932359
13.87,337.09,-0.932314
13.8717,337.107,-0.932277
13.8733,337.124,-0.932243
13.875,337.14,-0.932212
13.8767,337.157,-0.93219
13.8783,337.174,-0.932157
13.88,337.19,-0.932132
13.8817,337.207,-0.932117
13.8833,337.224,-0.932102
13.885,337.241,-0.932088
13.8867,337.257,-0.932079
13.8883,337.274,-0.932061
13.89,337.291,-0.932039
13.8917,337.308,-0.932004
13.8933,337.324,-0.931967
13.895,337.341,-0.931923
13.8967,337.358,-0.931868
13.8983,337.375,-0.931812
13.9,337.391,-0.93176
13.9017,337.407,-0.931713
13.9033,337.424,-0.931663
13.905,337.441,-0.931623
13.9067,337.457,-0.931589
13.9083,337.474,-0.931551
13.91,337.491,-0.931501
13.9117,337.507,-0.931442
13.9133,337.524,-0.931383
13.915,337.541,-0.931323
13.9167,337.557,-0.931263
13.9183,337.574,-0.931211
13.92,337.591,-0.931173
13.9217,337.607,-0.931142
13.9233,337.624,-0.931112
13.925,337.641,-0.93109
13.9267,337.657,-0.931082
13.9283,337.674,-0.93107
13.93,337.691,-0.931055
13.9317,337.708,-0.931036
13.9333,337.724,-0.931018
13.935,337.741,-0.930998
13.9367,337.758,-0.93097
13.9383,337.775,-0.930936
13.94,337.791,-0.930898
13.9417,337.808,-0.930852
13.9433,337.824,-0.930802
13.945,337.841,-0.93076
13.9467,337.858,-0.93072
13.9483,337.874,-0.930686
13.95,337.891,-0.93065
13.9517,337.908,-0.930625
13.9533,337.925,-0.930605
13.955,337.941,-0.930584
13.9567,337.957,-0.930569
13.9583,337.974,-0.930555
13.96,337.991,-0.930535
13.9617,338.008,-0.930512
13.9633,338.025,-0.93049
13.965,338.041,-0.930463
13.9667,338.058,-0.930435
13.9683,338.075,-0.930403
13.97,338.091,-0.930372
13.9717,338.108,-0.930338
13.9733,338.125,-0.930308
13.975,338.141,-0.930283
13.9767,338.158,-0.930265
13.9783,338.175,-0.930243
13.98,338.191,-0.930221
13.9817,338.208,-0.9302
13.9833,338.225,-0.930174
13.985,338.242,-0.930156
13.9867,338.258,-0.930139
13.9883,338.275,-0.93012
13.99,338.292,-0.930109
13.9917,338.308,-0.930092
13.9933,338.325,-0.930079
13.995,338.341,-0.930071
13.9967,338.358,-0.930056
13.9983,338.375,-0.930041
14,338.392,-0.930026
14.0017,338.408,-0.930008
14.0033,338.425,-0.929989
14.005,338.441,-0.929963
14.0067,338.458,-0.929935
14.0083,338.475,-0.929912
14.01,338.491,-0.929888
14.0117,338.508,-0.929858
14.0133,338.525,-0.929823
14.015,338.541,-0.929786
14.0167,338.558,-0.929753
14.0183,338.575,-0.929736
14.02,338.591,-0.929726
14.0217,338.608,-0.929716
14.0233,338.625,-0.929714
14.025,338.642,-0.929711
14.0267,338.658,-0.929707
14.0283,338.674,-0.929701
14.03,338.691,-0.929689
14.0317,338.708,-0.929669
14.0333,338.725,-0.929651
14.035,338.741,-0.929638
14.0367,338.758,-0.929615
14.0383,338.775,-0.929595
14.04,338.791,-0.929566
14.0417,338.808,-0.929541
14.0433,338.825,-0.929519
14.045,338.841,-0.929493
14.0467,338.858,-0.929479
14.0483,338.875,-0.929459
14.05,338.892,-0.92944
14.0517,338.909,-0.929425
14.0533,338.925,-0.929415
14.055,338.942,-0.929391
14.0567,338.959,-0.929368
14.0583,338.975,-0.929346
14.06,338.991,-0.92932
14.0617,339.008,-0.929295
14.0633,339.025,-0.929275
14.065,339.041,-0.929264
14.0667,339.058,-0.929257
14.0683,339.075,-0.929266
14.07,339.091,-0.929281
14.0717,339.108,-0.92929
14.0733,339.125,-0.9293
14.075,339.141,-0.929306
14.0767,339.158,-0.929307
14.0783,339.174,-0.929309
14.08,339.191,-0.929307
14.0817,339.207,-0.929302
14.0833,339.224,-0.929292
14.085,339.241,-0.929282
14.0867,339.258,-0.929272
14.0883,339.274,-0.929253
14.09,339.291,-0.929229
14.0917,339.308,-0.929199
14.0933,339.325,-0.929165
14.095,339.341,-0.92914
14.0967,339.358,-0.929111
14.0983,339.375,-0.929095
14.1,339.392,-0.929079
14.1017,339.408,-0.929066
14.1033,339.425,-0.92907
14.105,339.441,-0.929085
14.1067,339.458,-0.929109
14.1083,339.475,-0.929129
14.11,339.491,-0.929148
14.1117,339.508,-0.929162
14.1133,339.525,-0.929171
14.115,339.541,-0.929162
14.1167,339.558,-0.929159
14.1183,339.575,-0.929162
14.12,339.591,-0.929154
14.1217,339.608,-0.929131
14.1233,339.625,-0.929108
14.125,339.641,-0.929085
14.1267,339.658,-0.92906
14.1283,339.674,-0.929039
14.13,339.691,-0.929023
14.1317,339.708,-0.929009
14.1333,339.725,-0.929004
14.135,339.741,-0.929009
14.1367,339.758,-0.929016
14.1383,339.775,-0.929036
14.14,339.792,-0.929048
14.1417,339.808,-0.929057
14.1433,339.825,-0.929056
14.145,339.841,-0.929045
14.1467,339.858,-0.92903
14.1483,339.874,-0.929008
14.15,339.891,-0.928994
14.1517,339.908,-0.928987
14.1533,339.924,-0.928983
14.155,339.941,-0.92899
14.1567,339.957,-0.929005
14.1583,339.974,-0.929021
14.16,339.991,-0.929039
14.1617,340.008,-0.929059
14.1633,340.025,-0.929082
14.165,340.041,-0.929099
14.1667,340.057,-0.929107
14.1683,340.074,-0.929108
14.17,340.091,-0.929104
14.1717,340.108,-0.929106
14.1733,340.124,-0.929114
14.175,340.141,-0.929118
14.1767,340.158,-0.929119
14.1783,340.175,-0.929119
14.18,340.192,-0.929127
14.1817,340.208,-0.92913
14.1833,340.225,-0.929123
14.185,340.241,-0.929105
14.1867,340.258,-0.929091
14.1883,340.274,-0.929073
14.19,340.291,-0.929057
14.1917,340.307,-0.92904
14.1933,340.324,-0.929023
14.195,340.341,-0.929009
14.1967,340.358,-0.929007
14.1983,340.375,-0.929018
14.2,340.391,-0.929036
14.2017,340.408,-0.92906
14.2033,340.424,-0.929092
14.205,340.441,-0.929122
14.2067,340.458,-0.929143
14.2083,340.474,-0.929159
14.21,340.491,-0.929182
14.2117,340.508,-0.929193
14.2133,340.524,-0.929191
14.215,340.541,-0.92918
14.2167,340.558,-0.929163
14.2183,340.574,-0.929149
14.22,340.591,-0.929135
14.2217,340.608,-0.92912
14.2233,340.625,-0.92911
14.225,340.641,-0.929102
14.2267,340.658,-0.929094
14.2283,340.674,-0.929087
14.23,340.691,-0.929073
14.2317,340.707,-0.929064
14.2333,340.724,-0.929057
14.235,340.741,-0.929053
14.2367,340.757,-0.929057
14.2383,340.774,-0.929074
14.24,340.79,-0.929089
14.2417,340.807,-0.929106
14.2433,340.824,-0.929135
14.245,340.841,-0.92917
14.2467,340.858,-0.929221
14.2483,340.874,-0.929259
14.25,340.891,-0.929304
14.2517,340.907,-0.929341
14.2533,340.925,-0.929365
14.255,340.941,-0.929386
14.2567,340.958,-0.929407
14.2583,340.975,-0.929423
14.26,340.991,-0.929428
14.2617,341.008,-0.92943
14.2633,341.025,-0.929432
14.265,341.041,-0.929439
14.2667,341.058,-0.929441
14.2683,341.074,-0.929447
14.27,341.091,-0.929453
14.2717,341.108,-0.929458
14.2733,341.124,-0.929467
14.275,341.141,-0.92947
14.2767,341.158,-0.929477
14.2783,341.174,-0.929485
14.28,341.191,-0.929494
14.2817,341.207,-0.929503
14.2833,341.224,-0.929512
14.285,341.241,-0.929519
14.2867,341.257,-0.929521
14.2883,341.274,-0.929523
14.29,341.29,-0.929529
14.2917,341.307,-0.929536
14.2933,341.324,-0.929537
14.295,341.341,-0.929535
14.2967,341.357,-0.929538
14.2983,341.374,-0.929548
14.3,341.391,-0.929556
14.3017,341.407,-0.929567
14.3033,341.424,-0.929575
14.305,341.44,-0.929586
14.3067,341.457,-0.929594
14.3083,341.474,-0.929596
14.31,341.491,-0.929591
14.3117,341.507,-0.929582
14.3133,341.524,-0.929567
14.315,341.54,-0.929561
14.3167,341.557,-0.92956
14.3183,341.574,-0.929565
14.32,341.59,-0.92957
14.3217,341.607,-0.929578
14.3233,341.624,-0.929594
14.325,341.64,-0.929609
14.3267,341.657,-0.929635
14.3283,341.674,-0.929665
14.33,341.69,-0.929691
14.3317,341.707,-0.929709
14.3333,341.723,-0.929729
14.335,341.74,-0.929744
14.3367,341.757,-0.929751
14.3383,341.774,-0.929756
14.34,341.79,-0.929762
14.3417,341.807,-0.929772
14.3433,341.823,-0.929776
14.345,341.84,-0.929782
14.3467,341.856,-0.92979
14.3483,341.873,-0.929801
14.35,341.89,-0.92982
14.3517,341.906,-0.929839
14.3533,341.923,-0.929854
14.355,341.94,-0.929859
14.3567,341.956,-0.929861
14.3583,341.973,-0.929864
14.36,341.99,-0.929867
14.3617,342.007,-0.929869
14.3633,342.023,-0.929878
14.365,342.04,-0.929889
14.3667,342.056,-0.929895
14.3683,342.073,-0.929911
14.37,342.09,-0.929935
14.3717,342.106,-0.929959
14.3733,342.123,-0.929984
14.375,342.14,-0.930004
14.3767,342.157,-0.930013
14.3783,342.173,-0.930014
14.38,342.19,-0.930013
14.3817,342.206,-0.93001
14.3833,342.223,-0.930019
14.385,342.24,-0.930038
14.3867,342.257,-0.930059
14.3883,342.273,-0.930088
14.39,342.29,-0.930113
14.3917,342.307,-0.930141
14.3933,342.324,-0.930173
14.395,342.34,-0.930203
14.3967,342.357,-0.930229
14.3983,342.373,-0.930251
14.4,342.39,-0.930274
14.4017,342.406,-0.930296
14.4033,342.423,-0.930314
14.405,342.44,-0.930335
14.4067,342.457,-0.930361
14.4083,342.473,-0.930385
14.41,342.49,-0.930405
14.4117,342.506,-0.930421
14.4133,342.523,-0.930439
14.415,342.54,-0.930459
14.4167,342.556,-0.930471
14.4183,342.573,-0.930478
14.42,342.589,-0.930487
14.4217,342.607,-0.930494
14.4233,342.623,-0.9305
14.425,342.64,-0.930502
14.4267,342.657,-0.9305
14.4283,342.673,-0.930499
14.43,342.69,-0.930493
14.4317,342.706,-0.930491
14.4333,342.723,-0.930492
14.435,342.739,-0.930502
14.4367,342.756,-0.930513
14.4383,342.773,-0.930531
14.44,342.789,-0.930554
14.4417,342.806,-0.930583
14.4433,342.823,-0.930626
14.445,342.839,-0.93069
14.4467,342.856,-0.930731
14.4483,342.873,-0.930772
14.45,342.889,-0.930812
14.4517,342.906,-0.930851
14.4533,342.922,-0.930891
14.455,342.939,-0.930922
14.4567,342.956,-0.930948
14.4583,342.972,-0.930965
14.46,342.989,-0.930974
14.4617,343.006,-0.930977
14.4633,343.023,-0.930977
14.465,343.039,-0.930979
14.4667,343.056,-0.930987
14.4683,343.073,-0.930997
14.47,343.089,-0.931008
14.4717,343.106,-0.931027
14.4733,343.122,-0.931051
14.475,343.139,-0.931083
14.4767,343.156,-0.931115
14.4783,343.172,-0.931148
14.48,343.189,-0.931182
14.4817,343.205,-0.931217
14.4833,343.222,-0.931254
14.485,343.239,-0.931302
14.4867,343.255,-0.931349
14.4883,343.272,-0.9314
14.49,343.289,-0.931451
14.4917,343.306,-0.931489
14.4933,343.323,-0.931534
14.495,343.339,-0.931577
14.4967,343.356,-0.931617
14.4983,343.372,-0.931659
14.5,343.389,-0.931688
14.5017,343.406,-0.931721
14.5033,343.422,-0.931759
14.505,343.439,-0.9318
14.5067,343.456,-0.931842
14.5083,343.472,-0.931871
14.51,343.489,-0.93189
14.5117,343.505,-0.931902
14.5133,343.522,-0.931909
14.515,343.538,-0.931907
14.5167,343.555,-0.931904
14.5183,343.572,-0.931899
14.52,343.589,-0.931898
14.5217,343.605,-0.931902
14.5233,343.622,-0.931932
14.525,343.639,-0.931958
14.5267,343.655,-0.931976
14.5283,343.672,-0.931993
14.53,343.688,-0.932016
14.5317,343.705,-0.932045
14.5333,343.722,-0.932066
14.535,343.738,-0.93209
14.5367,343.755,-0.932121
14.5383,343.772,-0.932145
14.54,343.789,-0.932165
14.5417,343.805,-0.932193
14.5433,343.822,-0.932222
14.545,343.839,-0.932254
14.5467,343.856,-0.932279
14.5483,343.872,-0.932307
14.55,343.889,-0.93233
14.5517,343.905,-0.932343
14.5533,343.922,-0.932357
14.555,343.939,-0.932384
14.5567,343.955,-0.932405
14.5583,343.972,-0.932421
14.56,343.988,-0.932437
14.5617,344.005,-0.932449
14.5633,344.021,-0.932457
14.565,344.038,-0.932466
14.5667,344.055,-0.932482
14.5683,344.072,-0.93249
14.57,344.089,-0.932495
14.5717,344.105,-0.93251
14.5733,344.122,-0.932537
14.575,344.138,-0.932572
14.5767,344.155,-0.932611
14.5783,344.171,-0.932644
14.58,344.188,-0.932677
14.5817,344.204,-0.932701
14.5833,344.221,-0.93273
14.585,344.238,-0.932758
14.5867,344.254,-0.932786
14.5883,344.271,-0.932809
14.59,344.288,-0.932833
14.5917,344.304,-0.932863
14.5933,344.321,-0.932902
14.595,344.338,-0.932954
14.5967,344.355,-0.933004
14.5983,344.371,-0.933053
14.6,344.388,-0.933102
14.6017,344.405,-0.933142
14.6033,344.421,-0.933183
14.605,344.438,-0.933214
14.6067,344.454,-0.933238
14.6083,344.471,-0.933257
14.61,344.488,-0.933272
14.6117,344.504,-0.93329
14.6133,344.521,-0.933309
14.615,344.538,-0.933322
14.6167,344.554,-0.933342
14.6183,344.571,-0.933365
14.62,344.588,-0.933391
14.6217,344.604,-0.933423
14.6233,344.621,-0.933459
14.625,344.637,-0.933486
14.6267,344.654,-0.933512
14.6283,344.67,-0.933537
14.63,344.687,-0.933562
14.6317,344.704,-0.933586
14.6333,344.72,-0.933615
14.635,344.737,-0.933646
14.6367,344.754,-0.933681
14.6383,344.77,-0.933713
14.64,344.788,-0.933742
14.6417,344.804,-0.933771
14.6433,344.821,-0.933798
14.645,344.837,-0.933823
14.6467,344.854,-0.933844
14.6483,344.871,-0.933861
14.65,344.887,-0.933874
14.6517,344.904,-0.933885
14.6533,344.92,-0.933903
14.655,344.937,-0.93392
14.6567,344.953,-0.933934
14.6583,344.97,-0.933942
14.66,344.987,-0.933954
14.6617,345.004,-0.933969
14.6633,345.02,-0.933983
14.665,345.037,-0.933998
14.6667,345.053,-0.934013
14.6683,345.07,-0.934028
14.67,345.087,-0.934042
14.6717,345.104,-0.934061
14.6733,345.12,-0.934088
14.675,345.137,-0.934119
14.6767,345.154,-0.934159
14.6783,345.17,-0.934206
14.68,345.187,-0.934258
14.6817,345.204,-0.934312
14.6833,345.22,-0.934367
14.685,345.237,-0.93442
14.6867,345.253,-0.934463
14.6883,345.27,-0.934501
14.69,345.287,-0.934539
14.6917,345.303,-0.934564
14.6933,345.32,-0.934585
14.695,345.337,-0.934598
14.6967,345.353,-0.934612
14.6983,345.37,-0.934629
14.7,345.387,-0.934643
14.7017,345.403,-0.934661
14.7033,345.42,-0.934681
14.705,345.437,-0.934705
14.7067,345.454,-0.934736
14.7083,345.471,-0.934776
14.71,345.487,-0.934811
14.7117,345.503,-0.934846
14.7133,345.52,-0.934881
14.715,345.537,-0.93492
14.7167,345.553,-0.934949
14.7183,345.57,-0.934981
14.72,345.587,-0.935013
14.7217,345.603,-0.93504
14.7233,345.62,-0.935066
14.725,345.636,-0.935086
14.7267,345.653,-0.935106
14.7283,345.67,-0.935132
14.73,345.686,-0.93516
14.7317,345.704,-0.935185
14.7333,345.72,-0.935219
14.735,345.737,-0.935245
14.7367,345.753,-0.935275
14.7383,345.77,-0.935301
14.74,345.787,-0.935321
14.7417,345.803,-0.935343
14.7433,345.82,-0.935362
14.745,345.837,-0.93539
14.7467,345.854,-0.935423
14.7483,345.87,-0.935458
14.75,345.887,-0.935499
14.7517,345.903,-0.935538
14.7533,345.92,-0.935576
14.755,345.937,-0.935612
14.7567,345.954,-0.935636
14.7583,345.97,-0.935661
14.76,345.986,-0.935688
14.7617,346.003,-0.935717
14.7633,346.02,-0.935749
14.765,346.036,-0.935786
14.7667,346.053,-0.93582
14.7683,346.069,-0.935866
14.77,346.087,-0.935909
14.7717,346.103,-0.935944
14.7733,346.12,-0.935968
14.775,346.136,-0.935981
14.7767,346.153,-0.935993
14.7783,346.17,-0.936004
14.78,346.187,-0.936011
14.7817,346.203,-0.936017
14.7833,346.22,-0.936028
14.785,346.236,-0.936039
14.7867,346.253,-0.936057
14.7883,346.27,-0.936083
14.79,346.287,-0.936112
14.7917,346.304,-0.936145
14.7933,346.32,-0.93618
14.795,346.336,-0.936226
14.7967,346.353,-0.936272
14.7983,346.37,-0.936321
14.8,346.386,-0.93637
14.8017,346.403,-0.936418
14.8033,346.419,-0.936466
14.805,346.436,-0.936505
14.8067,346.453,-0.936539
14.8083,346.469,-0.936577
14.81,346.486,-0.936627
14.8117,346.503,-0.936674
14.8133,346.519,-0.936722
14.815,346.535,-0.936753
14.8167,346.553,-0.936788
14.8183,346.569,-0.936826
14.82,346.586,-0.936861
14.8217,346.603,-0.936897
14.8233,346.619,-0.936927
14.825,346.636,-0.936954
14.8267,346.653,-0.936989
14.8283,346.669,-0.937026
14.83,346.686,-0.937063
14.8317,346.703,-0.937101
14.8333,346.719,-0.937133
14.835,346.736,-0.937169
14.8367,346.753,-0.937202
14.8383,346.769,-0.937228
14.84,346.786,-0.937256
14.8417,346.802,-0.937277
14.8433,346.819,-0.937303
14.845,346.836,-0.937331
14.8467,346.853,-0.937372
14.8483,346.869,-0.937407
14.85,346.886,-0.93745
14.8517,346.903,-0.937504
14.8533,346.92,-0.937556
14.855,346.936,-0.937607
14.8567,346.953,-0.93766
14.8583,346.969,-0.937713
14.86,346.986,-0.93775
14.8617,347.003,-0.937783
14.8633,347.02,-0.937805
14.865,347.036,-0.93782
14.8667,347.053,-0.93783
14.8683,347.069,-0.937837
14.87,347.086,-0.937841
14.8717,347.103,-0.93785
14.8733,347.119,-0.937867
14.875,347.135,-0.937886
14.8767,347.152,-0.937918
14.8783,347.169,-0.93796
14.88,347.186,-0.938008
14.8817,347.202,-0.938068
14.8833,347.219,-0.938155
14.885,347.236,-0.938217
14.8867,347.252,-0.938281
14.8883,347.269,-0.938338
14.89,347.286,-0.938396
14.8917,347.302,-0.938451
14.8933,347.319,-0.93849
14.895,347.336,-0.938522
14.8967,347.353,-0.938546
14.8983,347.369,-0.938569
14.9,347.385,-0.93859
14.9017,347.402,-0.938598
14.9033,347.419,-0.938601
14.905,347.435,-0.938599
14.9067,347.452,-0.938596
14.9083,347.469,-0.938587
14.91,347.485,-0.938587
14.9117,347.502,-0.938599
14.9133,347.518,-0.938624
14.915,347.535,-0.938659
14.9167,347.552,-0.938702
14.9183,347.569,-0.938748
14.92,347.585,-0.938799
14.9217,347.602,-0.938853
14.9233,347.619,-0.938904
14.925,347.635,-0.938959
14.9267,347.652,-0.939013
14.9283,347.669,-0.939057
14.93,347.685,-0.939097
14.9317,347.702,-0.939144
14.9333,347.718,-0.939193
14.935,347.735,-0.939233
14.9367,347.752,-0.939265
14.9383,347.768,-0.939297
14.94,347.785,-0.939319
14.9417,347.802,-0.93934
14.9433,347.819,-0.939365
14.945,347.835,-0.939388
14.9467,347.852,-0.939404
14.9483,347.868,-0.939417
14.95,347.885,-0.939419
14.9517,347.901,-0.93943
14.9533,347.918,-0.939452
14.955,347.935,-0.939474
14.9567,347.951,-0.939495
14.9583,347.967,-0.939514
14.96,347.984,-0.939542
14.9617,348.001,-0.939571
14.9633,348.017,-0.939608
14.965,348.034,-0.939655
14.9667,348.051,-0.939707
14.9683,348.068,-0.939759
14.97,348.085,-0.939806
14.9717,348.101,-0.939856
14.9733,348.118,-0.939902
14.975,348.135,-0.939946
14.9767,348.151,-0.939992
14.9783,348.168,-0.940031
14.98,348.184,-0.940072
14.9817,348.201,-0.940106
14.9833,348.217,-0.940151
14.985,348.234,-0.940206
14.9867,348.25,-0.940256
14.9883,348.267,-0.940304
14.99,348.284,-0.94035
14.9917,348.301,-0.940399
14.9933,348.317,-0.940438
14.995,348.334,-0.940473
14.9967,348.351,-0.9405
14.9983,348.368,-0.940531
15,348.384,-0.940556
15.0017,348.401,-0.940576
15.0033,348.417,-0.940596
15.005,348.434,-0.940616
15.0067,348.45,-0.940638
15.0083,348.467,-0.940672
15.01,348.484,-0.940712
15.0117,348.5,-0.940747
15.0133,348.517,-0.940781
15.015,348.534,-0.940819
15.0167,348.55,-0.940858
15.0183,348.567,-0.940897
15.02,348.584,-0.940926
15.0217,348.6,-0.940949
15.0233,348.617,-0.940968
15.025,348.633,-0.940979
15.0267,348.65,-0.940997
15.0283,348.667,-0.941013
15.03,348.684,-0.941031
15.0317,348.701,-0.941044
15.0333,348.717,-0.941056
15.035,348.734,-0.941074
15.0367,348.75,-0.941084
15.0383,348.767,-0.941096
15.04,348.784,-0.941106
15.0417,348.8,-0.941126
15.0433,348.817,-0.941158
15.045,348.833,-0.941192
15.0467,348.85,-0.941229
15.0483,348.867,-0.941277
15.05,348.883,-0.941329
15.0517,348.9,-0.941387
15.0533,348.917,-0.941507
15.055,348.933,-0.941622
15.0567,348.95,-0.941691
15.0583,348.967,-0.941758
15.06,348.983,-0.941827
15.0617,349,-0.941879
15.0633,349.017,-0.941928
15.065,349.033,-0.941976
15.0667,349.05,-0.942019
15.0683,349.067,-0.942048
15.07,349.084,-0.942064
15.0717,349.1,-0.942075
15.0733,349.117,-0.942095
15.075,349.133,-0.942111
15.0767,349.15,-0.942123
15.0783,349.166,-0.942131
15.08,349.183,-0.942135
15.0817,349.199,-0.942141
15.0833,349.216,-0.942162
15.085,349.233,-0.942185
15.0867,349.249,-0.942211
15.0883,349.266,-0.942238
15.09,349.283,-0.942272
15.0917,349.299,-0.942312
15.0933,349.316,-0.942352
15.095,349.333,-0.942391
15.0967,349.35,-0.942426
15.0983,349.366,-0.942459
15.1,349.383,-0.942495
15.1017,349.4,-0.942544
15.1033,349.416,-0.942592
15.105,349.433,-0.942644
15.1067,349.45,-0.942699
15.1083,349.466,-0.942757
15.11,349.483,-0.942811
15.1117,349.499,-0.942869
15.1133,349.516,-0.942924
15.115,349.533,-0.942978
15.1167,349.549,-0.943033
15.1183,349.566,-0.943095
15.12,349.583,-0.943153
15.1217,349.599,-0.943209
15.1233,349.615,-0.943261
15.125,349.632,-0.943314
15.1267,349.649,-0.94335
15.1283,349.666,-0.943385
15.13,349.683,-0.943421
15.1317,349.699,-0.943452
15.1333,349.716,-0.943479
15.135,349.733,-0.943512
15.1367,349.749,-0.943546
15.1383,349.766,-0.943575
15.14,349.782,-0.943608
15.1417,349.799,-0.943648
15.1433,349.815,-0.943693
15.145,349.832,-0.943733
15.1467,349.849,-0.943757
15.1483,349.866,-0.943782
15.15,349.882,-0.943802
15.1517,349.899,-0.943815
15.1533,349.916,-0.943834
15.155,349.932,-0.943856
15.1567,349.949,-0.943877
15.1583,349.966,-0.943905
15.16,349.982,-0.943934
15.1617,349.999,-0.943969
15.1633,350.016,-0.944012
15.165,350.032,-0.944053
15.1667,350.048,-0.944089
15.1683,350.065,-0.944121
15.17,350.082,-0.944154
15.1717,350.099,-0.944186
15.1733,350.115,-0.944222
15.175,350.132,-0.944247
15.1767,350.149,-0.944269
15.1783,350.165,-0.944294
15.18,350.182,-0.944319
15.1817,350.198,-0.944344
15.1833,350.215,-0.944367
15.185,350.232,-0.944385
15.1867,350.249,-0.944407
15.1883,350.265,-0.944436
15.19,350.282,-0.944469
15.1917,350.299,-0.944517
15.1933,350.315,-0.944568
15.195,350.332,-0.944614
15.1967,350.349,-0.944659
15.1983,350.365,-0.944711
15.2,350.382,-0.944765
15.2017,350.399,-0.944822
15.2033,350.415,-0.944876
15.205,350.431,-0.944917
15.2067,350.448,-0.944954
15.2083,350.465,-0.944985
15.21,350.481,-0.945012
15.2117,350.498,-0.945043
15.2133,350.514,-0.945077
15.215,350.531,-0.945108
15.2167,350.548,-0.945137
15.2183,350.565,-0.94517
15.22,350.581,-0.945204
15.2217,350.598,-0.945238
15.2233,350.615,-0.945268
15.225,350.631,-0.945303
15.2267,350.648,-0.945339
15.2283,350.665,-0.945367
15.23,350.681,-0.945407
15.2317,350.698,-0.945453
15.2333,350.714,-0.945502
15.235,350.731,-0.945548
15.2367,350.748,-0.945597
15.2383,350.764,-0.945645
15.24,350.781,-0.945685
15.2417,350.798,-0.945722
15.2433,350.815,-0.945761
15.245,350.831,-0.945803
15.2467,350.848,-0.945832
15.2483,350.864,-0.945866
15.25,350.881,-0.945899
15.2517,350.898,-0.945944
15.2533,350.915,-0.945987
15.255,350.931,-0.946027
15.2567,350.948,-0.946066
15.2583,350.964,-0.946101
15.26,350.981,-0.946141
15.2617,350.998,-0.946186
15.2633,351.014,-0.946228
15.265,351.031,-0.946273
15.2667,351.047,-0.946329
15.2683,351.064,-0.946391
15.27,351.081,-0.946455
15.2717,351.098,-0.946522
15.2733,351.114,-0.94659
15.275,351.131,-0.94665
15.2767,351.148,-0.946697
15.2783,351.164,-0.946734
15.28,351.181,-0.946761
15.2817,351.198,-0.946779
15.2833,351.214,-0.946794
15.285,351.231,-0.946814
15.2867,351.248,-0.946838
15.2883,351.264,-0.94686
15.29,351.281,-0.946885
15.2917,351.298,-0.946919
15.2933,351.314,-0.946967
15.295,351.331,-0.947021
15.2967,351.347,-0.947068
15.2983,351.364,-0.947113
15.3,351.38,-0.947162
15.3017,351.397,-0.947209
15.3033,351.414,-0.947252
15.305,351.431,-0.947294
15.3067,351.447,-0.947334
15.3083,351.463,-0.947373
15.31,351.48,-0.947405
15.3117,351.497,-0.947431
15.3133,351.514,-0.947449
15.315,351.53,-0.947468
15.3167,351.547,-0.947485
15.3183,351.564,-0.947502
15.32,351.58,-0.947521
15.3217,351.597,-0.947547
15.3233,351.614,-0.947578
15.325,351.631,-0.947619
15.3267,351.647,-0.947677
15.3283,351.664,-0.947748
15.33,351.68,-0.947827
15.3317,351.697,-0.947893
15.3333,351.714,-0.947961
15.335,351.73,-0.948032
15.3367,351.747,-0.948092
15.3383,351.763,-0.948143
15.34,351.78,-0.948184
15.3417,351.796,-0.948208
15.3433,351.813,-0.948228
15.345,351.83,-0.948255
15.3467,351.847,-0.948279
15.3483,351.863,-0.948307
15.35,351.88,-0.94833
15.3517,351.897,-0.948347
15.3533,351.914,-0.948366
15.355,351.93,-0.948392
15.3567,351.947,-0.948424
15.3583,351.963,-0.948456
15.36,351.98,-0.948483
15.3617,351.997,-0.948506
15.3633,352.013,-0.948538
15.365,352.03,-0.948572
15.3667,352.046,-0.948617
15.3683,352.063,-0.948664
15.37,352.08,-0.948717
15.3717,352.097,-0.948771
15.3733,352.113,-0.94883
15.375,352.13,-0.948887
15.3767,352.146,-0.948942
15.3783,352.163,-0.949002
15.38,352.18,-0.949057
15.3817,352.196,-0.949097
15.3833,352.213,-0.949142
15.385,352.23,-0.94919
15.3867,352.246,-0.949249
15.3883,352.263,-0.949309
15.39,352.28,-0.949358
15.3917,352.296,-0.949394
15.3933,352.313,-0.949429
15.395,352.329,-0.949474
15.3967,352.346,-0.949515
15.3983,352.362,-0.94954
15.4,352.379,-0.949561
15.4017,352.396,-0.94958
15.4033,352.413,-0.949603
15.405,352.429,-0.94963
15.4067,352.446,-0.949663
15.4083,352.462,-0.949699
15.41,352.479,-0.949732
15.4117,352.496,-0.949772
15.4133,352.512,-0.94982
15.415,352.529,-0.949867
15.4167,352.545,-0.949913
15.4183,352.562,-0.949961
15.42,352.578,-0.950021
15.4217,352.595,-0.950083
15.4233,352.612,-0.950147
15.425,352.629,-0.950197
15.4267,352.645,-0.950237
15.4283,352.662,-0.950272
15.43,352.679,-0.950298
15.4317,352.696,-0.950315
15.4333,352.712,-0.950333
15.435,352.729,-0.950346
15.4367,352.745,-0.950372
15.4383,352.762,-0.950395
15.44,352.779,-0.950425
15.4417,352.796,-0.950459
15.4433,352.812,-0.950492
15.445,352.829,-0.950524
15.4467,352.846,-0.950555
15.4483,352.862,-0.950581
15.45,352.879,-0.950595
15.4517,352.895,-0.950615
15.4533,352.912,-0.950637
15.455,352.929,-0.950672
15.4567,352.945,-0.950709
15.4583,352.962,-0.950748
15.46,352.979,-0.950787
15.4617,352.996,-0.950834
15.4633,353.012,-0.950878
15.465,353.029,-0.950923
15.4667,353.045,-0.950967
15.4683,353.062,-0.951009
15.47,353.079,-0.951051
15.4717,353.095,-0.95108
15.4733,353.112,-0.951107
15.475,353.129,-0.951136
15.4767,353.146,-0.95117
15.4783,353.162,-0.951209
15.48,353.179,-0.951257
15.4817,353.195,-0.951303
15.4833,353.212,-0.951341
15.485,353.229,-0.95137
15.4867,353.245,-0.951401
15.4883,353.262,-0.951437
15.49,353.279,-0.951468
15.4917,353.295,-0.951505
15.4933,353.312,-0.951545
15.495,353.329,-0.951583
15.4967,353.346,-0.951628
15.4983,353.362,-0.951677
15.5,353.379,-0.951728
15.5017,353.396,-0.951788
15.5033,353.412,-0.951844
15.505,353.429,-0.951903
15.5067,353.445,-0.951965
15.5083,353.462,-0.952026
15.51,353.479,-0.952087
15.5117,353.495,-0.952144
15.5133,353.512,-0.952195
15.515,353.529,-0.952238
15.5167,353.545,-0.952269
15.5183,353.561,-0.952302
15.52,353.578,-0.95234
15.5217,353.595,-0.952366
15.5233,353.612,-0.952391
15.525,353.628,-0.952414
15.5267,353.645,-0.952438
15.5283,353.662,-0.952462
15.53,353.679,-0.952489
15.5317,353.695,-0.952515
15.5333,353.712,-0.952544
15.535,353.729,-0.952576
15.5367,353.745,-0.952605
15.5383,353.762,-0.952639
15.54,353.779,-0.952679
15.5417,353.795,-0.952726
15.5433,353.812,-0.952774
15.545,353.829,-0.952823
15.5467,353.845,-0.952866
15.5483,353.862,-0.952901
15.55,353.878,-0.95294
15.5517,353.895,-0.952975
15.5533,353.912,-0.953011
15.555,353.929,-0.953047
15.5567,353.945,-0.95308
15.5583,353.962,-0.953108
15.56,353.978,-0.953149
15.5617,353.995,-0.953197
15.5633,354.012,-0.95325
15.565,354.028,-0.95331
15.5667,354.045,-0.95336
15.5683,354.061,-0.953409
15.57,354.078,-0.953456
15.5717,354.095,-0.953486
15.5733,354.111,-0.95351
15.575,354.128,-0.953535
15.5767,354.145,-0.953557
15.5783,354.161,-0.95358
15.58,354.178,-0.953593
15.5817,354.195,-0.953615
15.5833,354.211,-0.95365
15.585,354.228,-0.953684
15.5867,354.245,-0.953717
15.5883,354.261,-0.95374
15.59,354.278,-0.953752
15.5917,354.294,-0.953765
15.5933,354.311,-0.953788
15.595,354.328,-0.953813
15.5967,354.344,-0.953839
15.5983,354.361,-0.95386
15.6,354.378,-0.953887
15.6017,354.394,-0.953926
15.6033,354.411,-0.953962
15.605,354.428,-0.954004
15.6067,354.444,-0.954045
15.6083,354.461,-0.954092
15.61,354.477,-0.954146
15.6117,354.495,-0.954216
15.6133,354.511,-0.954274
15.615,354.528,-0.954326
15.6167,354.544,-0.954372
15.6183,354.561,-0.954408
15.62,354.578,-0.954442
15.6217,354.594,-0.954462
15.6233,354.611,-0.954472
15.625,354.627,-0.954471
15.6267,354.644,-0.954451
15.6283,354.661,-0.954452
15.63,354.677,-0.954456
15.6317,354.694,-0.954463
15.6333,354.711,-0.954469
15.635,354.728,-0.954487
15.6367,354.744,-0.954505
15.6383,354.761,-0.954533
15.64,354.777,-0.954563
15.6417,354.794,-0.954599
15.6433,354.811,-0.954645
15.645,354.827,-0.95469
15.6467,354.844,-0.954735
15.6483,354.861,-0.954778
15.65,354.877,-0.954819
15.6517,354.894,-0.954846
15.6533,354.911,-0.954863
15.655,354.928,-0.954886
15.6567,354.944,-0.95491
15.6583,354.961,-0.954927
15.66,354.977,-0.95495
15.6617,354.994,-0.954982
15.6633,355.011,-0.955017
15.665,355.027,-0.955069
15.6667,355.044,-0.955125
15.6683,355.061,-0.955186
15.67,355.077,-0.95526
15.6717,355.093,-0.955321
15.6733,355.11,-0.955385
15.675,355.127,-0.955446
15.6767,355.144,-0.955493
15.6783,355.16,-0.955544
15.68,355.177,-0.955593
15.6817,355.194,-0.955647
15.6833,355.21,-0.955695
15.685,355.227,-0.955742
15.6867,355.243,-0.95578
15.6883,355.26,-0.955812
15.69,355.277,-0.955845
15.6917,355.294,-0.955872
15.6933,355.311,-0.955897
15.695,355.327,-0.955919
15.6967,355.344,-0.955939
15.6983,355.361,-0.955961
15.7,355.377,-0.955974
15.7017,355.393,-0.955991
15.7033,355.41,-0.956011
15.705,355.426,-0.956023
15.7067,355.443,-0.956043
15.7083,355.46,-0.956069
15.71,355.476,-0.956097
15.7117,355.493,-0.956134
15.7133,355.51,-0.956169
15.715,355.526,-0.956201
15.7167,355.543,-0.956231
15.7183,355.56,-0.956257
15.72,355.576,-0.95628
15.7217,355.593,-0.956307
15.7233,355.609,-0.956338
15.725,355.626,-0.956373
15.7267,355.643,-0.956404
15.7283,355.659,-0.956427
15.73,355.676,-0.956457
15.7317,355.693,-0.9565
15.7333,355.71,-0.956551
15.735,355.726,-0.956597
15.7367,355.743,-0.956645
15.7383,355.76,-0.956686
15.74,355.776,-0.956717
15.7417,355.793,-0.956755
15.7433,355.81,-0.956791
15.745,355.826,-0.956815
15.7467,355.843,-0.956827
15.7483,355.86,-0.956851
15.75,355.876,-0.956877
15.7517,355.893,-0.956903
15.7533,355.909,-0.956924
15.755,355.926,-0.95695
15.7567,355.942,-0.956981
15.7583,355.959,-0.95701
15.76,355.976,-0.957044
15.7617,355.992,-0.95708
15.7633,356.009,-0.957125
15.765,356.026,-0.957163
15.7667,356.043,-0.957199
15.7683,356.06,-0.957231
15.77,356.077,-0.957263
15.7717,356.093,-0.957302
15.7733,356.11,-0.957343
15.775,356.126,-0.95738
15.7767,356.143,-0.957417
15.7783,356.16,-0.957458
15.78,356.176,-0.957497
15.7817,356.193,-0.957529
15.7833,356.209,-0.957549
15.785,356.226,-0.957573
15.7867,356.243,-0.957595
15.7883,356.259,-0.957622
15.79,356.276,-0.957656
15.7917,356.293,-0.957686
15.7933,356.309,-0.957716
15.795,356.326,-0.957755
15.7967,356.342,-0.957796
15.7983,356.359,-0.957836
15.8,356.375,-0.957868
15.8017,356.392,-0.957891
15.8033,356.409,-0.95791
15.805,356.426,-0.957941
15.8067,356.442,-0.957981
15.8083,356.459,-0.958022
15.81,356.476,-0.95807
15.8117,356.492,-0.958104
15.8133,356.509,-0.958146
15.815,356.526,-0.958194
15.8167,356.542,-0.958242
15.8183,356.559,-0.958286
15.82,356.576,-0.958334
15.8217,356.592,-0.958377
15.8233,356.609,-0.95841
15.825,356.626,-0.958441
15.8267,356.642,-0.958472
15.8283,356.659,-0.958507
15.83,356.675,-0.958533
15.8317,356.692,-0.958557
15.8333,356.708,-0.958572
15.835,356.725,-0.958587
15.8367,356.742,-0.958605
15.8383,356.758,-0.958627
15.84,356.775,-0.958652
15.8417,356.792,-0.958681
15.8433,356.808,-0.95871
15.845,356.825,-0.958744
15.8467,356.842,-0.958779
15.8483,356.859,-0.958822
15.85,356.876,-0.958857
15.8517,356.892,-0.958889
15.8533,356.908,-0.958928
15.855,356.925,-0.958966
15.8567,356.941,-0.958999
15.8583,356.958,-0.959029
15.86,356.975,-0.959054
15.8617,356.991,-0.959078
15.8633,357.008,-0.959103
15.865,357.025,-0.959124
15.8667,357.042,-0.959144
15.8683,357.058,-0.959162
15.87,357.075,-0.959186
15.8717,357.091,-0.959217
15.8733,357.108,-0.959247
15.875,357.125,-0.959286
15.8767,357.142,-0.959325
15.8783,357.158,-0.959372
15.88,357.175,-0.959416
15.8817,357.192,-0.959455
15.8833,357.208,-0.959496
15.885,357.224,-0.959539
15.8867,357.241,-0.959582
15.8883,357.258,-0.959615
15.89,357.274,-0.959642
15.8917,357.291,-0.959678
15.8933,357.308,-0.959718
15.895,357.324,-0.959746
15.8967,357.341,-0.95978
15.8983,357.358,-0.959812
15.9,357.374,-0.959841
15.9017,357.391,-0.959872
15.9033,357.407,-0.959905
15.905,357.425,-0.959925
15.9067,357.441,-0.959947
15.9083,357.458,-0.959967
15.91,357.475,-0.959987
15.9117,357.491,-0.960008
15.9133,357.508,-0.960026
15.915,357.524,-0.960036
15.9167,357.541,-0.960051
15.9183,357.558,-0.96007
15.92,357.574,-0.960098
15.9217,357.591,-0.960139
15.9233,357.607,-0.960182
15.925,357.624,-0.960231
15.9267,357.641,-0.960277
15.9283,357.657,-0.960316
15.93,357.674,-0.960355
15.9317,357.69,-0.960387
15.9333,357.707,-0.960418
15.935,357.723,-0.960442
15.9367,357.74,-0.960458
15.9383,357.757,-0.960473
15.94,357.774,-0.960499
15.9417,357.79,-0.960534
15.9433,357.807,-0.960574
15.945,357.823,-0.960616
15.9467,357.84,-0.960659
15.9483,357.857,-0.960705
15.95,357.873,-0.960759
15.9517,357.89,-0.960811
15.9533,357.907,-0.960861
15.955,357.923,-0.960905
15.9567,357.94,-0.960948
15.9583,357.957,-0.961
15.96,357.973,-0.961049
15.9617,357.99,-0.961085
15.9633,358.007,-0.961121
15.965,358.023,-0.961153
15.9667,358.04,-0.961184
15.9683,358.057,-0.961212
15.97,358.074,-0.961239
15.9717,358.09,-0.961269
15.9733,358.107,-0.961295
15.975,358.124,-0.961321
15.9767,358.14,-0.961362
15.9783,358.156,-0.961402
15.98,358.173,-0.961442
15.9817,358.19,-0.961489
15.9833,358.206,-0.961531
15.985,358.223,-0.961576
15.9867,358.24,-0.961619
15.9883,358.256,-0.961664
15.99,358.273,-0.96171
15.9917,358.29,-0.961749
15.9933,358.306,-0.961786
15.995,358.323,-0.96181
15.9967,358.34,-0.961826
15.9983,358.356,-0.961848
16,358.373,-0.961864
16.0017,358.39,-0.961877
16.0033,358.406,-0.961893
16.005,358.423,-0.961908
16.0067,358.44,-0.961925
16.0083,358.456,-0.96195
16.01,358.473,-0.961986
16.0117,358.49,-0.962028
16.0133,358.507,-0.962078
16.015,358.524,-0.96212
16.0167,358.54,-0.962162
16.0183,358.556,-0.962212
16.02,358.573,-0.962259
16.0217,358.59,-0.962303
16.0233,358.606,-0.962344
16.025,358.623,-0.96238
16.0267,358.64,-0.962418
16.0283,358.656,-0.962457
16.03,358.673,-0.962497
16.0317,358.69,-0.962538
16.0333,358.706,-0.962579
16.035,358.723,-0.962612
16.0367,358.739,-0.962644
16.0383,358.756,-0.962671
16.04,358.773,-0.962695
16.0417,358.789,-0.962721
16.0433,358.806,-0.962739
16.045,358.823,-0.962761
16.0467,358.839,-0.962791
16.0483,358.856,-0.96282
16.05,358.873,-0.962858
16.0517,358.89,-0.962893
16.0533,358.906,-0.962932
16.055,358.923,-0.962967
16.0567,358.939,-0.963008
16.0583,358.956,-0.963049
16.06,358.973,-0.963084
16.0617,358.989,-0.963116
16.0633,359.006,-0.963147
16.065,359.022,-0.963176
16.0667,359.039,-0.963211
16.0683,359.056,-0.963249
16.07,359.072,-0.963289
16.0717,359.089,-0.96333
16.0733,359.106,-0.963366
16.075,359.122,-0.9634
16.0767,359.139,-0.963431
16.0783,359.156,-0.963465
16.08,359.173,-0.96349
16.0817,359.19,-0.963509
16.0833,359.206,-0.963523
16.085,359.223,-0.963537
16.0867,359.239,-0.963562
16.0883,359.256,-0.963593
16.09,359.272,-0.963637
16.0917,359.289,-0.963692
16.0933,359.306,-0.963766
16.095,359.322,-0.963827
16.0967,359.339,-0.963886
16.0983,359.356,-0.963936
16.1,359.372,-0.963976
16.1017,359.389,-0.964012
16.1033,359.406,-0.964042
16.105,359.422,-0.96407
16.1067,359.439,-0.964099
16.1083,359.456,-0.964123
16.11,359.472,-0.964148
16.1117,359.489,-0.964175
16.1133,359.506,-0.964205
16.115,359.522,-0.964235
16.1167,359.539,-0.964262
16.1183,359.556,-0.964288
16.12,359.572,-0.964312
16.1217,359.589,-0.964338
16.1233,359.606,-0.964362
16.125,359.622,-0.964381
16.1267,359.639,-0.964402
16.1283,359.656,-0.964426
16.13,359.672,-0.964445
16.1317,359.689,-0.964457
16.1333,359.705,-0.964458
16.135,359.722,-0.964462
16.1367,359.738,-0.964469
16.1383,359.755,-0.964476
16.14,359.772,-0.964472
16.1417,359.788,-0.964462
16.1433,359.805,-0.964454
16.145,359.822,-0.964451
16.1467,359.839,-0.964455
16.1483,359.855,-0.964463
16.15,359.872,-0.964477
16.1517,359.889,-0.964498
16.1533,359.905,-0.96453
16.155,359.922,-0.964567
16.1567,359.939,-0.964606
16.1583,359.955,-0.964645
16.16,359.972,-0.964692
16.1617,359.989,-0.964744
16.1633,360.005,-0.964798
16.165,360.022,-0.964848
16.1667,360.038,-0.964891
16.1683,360.055,-0.964928
16.17,360.072,-0.964953
16.1717,360.088,-0.964969
16.1733,360.105,-0.964986
16.175,360.122,-0.964998
16.1767,360.139,-0.96501
16.1783,360.155,-0.965017
16.18,360.172,-0.965034
16.1817,360.188,-0.965054
16.1833,360.205,-0.965074
16.185,360.221,-0.96509
16.1867,360.238,-0.965109
16.1883,360.254,-0.965126
16.19,360.271,-0.965146
16.1917,360.288,-0.965167
16.1933,360.305,-0.965193
16.195,360.322,-0.965217
16.1967,360.338,-0.965246
16.1983,360.355,-0.965286
16.2,360.372,-0.965329
16.2017,360.388,-0.965378
16.2033,360.405,-0.965417
16.205,360.422,-0.965454
16.2067,360.438,-0.965488
16.2083,360.455,-0.965533
16.21,360.472,-0.965582
16.2117,360.488,-0.965649
16.2133,360.505,-0.965738
16.215,360.522,-0.965798
16.2167,360.539,-0.965858
16.2183,360.555,-0.965912
16.22,360.572,-0.965952
16.2217,360.589,-0.965969
16.2233,360.605,-0.96598
16.225,360.622,-0.965988
16.2267,360.638,-0.965999
16.2283,360.655,-0.966013
16.23,360.671,-0.966024
16.2317,360.688,-0.96603
16.2333,360.705,-0.966051
16.235,360.721,-0.96608
16.2367,360.738,-0.966113
16.2383,360.755,-0.966144
16.24,360.771,-0.966177
16.2417,360.788,-0.966217
16.2433,360.804,-0.966263
16.245,360.821,-0.966311
16.2467,360.838,-0.966349
16.2483,360.854,-0.966382
16.25,360.871,-0.966419
16.2517,360.888,-0.966455
16.2533,360.904,-0.966489
16.255,360.921,-0.966523
16.2567,360.937,-0.966553
16.2583,360.955,-0.966577
16.26,360.971,-0.966608
16.2617,360.988,-0.966632
16.2633,361.004,-0.966651
16.265,361.021,-0.966666
16.2667,361.038,-0.966673
16.2683,361.054,-0.96668
16.27,361.071,-0.96668
16.2717,361.088,-0.966681
16.2733,361.104,-0.966687
16.275,361.121,-0.966684
16.2767,361.137,-0.966693
16.2783,361.154,-0.96671
16.28,361.171,-0.966733
16.2817,361.187,-0.966756
16.2833,361.204,-0.96678
16.285,361.221,-0.966812
16.2867,361.238,-0.966841
16.2883,361.255,-0.966859
16.29,361.271,-0.966867
16.2917,361.288,-0.966881
16.2933,361.304,-0.966894
16.295,361.321,-0.966914
16.2967,361.338,-0.96693
16.2983,361.355,-0.966953
16.3,361.371,-0.966982
16.3017,361.388,-0.967022
16.3033,361.404,-0.96706
16.305,361.421,-0.967109
16.3067,361.438,-0.967158
16.3083,361.454,-0.96721
16.31,361.471,-0.967259
16.3117,361.487,-0.967301
16.3133,361.504,-0.967332
16.315,361.521,-0.967351
16.3167,361.537,-0.967366
16.3183,361.555,-0.967378
16.32,361.571,-0.967384
16.3217,361.588,-0.967392
16.3233,361.604,-0.967405
16.325,361.621,-0.967422
16.3267,361.638,-0.967446
16.3283,361.654,-0.967482
16.33,361.671,-0.967525
16.3317,361.687,-0.96758
16.3333,361.704,-0.967622
16.335,361.721,-0.967665
16.3367,361.737,-0.967699
16.3383,361.754,-0.967732
16.34,361.771,-0.967761
16.3417,361.787,-0.967791
16.3433,361.804,-0.967812
16.345,361.82,-0.967835
16.3467,361.837,-0.967857
16.3483,361.854,-0.967875
16.35,361.87,-0.967895
16.3517,361.887,-0.967919
16.3533,361.904,-0.96795
16.355,361.92,-0.967987
16.3567,361.937,-0.968034
16.3583,361.954,-0.968073
16.36,361.97,-0.968109
16.3617,361.987,-0.968144
16.3633,362.004,-0.96817
16.365,362.02,-0.968196
16.3667,362.037,-0.968223
16.3683,362.054,-0.968241
16.37,362.07,-0.968257
16.3717,362.087,-0.968275
16.3733,362.104,-0.968288
16.375,362.12,-0.9683
16.3767,362.137,-0.968314
16.3783,362.154,-0.96834
16.38,362.17,-0.968371
16.3817,362.187,-0.968398
16.3833,362.204,-0.968428
16.385,362.22,-0.968456
16.3867,362.237,-0.968477
16.3883,362.253,-0.96851
16.39,362.27,-0.968538
16.3917,362.287,-0.96857
16.3933,362.304,-0.968599
16.395,362.32,-0.968625
16.3967,362.337,-0.968658
16.3983,362.353,-0.968683
16.4,362.37,-0.968712
16.4017,362.387,-0.968738
16.4033,362.403,-0.968771
16.405,362.42,-0.968805
16.4067,362.437,-0.968848
16.4083,362.454,-0.968892
16.41,362.47,-0.96893
16.4117,362.487,-0.96897
16.4133,362.504,-0.969004
16.415,362.52,-0.96904
16.4167,362.537,-0.969074
16.4183,362.553,-0.9691
16.42,362.57,-0.969116
16.4217,362.587,-0.969137
16.4233,362.604,-0.969162
16.425,362.62,-0.969189
16.4267,362.637,-0.96921
16.4283,362.653,-0.969222
16.43,362.67,-0.969241
16.4317,362.686,-0.969266
16.4333,362.703,-0.969291
16.435,362.72,-0.969318
16.4367,362.736,-0.969341
16.4383,362.753,-0.969373
16.44,362.77,-0.969407
16.4417,362.786,-0.969445
16.4433,362.803,-0.969477
16.445,362.82,-0.969509
16.4467,362.837,-0.969536
16.4483,362.853,-0.969569
16.45,362.87,-0.969587
16.4517,362.887,-0.969597
16.4533,362.903,-0.969599
16.455,362.92,-0.969605
16.4567,362.937,-0.969607
16.4583,362.953,-0.969605
16.46,362.969,-0.969608
16.4617,362.986,-0.969617
16.4633,363.003,-0.969626
16.465,363.019,-0.969637
16.4667,363.036,-0.969665
16.4683,363.053,-0.969702
16.47,363.069,-0.969745
16.4717,363.086,-0.969792
16.4733,363.103,-0.969839
16.475,363.119,-0.969884
16.4767,363.136,-0.969933
16.4783,363.153,-0.969974
16.48,363.169,-0.970001
16.4817,363.186,-0.970026
16.4833,363.203,-0.970047
16.485,363.22,-0.970063
16.4867,363.236,-0.970073
16.4883,363.253,-0.970079
16.49,363.27,-0.970083
16.4917,363.286,-0.970089
16.4933,363.303,-0.970104
16.495,363.32,-0.970111
16.4967,363.336,-0.970128
16.4983,363.352,-0.97015
16.5,363.369,-0.970188
16.5017,363.386,-0.970228
16.5033,363.402,-0.970273
16.505,363.419,-0.970315
16.5067,363.436,-0.970349
16.5083,363.452,-0.97039
16.51,363.469,-0.970426
16.5117,363.486,-0.970452
16.5133,363.502,-0.970474
16.515,363.519,-0.970487
16.5167,363.535,-0.970498
16.5183,363.552,-0.970516
16.52,363.569,-0.970528
16.5217,363.586,-0.97055
16.5233,363.603,-0.97057
16.525,363.619,-0.970594
16.5267,363.636,-0.970624
16.5283,363.652,-0.970663
16.53,363.669,-0.970705
16.5317,363.686,-0.970735
16.5333,363.702,-0.97076
16.535,363.719,-0.970781
16.5367,363.736,-0.970807
16.5383,363.752,-0.970831
16.54,363.769,-0.970856
16.5417,363.785,-0.970886
16.5433,363.802,-0.970917
16.545,363.819,-0.97095
16.5467,363.835,-0.970988
16.5483,363.852,-0.971023
16.55,363.869,-0.971062
16.5517,363.885,-0.971104
16.5533,363.902,-0.971136
16.555,363.918,-0.971168
16.5567,363.935,-0.971187
16.5583,363.952,-0.9712
16.56,363.969,-0.971205
16.5617,363.985,-0.971203
16.5633,364.002,-0.971205
16.565,364.018,-0.971203
16.5667,364.035,-0.971208
16.5683,364.052,-0.971212
16.57,364.068,-0.971219
16.5717,364.085,-0.971235
16.5733,364.102,-0.971252
16.575,364.118,-0.971271
16.5767,364.135,-0.971287
16.5783,364.152,-0.971307
16.58,364.168,-0.971322
16.5817,364.185,-0.971338
16.5833,364.202,-0.971346
16.585,364.218,-0.971364
16.5867,364.235,-0.971381
16.5883,364.252,-0.971396
16.59,364.268,-0.971411
16.5917,364.285,-0.971434
16.5933,364.302,-0.971466
16.595,364.319,-0.971502
16.5967,364.335,-0.97154
16.5983,364.352,-0.971586
16.6,364.368,-0.971626
16.6017,364.385,-0.971673
16.6033,364.402,-0.971723
16.605,364.418,-0.971795
16.6067,364.435,-0.971845
16.6083,364.451,-0.971885
16.61,364.468,-0.971928
16.6117,364.484,-0.971962
16.6133,364.501,-0.971986
16.615,364.517,-0.972008
16.6167,364.534,-0.972025
16.6183,364.551,-0.972046
16.62,364.567,-0.97207
16.6217,364.584,-0.972096
16.6233,364.601,-0.972125
16.625,364.618,-0.972155
16.6267,364.634,-0.972182
16.6283,364.651,-0.972211
16.63,364.668,-0.972243
16.6317,364.685,-0.972264
16.6333,364.701,-0.972278
16.635,364.718,-0.972288
16.6367,364.734,-0.972299
16.6383,364.751,-0.97231
16.64,364.768,-0.972316
16.6417,364.784,-0.972323
16.6433,364.801,-0.972326
16.645,364.818,-0.972333
16.6467,364.834,-0.972349
16.6483,364.851,-0.972372
16.65,364.867,-0.9724
16.6517,364.884,-0.972426
16.6533,364.901,-0.972454
16.655,364.917,-0.972483
16.6567,364.934,-0.972513
16.6583,364.951,-0.972537
16.66,364.967,-0.972549
16.6617,364.984,-0.972559
16.6633,365.001,-0.972563
16.665,365.018,-0.972561
16.6667,365.034,-0.972548
16.6683,365.051,-0.97253
16.67,365.067,-0.972512
16.6717,365.084,-0.972496
16.6733,365.101,-0.972482
16.675,365.117,-0.972475
16.6767,365.134,-0.972477
16.6783,365.15,-0.972483
16.68,365.167,-0.972499
16.6817,365.183,-0.972536
16.6833,365.2,-0.972599
16.685,365.217,-0.972644
16.6867,365.233,-0.972699
16.6883,365.25,-0.972747
16.69,365.267,-0.972822
16.6917,365.284,-0.972869
16.6933,365.3,-0.972918
16.695,365.317,-0.972958
16.6967,365.334,-0.972993
16.6983,365.35,-0.973018
16.7,365.367,-0.973037
16.7017,365.383,-0.973043
16.7033,365.4,-0.973039
16.705,365.417,-0.973033
16.7067,365.433,-0.973024
16.7083,365.45,-0.973018
16.71,365.466,-0.973012
16.7117,365.484,-0.973007
16.7133,365.5,-0.973008
16.715,365.517,-0.973012
16.7167,365.533,-0.973015
16.7183,365.55,-0.973021
16.72,365.567,-0.973025
16.7217,365.583,-0.973038
16.7233,365.6,-0.973054
16.725,365.616,-0.973074
16.7267,365.633,-0.973104
16.7283,365.65,-0.973139
16.73,365.666,-0.973191
16.7317,365.683,-0.973288
16.7333,365.7,-0.973346
16.735,365.716,-0.973424
16.7367,365.733,-0.973488
16.7383,365.75,-0.97353
16.74,365.766,-0.973569
16.7417,365.783,-0.973591
16.7433,365.8,-0.973607
16.745,365.817,-0.973618
16.7467,365.833,-0.973631
16.7483,365.85,-0.973635
16.75,365.867,-0.973631
16.7517,365.883,-0.973632
16.7533,365.9,-0.973632
16.755,365.916,-0.973633
16.7567,365.933,-0.973638
16.7583,365.949,-0.973644
16.76,365.966,-0.973656
16.7617,365.982,-0.973671
16.7633,365.999,-0.973689
16.765,366.016,-0.97372
16.7667,366.033,-0.973754
16.7683,366.049,-0.973788
16.77,366.065,-0.973824
16.7717,366.082,-0.973855
16.7733,366.099,-0.973881
16.775,366.115,-0.973903
16.7767,366.131,-0.973916
16.7783,366.148,-0.973923
16.78,366.164,-0.973923
16.7817,366.181,-0.973921
16.7833,366.198,-0.973938
16.785,366.215,-0.973959
16.7867,366.232,-0.973981
16.7883,366.248,-0.974016
16.79,366.265,-0.974057
16.7917,366.282,-0.974105
16.7933,366.299,-0.974153
16.795,366.315,-0.974197
16.7967,366.332,-0.974244
16.7983,366.348,-0.974288
16.8,366.365,-0.974322
16.8017,366.382,-0.974353
16.8033,366.398,-0.974375
16.805,366.415,-0.974395
16.8067,366.431,-0.974412
16.8083,366.448,-0.974426
16.81,366.465,-0.974444
16.8117,366.481,-0.974453
16.8133,366.498,-0.974462
16.815,366.515,-0.974476
16.8167,366.531,-0.974497
16.8183,366.548,-0.97451
16.82,366.565,-0.97453
16.8217,366.582,-0.974545
16.8233,366.598,-0.97455
16.825,366.615,-0.974555
16.8267,366.631,-0.974563
16.8283,366.648,-0.974564
16.83,366.665,-0.974561
16.8317,366.682,-0.97456
16.8333,366.698,-0.974571
16.835,366.715,-0.974576
16.8367,366.732,-0.974587
16.8383,366.749,-0.974613
16.84,366.765,-0.974645
16.8417,366.782,-0.974681
16.8433,366.799,-0.974721
16.845,366.815,-0.974767
16.8467,366.832,-0.974807
16.8483,366.849,-0.974848
16.85,366.865,-0.974885
16.8517,366.882,-0.974915
16.8533,366.899,-0.974941
16.855,366.915,-0.974967
16.8567,366.932,-0.974993
16.8583,366.949,-0.975015
16.86,366.965,-0.975037
16.8617,366.982,-0.975063
16.8633,366.999,-0.975089
16.865,367.015,-0.975118
16.8667,367.032,-0.975148
16.8683,367.048,-0.975187
16.87,367.065,-0.975215
16.8717,367.081,-0.975242
16.8733,367.098,-0.97528
16.875,367.115,-0.975314
16.8767,367.132,-0.975344
16.8783,367.148,-0.975371
16.88,367.164,-0.975398
16.8817,367.181,-0.975418
16.8833,367.198,-0.97543
16.885,367.215,-0.975431
16.8867,367.231,-0.975438
16.8883,367.248,-0.975449
16.89,367.265,-0.975451
16.8917,367.282,-0.975452
16.8933,367.298,-0.975457
16.895,367.315,-0.97546
16.8967,367.331,-0.97547
16.8983,367.348,-0.975485
16.9,367.364,-0.975514
16.9017,367.381,-0.975545
16.9033,367.398,-0.97558
16.905,367.415,-0.975624
16.9067,367.431,-0.975671
16.9083,367.448,-0.975721
16.91,367.464,-0.975769
16.9117,367.481,-0.975809
16.9133,367.498,-0.975836
16.915,367.514,-0.975861
16.9167,367.531,-0.97587
16.9183,367.548,-0.975882
16.92,367.564,-0.975887
16.9217,367.581,-0.975885
16.9233,367.598,-0.975879
16.925,367.614,-0.975876
16.9267,367.631,-0.975883
16.9283,367.648,-0.9759
16.93,367.664,-0.975922
16.9317,367.681,-0.975944
16.9333,367.697,-0.975966
16.935,367.714,-0.975987
16.9367,367.731,-0.976
16.9383,367.747,-0.976015
16.94,367.764,-0.976029
16.9417,367.781,-0.976035
16.9433,367.797,-0.976041
16.945,367.814,-0.976047
16.9467,367.831,-0.976054
16.9483,367.847,-0.976071
16.95,367.864,-0.976089
16.9517,367.88,-0.976112
16.9533,367.897,-0.976142
16.955,367.913,-0.976178
16.9567,367.93,-0.976222
16.9583,367.947,-0.976261
16.96,367.964,-0.976296
16.9617,367.98,-0.976322
16.9633,367.997,-0.976342
16.965,368.014,-0.976354
16.9667,368.031,-0.976363
16.9683,368.047,-0.976369
16.97,368.063,-0.976373
16.9717,368.08,-0.976376
16.9733,368.097,-0.976388
16.975,368.114,-0.976412
16.9767,368.13,-0.97644
16.9783,368.147,-0.97647
16.98,368.163,-0.976498
16.9817,368.18,-0.976524
16.9833,368.197,-0.976547
16.985,368.214,-0.976563
16.9867,368.23,-0.976573
16.9883,368.246,-0.976578
16.99,368.264,-0.976572
16.9917,368.28,-0.976579
16.9933,368.297,-0.976589
16.995,368.314,-0.976604
16.9967,368.331,-0.976618
16.9983,368.348,-0.976632
17,368.364,-0.976653
17.0017,368.38,-0.976676
17.0033,368.397,-0.976698
17.005,368.413,-0.976722
17.0067,368.43,-0.976743
17.0083,368.447,-0.976759
17.01,368.464,-0.976779
17.0117,368.481,-0.976803
17.0133,368.497,-0.976823
17.015,368.514,-0.976834
17.0167,368.53,-0.976853
17.0183,368.547,-0.976878
17.02,368.564,-0.976917
17.0217,368.58,-0.976952
17.0233,368.597,-0.976982
17.025,368.613,-0.977009
17.0267,368.63,-0.977026
17.0283,368.647,-0.977038
17.03,368.663,-0.977048
17.0317,368.68,-0.977062
17.0333,368.696,-0.977082
17.035,368.713,-0.977099
17.0367,368.73,-0.977119
17.0383,368.746,-0.977145
17.04,368.763,-0.977172
17.0417,368.78,-0.977193
17.0433,368.796,-0.977211
17.045,368.813,-0.977231
17.0467,368.83,-0.977241
17.0483,368.847,-0.977258
17.05,368.863,-0.977277
17.0517,368.88,-0.977307
17.0533,368.896,-0.977345
17.055,368.913,-0.977378
17.0567,368.93,-0.97741
17.0583,368.946,-0.977434
17.06,368.963,-0.977454
17.0617,368.979,-0.977468
17.0633,368.996,-0.977483
17.065,369.013,-0.977489
17.0667,369.029,-0.977486
17.0683,369.046,-0.977477
17.07,369.063,-0.977477
17.0717,369.079,-0.977482
17.0733,369.096,-0.977488
17.075,369.113,-0.97748
17.0767,369.129,-0.977468
17.0783,369.146,-0.977469
17.08,369.162,-0.977474
17.0817,369.179,-0.977483
17.0833,369.196,-0.977497
17.085,369.213,-0.97752
17.0867,369.229,-0.977541
17.0883,369.246,-0.977574
17.09,369.263,-0.977612
17.0917,369.28,-0.97765
17.0933,369.296,-0.977691
17.095,369.312,-0.977729
17.0967,369.329,-0.977766
17.0983,369.346,-0.977796
17.1,369.363,-0.977822
17.1017,369.379,-0.977844
17.1033,369.396,-0.977861
17.105,369.412,-0.977872
17.1067,369.429,-0.977883
17.1083,369.445,-0.977895
17.11,369.462,-0.977908
17.1117,369.479,-0.977928
17.1133,369.495,-0.977951
17.115,369.512,-0.977971
17.1167,369.529,-0.977985
17.1183,369.545,-0.978
17.12,369.562,-0.978007
17.1217,369.579,-0.978024
17.1233,369.595,-0.978038
17.125,369.612,-0.978041
17.1267,369.629,-0.978055
17.1283,369.645,-0.978077
17.13,369.662,-0.9781
17.1317,369.678,-0.978126
17.1333,369.695,-0.978161
17.135,369.712,-0.978191
17.1367,369.728,-0.978223
17.1383,369.745,-0.978246
17.14,369.762,-0.97826
17.1417,369.779,-0.978269
17.1433,369.795,-0.978275
17.145,369.812,-0.978274
17.1467,369.829,-0.978276
17.1483,369.845,-0.978286
17.15,369.862,-0.978298
17.1517,369.879,-0.978318
17.1533,369.895,-0.978345
17.155,369.912,-0.978378
17.1567,369.929,-0.978417
17.1583,369.945,-0.978452
17.16,369.962,-0.97849
17.1617,369.979,-0.97852
17.1633,369.995,-0.978541
17.165,370.011,-0.978557
17.1667,370.028,-0.978568
17.1683,370.045,-0.978575
17.17,370.061,-0.978585
17.1717,370.078,-0.97859
17.1733,370.095,-0.978597
17.175,370.111,-0.978609
17.1767,370.128,-0.978619
17.1783,370.145,-0.978631
17.18,370.161,-0.97865
17.1817,370.178,-0.978669
17.1833,370.195,-0.97869
17.185,370.211,-0.978712
17.1867,370.228,-0.978732
17.1883,370.244,-0.978761
17.19,370.261,-0.978797
17.1917,370.278,-0.978828
17.1933,370.294,-0.978851
17.195,370.311,-0.978877
17.1967,370.328,-0.978905
17.1983,370.345,-0.978925
17.2,370.361,-0.978946
17.2017,370.378,-0.978963
17.2033,370.395,-0.978984
17.205,370.411,-0.978999
17.2067,370.428,-0.979003
17.2083,370.445,-0.979008
17.21,370.461,-0.979017
17.2117,370.478,-0.979032
17.2133,370.495,-0.97905
17.215,370.511,-0.979067
17.2167,370.528,-0.979084
17.2183,370.545,-0.979105
17.22,370.561,-0.979122
17.2217,370.578,-0.979128
17.2233,370.594,-0.97912
17.225,370.611,-0.979108
17.2267,370.628,-0.979088
17.2283,370.644,-0.97907
17.23,370.661,-0.979054
17.2317,370.678,-0.979045
17.2333,370.695,-0.979047
17.235,370.711,-0.979056
17.2367,370.727,-0.979072
17.2383,370.745,-0.979099
17.24,370.761,-0.979129
17.2417,370.778,-0.979154
17.2433,370.794,-0.979192
17.245,370.811,-0.979227
17.2467,370.827,-0.97925
17.2483,370.844,-0.979268
17.25,370.861,-0.97928
17.2517,370.877,-0.979297
17.2533,370.894,-0.979314
17.255,370.91,-0.979333
17.2567,370.927,-0.979348
17.2583,370.944,-0.979364
17.26,370.96,-0.979381
17.2617,370.977,-0.979407
17.2633,370.994,-0.979443
17.265,371.011,-0.979475
17.2667,371.027,-0.979516
17.2683,371.044,-0.979562
17.27,371.06,-0.979603
17.2717,371.077,-0.979637
17.2733,371.094,-0.979671
17.275,371.11,-0.979691
17.2767,371.127,-0.979703
17.2783,371.144,-0.979715
17.28,371.161,-0.979725
17.2817,371.177,-0.979727
17.2833,371.194,-0.979715
17.285,371.211,-0.979699
17.2867,371.227,-0.979689
17.2883,371.244,-0.979688
17.29,371.261,-0.979687
17.2917,371.277,-0.979692
17.2933,371.294,-0.979706
17.295,371.311,-0.979728
17.2967,371.327,-0.979756
17.2983,371.344,-0.97978
17.3,371.36,-0.979812
17.3017,371.377,-0.979847
17.3033,371.393,-0.979878
17.305,371.41,-0.979896
17.3067,371.426,-0.979913
17.3083,371.443,-0.979926
17.31,371.46,-0.979935
17.3117,371.477,-0.979941
17.3133,371.493,-0.97994
17.315,371.51,-0.979941
17.3167,371.526,-0.979943
17.3183,371.543,-0.979937
17.32,371.56,-0.979935
17.3217,371.576,-0.97994
17.3233,371.593,-0.979951
17.325,371.609,-0.979971
17.3267,371.626,-0.979999
17.3283,371.642,-0.980041
17.33,371.659,-0.980078
17.3317,371.676,-0.980109
17.3333,371.692,-0.980138
17.335,371.709,-0.98017
17.3367,371.726,-0.980199
17.3383,371.743,-0.980222
17.34,371.759,-0.980237
17.3417,371.776,-0.980251
17.3433,371.792,-0.980262
17.345,371.809,-0.980275
17.3467,371.826,-0.980291
17.3483,371.842,-0.980311
17.35,371.859,-0.980323
17.3517,371.876,-0.980333
17.3533,371.892,-0.980338
17.355,371.908,-0.980343
17.3567,371.925,-0.980344
17.3583,371.942,-0.980344
17.36,371.958,-0.980357
17.3617,371.975,-0.980375
17.3633,371.991,-0.980395
17.365,372.008,-0.980416
17.3667,372.025,-0.980433
17.3683,372.042,-0.980441
17.37,372.058,-0.980434
17.3717,372.075,-0.980425
17.3733,372.092,-0.980413
17.375,372.108,-0.980404
17.3767,372.125,-0.980395
17.3783,372.142,-0.980389
17.38,372.159,-0.980384
17.3817,372.175,-0.980388
17.3833,372.191,-0.980406
17.385,372.208,-0.98043
17.3867,372.225,-0.980471
17.3883,372.241,-0.980514
17.39,372.258,-0.980552
17.3917,372.275,-0.980594
17.3933,372.291,-0.980639
17.395,372.308,-0.98068
17.3967,372.324,-0.980722
17.3983,372.341,-0.980752
17.4,372.358,-0.980771
17.4017,372.375,-0.980791
17.4033,372.391,-0.980814
17.405,372.408,-0.980839
17.4067,372.425,-0.980859
17.4083,372.441,-0.980882
17.41,372.457,-0.9809
17.4117,372.474,-0.980913
17.4133,372.491,-0.98093
17.415,372.508,-0.980943
17.4167,372.524,-0.980954
17.4183,372.541,-0.980967
17.42,372.558,-0.980982
17.4217,372.574,-0.980992
17.4233,372.591,-0.981005
17.425,372.608,-0.981019
17.4267,372.625,-0.981044
17.4283,372.641,-0.981081
17.43,372.657,-0.981123
17.4317,372.674,-0.981167
17.4333,372.691,-0.981207
17.435,372.707,-0.981248
17.4367,372.724,-0.981289
17.4383,372.741,-0.981321
17.44,372.757,-0.981348
17.4417,372.774,-0.981368
17.4433,372.79,-0.981386
17.445,372.807,-0.981405
17.4467,372.824,-0.981433
17.4483,372.841,-0.981464
17.45,372.857,-0.981495
17.4517,372.874,-0.981529
17.4533,372.891,-0.981567
17.455,372.907,-0.981603
17.4567,372.924,-0.981632
17.4583,372.941,-0.981656
17.46,372.957,-0.981665
17.4617,372.974,-0.981672
17.4633,372.99,-0.981674
17.465,373.007,-0.981672
17.4667,373.024,-0.981671
17.4683,373.041,-0.981669
17.47,373.057,-0.981669
17.4717,373.073,-0.981677
17.4733,373.09,-0.981693
17.475,373.107,-0.981712
17.4767,373.123,-0.981731
17.4783,373.14,-0.981751
17.48,373.157,-0.981769
17.4817,373.173,-0.981789
17.4833,373.19,-0.981803
17.485,373.206,-0.981817
17.4867,373.223,-0.981828
17.4883,373.24,-0.981842
17.49,373.257,-0.981845
17.4917,373.273,-0.981849
17.4933,373.29,-0.981852
17.495,373.306,-0.981857
17.4967,373.323,-0.981871
17.4983,373.34,-0.981883
17.5,373.356,-0.981899
17.5017,373.373,-0.981913
17.5033,373.39,-0.981921
17.505,373.406,-0.981929
