Ramp 10.00 °C/min to 375.00 °C,,
Time,Temperature,Heat Flow (Normalized)
min,°C,W/g
5.00333,249.861,-0.221889
5.005,249.861,-0.221904
5.00667,249.861,-0.221916
5.00833,249.861,-0.221931
5.01,249.861,-0.221947
5.01167,249.861,-0.221959
5.01333,249.861,-0.221969
5.015,249.861,-0.221979
5.01667,249.861,-0.221994
5.01833,249.861,-0.222007
5.02,249.861,-0.222009
5.02167,249.861,-0.222015
5.02333,249.862,-0.222029
5.025,249.862,-0.222049
5.02667,249.863,-0.222069
5.02833,249.863,-0.222096
5.03,249.864,-0.222127
5.03167,249.865,-0.222161
5.03333,249.866,-0.222211
5.035,249.866,-0.222252
5.03667,249.867,-0.222292
5.03833,249.868,-0.222327
5.04,249.869,-0.222355
5.04167,249.871,-0.22238
5.04333,249.872,-0.222394
5.045,249.873,-0.222395
5.04667,249.874,-0.222388
5.04833,249.876,-0.222359
5.05,249.878,-0.22226
5.05167,249.88,-0.22199
5.05333,249.881,-0.221535
5.055,249.884,-0.220818
5.05667,249.886,-0.21978
5.05833,249.889,-0.2184
5.06,249.891,-0.215988
5.06167,249.893,-0.212808
5.06333,249.896,-0.208818
5.065,249.899,-0.203898
5.06667,249.902,-0.198644
5.06833,249.905,-0.19339
5.07,249.909,-0.187861
5.07167,249.912,-0.181638
5.07333,249.916,-0.175426
5.075,249.921,-0.171239
5.07667,249.925,-0.168238
5.07833,249.93,-0.164261
5.08,249.934,-0.161275
5.08167,249.939,-0.158762
5.08333,249.944,-0.155972
5.085,249.949,-0.154
5.08667,249.954,-0.152705
5.08833,249.96,-0.151489
5.09,249.966,-0.150095
5.09167,249.972,-0.149548
5.09333,249.978,-0.149738
5.095,249.984,-0.150457
5.09667,249.991,-0.151239
5.09833,249.998,-0.152048
5.1,250.005,-0.152887
5.10167,250.012,-0.153662
5.10333,250.019,-0.156383
5.105,250.027,-0.158187
5.10667,250.035,-0.159249
5.10833,250.043,-0.159622
5.11,250.05,-0.160326
5.11167,250.058,-0.161518
5.11333,250.067,-0.163424
5.115,250.075,-0.166912
5.11667,250.084,-0.173341
5.11833,250.093,-0.183481
5.12,250.102,-0.196783
5.12167,250.112,-0.210751
5.12333,250.121,-0.222779
5.125,250.131,-0.233125
5.12667,250.141,-0.244197
5.12833,250.15,-0.254115
5.13,250.161,-0.263513
5.13167,250.171,-0.273586
5.13333,250.181,-0.281348
5.135,250.192,-0.289967
5.13667,250.202,-0.299282
5.13833,250.212,-0.307761
5.14,250.224,-0.316218
5.14167,250.235,-0.323643
5.14333,250.246,-0.331236
5.145,250.257,-0.340063
5.14667,250.268,-0.350072
5.14833,250.279,-0.359749
5.15,250.291,-0.36902
5.15167,250.303,-0.377716
5.15333,250.315,-0.386552
5.155,250.327,-0.394152
5.15667,250.338,-0.402152
5.15833,250.35,-0.409981
5.16,250.362,-0.417124
5.16167,250.375,-0.425312
5.16333,250.387,-0.433157
5.165,250.399,-0.44146
5.16667,250.412,-0.450886
5.16833,250.424,-0.459012
5.17,250.437,-0.468354
5.17167,250.45,-0.475293
5.17333,250.462,-0.483564
5.175,250.475,-0.489751
5.17667,250.488,-0.496343
5.17833,250.501,-0.501989
5.18,250.514,-0.507763
5.18167,250.527,-0.513286
5.18333,250.541,-0.518572
5.185,250.554,-0.524469
5.18667,250.568,-0.530997
5.18833,250.581,-0.538126
5.19,250.595,-0.543832
5.19167,250.608,-0.550642
5.19333,250.622,-0.557307
5.195,250.635,-0.563628
5.19667,250.649,-0.568992
5.19833,250.663,-0.574034
5.2,250.677,-0.578995
5.20167,250.691,-0.583655
5.20333,250.704,-0.588249
5.205,250.719,-0.593286
5.20667,250.733,-0.597207
5.20833,250.747,-0.601996
5.21,250.761,-0.607041
5.21167,250.775,-0.612109
5.21333,250.79,-0.616656
5.215,250.804,-0.620389
5.21667,250.818,-0.623637
5.21833,250.833,-0.626625
5.22,250.847,-0.629679
5.22167,250.862,-0.633086
5.22333,250.876,-0.637914
5.225,250.891,-0.641649
5.22667,250.906,-0.644673
5.22833,250.92,-0.648603
5.23,250.935,-0.65214
5.23167,250.95,-0.655837
5.23333,250.965,-0.659978
5.235,250.979,-0.663349
5.23667,250.994,-0.666408
5.23833,251.008,-0.669669
5.24,251.023,-0.672719
5.24167,251.038,-0.676029
5.24333,251.053,-0.679917
5.245,251.068,-0.682344
5.24667,251.083,-0.686139
5.24833,251.098,-0.688392
5.25,251.113,-0.690652
5.25167,251.129,-0.694203
5.25333,251.144,-0.696371
5.255,251.159,-0.69972
5.25667,251.174,-0.702793
5.25833,251.189,-0.705394
5.26,251.205,-0.709406
5.26167,251.22,-0.712454
5.26333,251.235,-0.71558
5.265,251.25,-0.718214
5.26667,251.266,-0.721986
5.26833,251.281,-0.723886
5.27,251.296,-0.725903
5.27167,251.312,-0.728429
5.27333,251.327,-0.730271
5.275,251.343,-0.731402
5.27667,251.358,-0.732214
5.27833,251.374,-0.733945
5.28,251.389,-0.735846
5.28167,251.405,-0.736707
5.28333,251.42,-0.737172
5.285,251.436,-0.738913
5.28667,251.451,-0.740923
5.28833,251.467,-0.743318
5.29,251.483,-0.746063
5.29167,251.499,-0.748483
5.29333,251.514,-0.750705
5.295,251.53,-0.753184
5.29667,251.545,-0.756548
5.29833,251.561,-0.759512
5.3,251.577,-0.760977
5.30167,251.593,-0.762179
5.30333,251.609,-0.763626
5.305,251.624,-0.765534
5.30667,251.64,-0.766302
5.30833,251.656,-0.767895
5.31,251.671,-0.769584
5.31167,251.687,-0.770633
5.31333,251.703,-0.770917
5.315,251.719,-0.771827
5.31667,251.735,-0.77345
5.31833,251.751,-0.774455
5.32,251.767,-0.775164
5.32167,251.782,-0.775841
5.32333,251.798,-0.776366
5.325,251.814,-0.776915
5.32667,251.83,-0.777662
5.32833,251.846,-0.77907
5.33,251.862,-0.780274
5.33167,251.878,-0.781208
5.33333,251.894,-0.782208
5.335,251.91,-0.783123
5.33667,251.926,-0.78393
5.33833,251.942,-0.784612
5.34,251.958,-0.78557
5.34167,251.974,-0.786651
5.34333,251.99,-0.788081
5.345,252.006,-0.789769
5.34667,252.022,-0.791486
5.34833,252.038,-0.792933
5.35,252.054,-0.793996
5.35167,252.07,-0.79485
5.35333,252.086,-0.795307
5.355,252.102,-0.795624
5.35667,252.118,-0.796147
5.35833,252.134,-0.796778
5.36,252.15,-0.797443
5.36167,252.166,-0.798119
5.36333,252.183,-0.799084
5.365,252.199,-0.799966
5.36667,252.215,-0.800821
5.36833,252.231,-0.801483
5.37,252.247,-0.801877
5.37167,252.264,-0.802238
5.37333,252.28,-0.802672
5.375,252.295,-0.803239
5.37667,252.312,-0.804012
5.37833,252.328,-0.804836
5.38,252.344,-0.805685
5.38167,252.36,-0.806581
5.38333,252.376,-0.807262
5.385,252.392,-0.807894
5.38667,252.408,-0.808498
5.38833,252.425,-0.809128
5.39,252.441,-0.809746
5.39167,252.457,-0.810075
5.39333,252.473,-0.810586
5.395,252.489,-0.810999
5.39667,252.506,-0.811489
5.39833,252.522,-0.812012
5.4,252.538,-0.81252
5.40167,252.555,-0.812968
5.40333,252.571,-0.81337
5.405,252.587,-0.813807
5.40667,252.603,-0.814166
5.40833,252.62,-0.814408
5.41,252.636,-0.814628
5.41167,252.652,-0.81482
5.41333,252.668,-0.815
5.415,252.684,-0.815325
5.41667,252.701,-0.815713
5.41833,252.717,-0.816238
5.42,252.733,-0.816942
5.42167,252.749,-0.817678
5.42333,252.766,-0.818402
5.425,252.782,-0.819014
5.42667,252.798,-0.819456
5.42833,252.814,-0.820006
5.43,252.831,-0.820554
5.43167,252.847,-0.82112
5.43333,252.863,-0.821626
5.435,252.879,-0.822221
5.43667,252.896,-0.82279
5.43833,252.912,-0.823531
5.44,252.928,-0.824298
5.44167,252.944,-0.824875
5.44333,252.961,-0.825242
5.445,252.977,-0.825481
5.44667,252.993,-0.825684
5.44833,253.009,-0.825832
5.45,253.025,-0.825937
5.45167,253.042,-0.826015
5.45333,253.058,-0.826061
5.455,253.075,-0.826118
5.45667,253.091,-0.826203
5.45833,253.107,-0.826395
5.46,253.124,-0.82665
5.46167,253.14,-0.827015
5.46333,253.156,-0.827511
5.465,253.173,-0.82795
5.46667,253.189,-0.828334
5.46833,253.205,-0.828773
5.47,253.222,-0.829204
5.47167,253.238,-0.82961
5.47333,253.255,-0.829911
5.475,253.271,-0.830067
5.47667,253.287,-0.830154
5.47833,253.304,-0.830216
5.48,253.32,-0.830258
5.48167,253.336,-0.830307
5.48333,253.352,-0.830654
5.485,253.369,-0.830947
5.48667,253.385,-0.831218
5.48833,253.401,-0.831268
5.49,253.418,-0.831372
5.49167,253.434,-0.831514
5.49333,253.451,-0.831659
5.495,253.467,-0.831871
5.49667,253.483,-0.832107
5.49833,253.499,-0.832355
5.5,253.516,-0.832557
5.50167,253.532,-0.832716
5.50333,253.549,-0.832888
5.505,253.565,-0.83309
5.50667,253.581,-0.833261
5.50833,253.598,-0.833422
5.51,253.614,-0.833547
5.51167,253.631,-0.833646
5.51333,253.647,-0.833713
5.515,253.663,-0.833805
5.51667,253.68,-0.833889
5.51833,253.696,-0.833943
5.52,253.712,-0.834003
5.52167,253.729,-0.834113
5.52333,253.745,-0.834305
5.525,253.762,-0.834527
5.52667,253.778,-0.834911
5.52833,253.794,-0.835355
5.53,253.811,-0.83596
5.53167,253.827,-0.836449
5.53333,253.844,-0.836935
5.535,253.86,-0.837309
5.53667,253.877,-0.83759
5.53833,253.893,-0.837809
5.54,253.909,-0.837944
5.54167,253.925,-0.83805
5.54333,253.942,-0.83816
5.545,253.959,-0.838282
5.54667,253.975,-0.838428
5.54833,253.991,-0.83864
5.55,254.008,-0.838895
5.55167,254.024,-0.839158
5.55333,254.041,-0.839511
5.555,254.057,-0.839794
5.55667,254.073,-0.840146
5.55833,254.09,-0.840423
5.56,254.106,-0.840581
5.56167,254.123,-0.840725
5.56333,254.139,-0.840805
5.565,254.156,-0.841136
5.56667,254.172,-0.841372
5.56833,254.188,-0.841454
5.57,254.205,-0.841566
5.57167,254.221,-0.841708
5.57333,254.238,-0.841893
5.575,254.254,-0.841965
5.57667,254.271,-0.842044
5.57833,254.287,-0.842194
5.58,254.304,-0.842356
5.58167,254.32,-0.842484
5.58333,254.337,-0.842632
5.585,254.353,-0.842737
5.58667,254.369,-0.84282
5.58833,254.386,-0.842899
5.59,254.402,-0.843075
5.59167,254.418,-0.84315
5.59333,254.435,-0.843225
5.595,254.451,-0.843311
5.59667,254.468,-0.843398
5.59833,254.484,-0.843541
5.6,254.5,-0.843845
5.60167,254.517,-0.844289
5.60333,254.533,-0.844718
5.605,254.55,-0.84527
5.60667,254.567,-0.845964
5.60833,254.583,-0.846543
5.61,254.599,-0.846915
5.61167,254.616,-0.847208
5.61333,254.632,-0.847409
5.615,254.649,-0.847722
5.61667,254.665,-0.84789
5.61833,254.682,-0.847973
5.62,254.698,-0.84803
5.62167,254.715,-0.848078
5.62333,254.731,-0.848131
5.625,254.748,-0.848242
5.62667,254.764,-0.848323
5.62833,254.781,-0.848425
5.63,254.797,-0.848527
5.63167,254.814,-0.848654
5.63333,254.83,-0.848911
5.635,254.846,-0.849139
5.63667,254.863,-0.849286
5.63833,254.879,-0.849408
5.64,254.895,-0.849503
5.64167,254.912,-0.849598
5.64333,254.929,-0.849693
5.645,254.945,-0.849785
5.64667,254.961,-0.849883
5.64833,254.978,-0.849977
5.65,254.994,-0.850078
5.65167,255.01,-0.850189
5.65333,255.027,-0.850339
5.655,255.044,-0.850457
5.65667,255.06,-0.850557
5.65833,255.077,-0.850659
5.66,255.093,-0.850756
5.66167,255.11,-0.850851
5.66333,255.126,-0.850946
5.665,255.142,-0.851041
5.66667,255.159,-0.851141
5.66833,255.175,-0.851245
5.67,255.192,-0.851348
5.67167,255.208,-0.851452
5.67333,255.225,-0.851551
5.675,255.241,-0.851651
5.67667,255.258,-0.851749
5.67833,255.274,-0.851842
5.68,255.291,-0.851937
5.68167,255.307,-0.85204
5.68333,255.323,-0.852135
5.685,255.34,-0.852239
5.68667,255.356,-0.85234
5.68833,255.373,-0.852446
5.69,255.389,-0.852555
5.69167,255.406,-0.852661
5.69333,255.422,-0.852765
5.695,255.439,-0.852873
5.69667,255.456,-0.852982
5.69833,255.472,-0.853085
5.7,255.489,-0.853185
5.70167,255.505,-0.85329
5.70333,255.522,-0.853401
5.705,255.538,-0.853509
5.70667,255.555,-0.853612
5.70833,255.571,-0.853704
5.71,255.588,-0.853792
5.71167,255.604,-0.853881
5.71333,255.621,-0.853978
5.715,255.637,-0.854081
5.71667,255.654,-0.85418
5.71833,255.67,-0.854285
5.72,255.686,-0.854396
5.72167,255.703,-0.854507
5.72333,255.719,-0.854657
5.725,255.736,-0.854775
5.72667,255.752,-0.854896
5.72833,255.769,-0.855043
5.73,255.785,-0.855179
5.73167,255.802,-0.855336
5.73333,255.819,-0.855458
5.735,255.835,-0.855566
5.73667,255.851,-0.855669
5.73833,255.867,-0.855778
5.74,255.884,-0.855887
5.74167,255.901,-0.855991
5.74333,255.917,-0.85609
5.745,255.934,-0.856185
5.74667,255.95,-0.856274
5.74833,255.966,-0.856365
5.75,255.983,-0.856452
5.75167,256,-0.856539
5.75333,256.016,-0.85663
5.755,256.033,-0.856725
5.75667,256.049,-0.856829
5.75833,256.066,-0.85694
5.76,256.082,-0.857055
5.76167,256.099,-0.857169
5.76333,256.115,-0.857283
5.765,256.132,-0.857398
5.76667,256.148,-0.857519
5.76833,256.165,-0.857689
5.77,256.181,-0.857875
5.77167,256.198,-0.858077
5.77333,256.214,-0.858241
5.775,256.231,-0.858439
5.77667,256.248,-0.858564
5.77833,256.264,-0.85868
5.78,256.28,-0.858787
5.78167,256.297,-0.858891
5.78333,256.313,-0.858998
5.785,256.33,-0.859093
5.78667,256.346,-0.859199
5.78833,256.363,-0.859308
5.79,256.38,-0.859421
5.79167,256.396,-0.859535
5.79333,256.413,-0.859661
5.795,256.43,-0.859786
5.79667,256.446,-0.859907
5.79833,256.462,-0.860024
5.8,256.479,-0.860136
5.80167,256.495,-0.860249
5.80333,256.512,-0.860369
5.805,256.528,-0.860492
5.80667,256.545,-0.860624
5.80833,256.561,-0.860754
5.81,256.577,-0.860903
5.81167,256.594,-0.861029
5.81333,256.61,-0.861147
5.815,256.627,-0.861259
5.81667,256.644,-0.861354
5.81833,256.661,-0.861446
5.82,256.677,-0.861534
5.82167,256.694,-0.861619
5.82333,256.71,-0.861701
5.825,256.727,-0.861795
5.82667,256.743,-0.8619
5.82833,256.76,-0.862007
5.83,256.777,-0.862119
5.83167,256.793,-0.862241
5.83333,256.81,-0.862366
5.835,256.826,-0.86249
5.83667,256.843,-0.862613
5.83833,256.859,-0.862741
5.84,256.876,-0.862869
5.84167,256.893,-0.862988
5.84333,256.909,-0.863101
5.845,256.926,-0.863216
5.84667,256.942,-0.86334
5.84833,256.958,-0.863462
5.85,256.975,-0.863593
5.85167,256.991,-0.863723
5.85333,257.008,-0.863853
5.855,257.024,-0.863979
5.85667,257.041,-0.864104
5.85833,257.058,-0.864233
5.86,257.074,-0.864368
5.86167,257.091,-0.864496
5.86333,257.107,-0.864627
5.865,257.124,-0.864754
5.86667,257.141,-0.864876
5.86833,257.157,-0.864989
5.87,257.174,-0.865101
5.87167,257.19,-0.865202
5.87333,257.206,-0.865291
5.875,257.223,-0.865371
5.87667,257.24,-0.86545
5.87833,257.256,-0.865527
5.88,257.273,-0.865612
5.88167,257.29,-0.865698
5.88333,257.306,-0.865791
5.885,257.323,-0.865895
5.88667,257.339,-0.866013
5.88833,257.356,-0.866136
5.89,257.372,-0.866305
5.89167,257.389,-0.866544
5.89333,257.405,-0.866708
5.895,257.421,-0.866861
5.89667,257.438,-0.866984
5.89833,257.455,-0.867098
5.9,257.472,-0.867206
5.90167,257.488,-0.867298
5.90333,257.504,-0.867385
5.905,257.521,-0.867473
5.90667,257.537,-0.867557
5.90833,257.554,-0.867643
5.91,257.57,-0.867736
5.91167,257.587,-0.867836
5.91333,257.604,-0.867938
5.915,257.62,-0.868049
5.91667,257.637,-0.868163
5.91833,257.653,-0.868278
5.92,257.67,-0.868392
5.92167,257.686,-0.868509
5.92333,257.703,-0.868621
5.925,257.72,-0.868735
5.92667,257.737,-0.868847
5.92833,257.753,-0.868954
5.93,257.77,-0.869052
5.93167,257.786,-0.869146
5.93333,257.803,-0.869241
5.935,257.819,-0.869329
5.93667,257.836,-0.869421
5.93833,257.853,-0.869517
5.94,257.869,-0.869618
5.94167,257.886,-0.869718
5.94333,257.902,-0.869812
5.945,257.919,-0.869907
5.94667,257.935,-0.870006
5.94833,257.952,-0.870102
5.95,257.968,-0.870197
5.95167,257.985,-0.870301
5.95333,258.001,-0.8704
5.955,258.018,-0.870499
5.95667,258.035,-0.870602
5.95833,258.051,-0.870707
5.96,258.067,-0.870821
5.96167,258.084,-0.870936
5.96333,258.1,-0.871056
5.965,258.117,-0.871179
5.96667,258.134,-0.871302
5.96833,258.15,-0.871427
5.97,258.167,-0.871548
5.97167,258.183,-0.871662
5.97333,258.2,-0.871757
5.975,258.217,-0.871847
5.97667,258.233,-0.871933
5.97833,258.25,-0.872013
5.98,258.266,-0.872096
5.98167,258.283,-0.872176
5.98333,258.299,-0.87226
5.985,258.316,-0.872369
5.98667,258.332,-0.872488
5.98833,258.349,-0.872604
5.99,258.365,-0.872725
5.99167,258.382,-0.872843
5.99333,258.399,-0.872961
5.995,258.415,-0.873081
5.99667,258.431,-0.873216
5.99833,258.448,-0.873331
6,258.464,-0.873429
6.00167,258.481,-0.873519
6.00333,258.498,-0.873608
6.005,258.515,-0.873698
6.00667,258.531,-0.873781
6.00833,258.548,-0.873869
6.01,258.565,-0.87396
6.01167,258.581,-0.874051
6.01333,258.598,-0.874144
6.015,258.615,-0.874245
6.01667,258.631,-0.87435
6.01833,258.647,-0.87445
6.02,258.664,-0.874548
6.02167,258.681,-0.874634
6.02333,258.698,-0.874719
6.025,258.714,-0.874809
6.02667,258.73,-0.874903
6.02833,258.747,-0.874998
6.03,258.764,-0.875095
6.03167,258.78,-0.875189
6.03333,258.797,-0.875287
6.035,258.814,-0.875387
6.03667,258.83,-0.875484
6.03833,258.847,-0.875585
6.04,258.864,-0.875685
6.04167,258.88,-0.875789
6.04333,258.897,-0.875894
6.045,258.913,-0.875995
6.04667,258.93,-0.876092
6.04833,258.946,-0.876184
6.05,258.963,-0.876282
6.05167,258.979,-0.876387
6.05333,258.996,-0.876487
6.055,259.013,-0.876582
6.05667,259.029,-0.876678
6.05833,259.046,-0.876782
6.06,259.062,-0.87689
6.06167,259.079,-0.876994
6.06333,259.096,-0.8771
6.065,259.113,-0.877205
6.06667,259.129,-0.877311
6.06833,259.146,-0.87741
6.07,259.162,-0.877503
6.07167,259.179,-0.87758
6.07333,259.195,-0.877654
6.075,259.212,-0.87774
6.07667,259.228,-0.877826
6.07833,259.245,-0.877909
6.08,259.262,-0.878
6.08167,259.278,-0.878098
6.08333,259.295,-0.878193
6.085,259.311,-0.878287
6.08667,259.327,-0.87839
6.08833,259.344,-0.878493
6.09,259.361,-0.878588
6.09167,259.377,-0.878681
6.09333,259.394,-0.878775
6.095,259.411,-0.878864
6.09667,259.427,-0.87895
6.09833,259.444,-0.879029
6.1,259.46,-0.879099
6.10167,259.477,-0.879176
6.10333,259.493,-0.879257
6.105,259.51,-0.879336
6.10667,259.526,-0.879405
6.10833,259.543,-0.879477
6.11,259.56,-0.879549
6.11167,259.576,-0.879621
6.11333,259.593,-0.879695
6.115,259.61,-0.879773
6.11667,259.626,-0.879849
6.11833,259.643,-0.879931
6.12,259.659,-0.880019
6.12167,259.676,-0.880112
6.12333,259.693,-0.880204
6.125,259.709,-0.88029
6.12667,259.726,-0.880374
6.12833,259.742,-0.880459
6.13,259.759,-0.880542
6.13167,259.775,-0.880616
6.13333,259.792,-0.880687
6.135,259.808,-0.88076
6.13667,259.825,-0.880834
6.13833,259.841,-0.880904
6.14,259.858,-0.880975
6.14167,259.875,-0.881046
6.14333,259.892,-0.881117
6.145,259.908,-0.881186
6.14667,259.925,-0.881259
6.14833,259.941,-0.881336
6.15,259.958,-0.881412
6.15167,259.975,-0.881487
6.15333,259.991,-0.881564
6.155,260.008,-0.881647
6.15667,260.025,-0.881735
6.15833,260.041,-0.881825
6.16,260.058,-0.881914
6.16167,260.074,-0.882004
6.16333,260.091,-0.882088
6.165,260.107,-0.882161
6.16667,260.124,-0.882232
6.16833,260.14,-0.882296
6.17,260.157,-0.882362
6.17167,260.174,-0.882428
6.17333,260.191,-0.882495
6.175,260.207,-0.882565
6.17667,260.224,-0.882633
6.17833,260.24,-0.882713
6.18,260.257,-0.882805
6.18167,260.273,-0.882899
6.18333,260.29,-0.882988
6.185,260.307,-0.883073
6.18667,260.323,-0.883155
6.18833,260.34,-0.883225
6.19,260.357,-0.883295
6.19167,260.373,-0.883368
6.19333,260.39,-0.883433
6.195,260.407,-0.8835
6.19667,260.423,-0.883565
6.19833,260.44,-0.883625
6.2,260.457,-0.883687
6.20167,260.473,-0.88375
6.20333,260.49,-0.883807
6.205,260.506,-0.883859
6.20667,260.523,-0.883921
6.20833,260.539,-0.88399
6.21,260.556,-0.884075
6.21167,260.572,-0.884169
6.21333,260.589,-0.884311
6.215,260.605,-0.884458
6.21667,260.622,-0.884692
6.21833,260.639,-0.884893
6.22,260.655,-0.885032
6.22167,260.672,-0.88513
6.22333,260.688,-0.885212
6.225,260.705,-0.88528
6.22667,260.722,-0.885336
6.22833,260.739,-0.885378
6.23,260.755,-0.88541
6.23167,260.772,-0.885441
6.23333,260.789,-0.885478
6.235,260.805,-0.885526
6.23667,260.822,-0.88558
6.23833,260.838,-0.885639
6.24,260.855,-0.885706
6.24167,260.871,-0.885784
6.24333,260.888,-0.885866
6.245,260.905,-0.885952
6.24667,260.922,-0.886035
6.24833,260.938,-0.886117
6.25,260.954,-0.886189
6.25167,260.971,-0.886253
6.25333,260.988,-0.886314
6.255,261.004,-0.886367
6.25667,261.021,-0.886429
6.25833,261.038,-0.886486
6.26,261.054,-0.886549
6.26167,261.071,-0.886609
6.26333,261.087,-0.886673
6.265,261.104,-0.886733
6.26667,261.12,-0.886806
6.26833,261.137,-0.886881
6.27,261.154,-0.886963
6.27167,261.171,-0.887053
6.27333,261.187,-0.887136
6.275,261.204,-0.887225
6.27667,261.22,-0.887305
6.27833,261.237,-0.887381
6.28,261.254,-0.887458
6.28167,261.27,-0.887532
6.28333,261.287,-0.887605
6.285,261.303,-0.887669
6.28667,261.32,-0.887743
6.28833,261.336,-0.887814
6.29,261.353,-0.887882
6.29167,261.37,-0.887952
6.29333,261.387,-0.888012
6.295,261.403,-0.888068
6.29667,261.42,-0.888116
6.29833,261.436,-0.888167
6.3,261.453,-0.888219
6.30167,261.469,-0.888271
6.30333,261.486,-0.888328
6.305,261.503,-0.888388
6.30667,261.52,-0.888459
6.30833,261.537,-0.888529
6.31,261.553,-0.888601
6.31167,261.57,-0.88867
6.31333,261.586,-0.888742
6.315,261.603,-0.888807
6.31667,261.619,-0.888871
6.31833,261.636,-0.888937
6.32,261.652,-0.888994
6.32167,261.669,-0.889049
6.32333,261.686,-0.889098
6.325,261.702,-0.889155
6.32667,261.719,-0.88921
6.32833,261.735,-0.889266
6.33,261.752,-0.889325
6.33167,261.769,-0.889385
6.33333,261.786,-0.889454
6.335,261.802,-0.889533
6.33667,261.819,-0.889614
6.33833,261.836,-0.889702
6.34,261.852,-0.889787
6.34167,261.869,-0.889874
6.34333,261.885,-0.889966
6.345,261.902,-0.890071
6.34667,261.918,-0.890155
6.34833,261.935,-0.890227
6.35,261.951,-0.890293
6.35167,261.968,-0.89035
6.35333,261.985,-0.890399
6.355,262.001,-0.890437
6.35667,262.018,-0.890469
6.35833,262.034,-0.89049
6.36,262.051,-0.89051
6.36167,262.068,-0.890536
6.36333,262.084,-0.890571
6.365,262.101,-0.890609
6.36667,262.117,-0.890647
6.36833,262.134,-0.890696
6.37,262.151,-0.890748
6.37167,262.167,-0.890807
6.37333,262.184,-0.890873
6.375,262.201,-0.890949
6.37667,262.217,-0.891021
6.37833,262.234,-0.891092
6.38,262.25,-0.891161
6.38167,262.267,-0.891221
6.38333,262.284,-0.891281
6.385,262.3,-0.891342
6.38667,262.317,-0.891402
6.38833,262.333,-0.891467
6.39,262.35,-0.891526
6.39167,262.367,-0.891576
6.39333,262.383,-0.891624
6.395,262.4,-0.891665
6.39667,262.417,-0.891702
6.39833,262.433,-0.891745
6.4,262.45,-0.891787
6.40167,262.466,-0.891833
6.40333,262.482,-0.891875
6.405,262.499,-0.89192
6.40667,262.516,-0.891969
6.40833,262.532,-0.89202
6.41,262.549,-0.892071
6.41167,262.566,-0.892122
6.41333,262.583,-0.892169
6.415,262.6,-0.892218
6.41667,262.616,-0.89226
6.41833,262.633,-0.892307
6.42,262.649,-0.892358
6.42167,262.666,-0.892415
6.42333,262.683,-0.892468
6.425,262.699,-0.892528
6.42667,262.716,-0.892591
6.42833,262.732,-0.892652
6.43,262.749,-0.892714
6.43167,262.766,-0.892781
6.43333,262.782,-0.892846
6.435,262.799,-0.892903
6.43667,262.816,-0.892954
6.43833,262.832,-0.893004
6.44,262.849,-0.893058
6.44167,262.865,-0.893111
6.44333,262.882,-0.893161
6.445,262.899,-0.893209
6.44667,262.915,-0.893256
6.44833,262.932,-0.893305
6.45,262.949,-0.893348
6.45167,262.966,-0.893387
6.45333,262.982,-0.893424
6.455,262.998,-0.893457
6.45667,263.015,-0.893487
6.45833,263.032,-0.893518
6.46,263.048,-0.893557
6.46167,263.065,-0.893608
6.46333,263.082,-0.893661
6.465,263.099,-0.893724
6.46667,263.115,-0.893789
6.46833,263.132,-0.89385
6.47,263.149,-0.893914
6.47167,263.165,-0.893984
6.47333,263.181,-0.894046
6.475,263.198,-0.894102
6.47667,263.214,-0.89415
6.47833,263.231,-0.894202
6.48,263.248,-0.894247
6.48167,263.264,-0.894292
6.48333,263.281,-0.894332
6.485,263.298,-0.894382
6.48667,263.315,-0.894438
6.48833,263.331,-0.894499
6.49,263.348,-0.894574
6.49167,263.365,-0.894638
6.49333,263.381,-0.894701
6.495,263.398,-0.894763
6.49667,263.414,-0.894826
6.49833,263.431,-0.894882
6.5,263.447,-0.894927
6.50167,263.463,-0.894962
6.50333,263.48,-0.894997
6.505,263.497,-0.895042
6.50667,263.514,-0.895094
6.50833,263.53,-0.895145
6.51,263.547,-0.895201
6.51167,263.563,-0.895251
6.51333,263.58,-0.895309
6.515,263.596,-0.895373
6.51667,263.613,-0.895429
6.51833,263.63,-0.89549
6.52,263.647,-0.895553
6.52167,263.663,-0.895609
6.52333,263.679,-0.895663
6.525,263.696,-0.895715
6.52667,263.713,-0.895765
6.52833,263.73,-0.895811
6.53,263.746,-0.895856
6.53167,263.763,-0.895895
6.53333,263.779,-0.895928
6.535,263.796,-0.895955
6.53667,263.813,-0.895986
6.53833,263.829,-0.896027
6.54,263.846,-0.896077
6.54167,263.863,-0.896131
6.54333,263.879,-0.896188
6.545,263.896,-0.896254
6.54667,263.913,-0.896321
6.54833,263.929,-0.896391
6.55,263.946,-0.896463
6.55167,263.962,-0.89653
6.55333,263.979,-0.896591
6.555,263.996,-0.896642
6.55667,264.012,-0.896694
6.55833,264.028,-0.896739
6.56,264.044,-0.896776
6.56167,264.061,-0.896808
6.56333,264.078,-0.896836
6.565,264.094,-0.896873
6.56667,264.111,-0.896912
6.56833,264.128,-0.896953
6.57,264.144,-0.896986
6.57167,264.161,-0.897023
6.57333,264.177,-0.89706
6.575,264.194,-0.897096
6.57667,264.21,-0.897127
6.57833,264.227,-0.897158
6.58,264.244,-0.897185
6.58167,264.26,-0.89721
6.58333,264.277,-0.89723
6.585,264.294,-0.897256
6.58667,264.311,-0.897284
6.58833,264.327,-0.897301
6.59,264.344,-0.897326
6.59167,264.361,-0.89735
6.59333,264.377,-0.897383
6.595,264.394,-0.897415
6.59667,264.41,-0.897449
6.59833,264.427,-0.897482
6.6,264.443,-0.897519
6.60167,264.46,-0.897553
6.60333,264.477,-0.897587
6.605,264.493,-0.897633
6.60667,264.51,-0.897683
6.60833,264.527,-0.897743
6.61,264.543,-0.897806
6.61167,264.56,-0.897875
6.61333,264.576,-0.897978
6.615,264.593,-0.898147
6.61667,264.61,-0.898241
6.61833,264.627,-0.898311
6.62,264.643,-0.898372
6.62167,264.659,-0.898429
6.62333,264.676,-0.898487
6.625,264.693,-0.898537
6.62667,264.71,-0.898571
6.62833,264.727,-0.898604
6.63,264.743,-0.898641
6.63167,264.76,-0.898685
6.63333,264.777,-0.898731
6.635,264.793,-0.898772
6.63667,264.81,-0.898809
6.63833,264.826,-0.898838
6.64,264.843,-0.89886
6.64167,264.86,-0.89889
6.64333,264.876,-0.898924
6.645,264.893,-0.898951
6.64667,264.91,-0.898972
6.64833,264.926,-0.899001
6.65,264.943,-0.899038
6.65167,264.959,-0.899082
6.65333,264.976,-0.899125
6.655,264.993,-0.899171
6.65667,265.009,-0.899216
6.65833,265.026,-0.899258
6.66,265.043,-0.899305
6.66167,265.059,-0.89936
6.66333,265.076,-0.89942
6.665,265.092,-0.899478
6.66667,265.109,-0.899531
6.66833,265.126,-0.899582
6.67,265.142,-0.899635
6.67167,265.159,-0.899694
6.67333,265.176,-0.899742
6.675,265.193,-0.899779
6.67667,265.209,-0.899812
6.67833,265.226,-0.899839
6.68,265.243,-0.899861
6.68167,265.259,-0.899877
6.68333,265.276,-0.899889
6.685,265.292,-0.899906
6.68667,265.309,-0.899927
6.68833,265.325,-0.899956
6.69,265.342,-0.899997
6.69167,265.359,-0.900041
6.69333,265.375,-0.900087
6.695,265.392,-0.900146
6.69667,265.408,-0.900205
6.69833,265.425,-0.900262
6.7,265.442,-0.90031
6.70167,265.458,-0.900355
6.70333,265.475,-0.900396
6.705,265.491,-0.900437
6.70667,265.508,-0.900478
6.70833,265.525,-0.900518
6.71,265.541,-0.900547
6.71167,265.558,-0.900573
6.71333,265.575,-0.900602
6.715,265.591,-0.900626
6.71667,265.608,-0.900649
6.71833,265.625,-0.900676
6.72,265.641,-0.900706
6.72167,265.658,-0.900726
6.72333,265.675,-0.900748
6.725,265.691,-0.900778
6.72667,265.708,-0.90082
6.72833,265.724,-0.900861
6.73,265.741,-0.900902
6.73167,265.758,-0.900945
6.73333,265.774,-0.90099
6.735,265.791,-0.901035
6.73667,265.808,-0.901078
6.73833,265.824,-0.901126
6.74,265.841,-0.901168
6.74167,265.857,-0.901197
6.74333,265.874,-0.901223
6.745,265.891,-0.901254
6.74667,265.907,-0.901288
6.74833,265.924,-0.901323
6.75,265.94,-0.901356
6.75167,265.957,-0.901391
6.75333,265.974,-0.901421
6.755,265.99,-0.90145
6.75667,266.007,-0.901483
6.75833,266.024,-0.901515
6.76,266.04,-0.90154
6.76167,266.057,-0.901566
6.76333,266.074,-0.901589
6.765,266.091,-0.901612
6.76667,266.107,-0.901632
6.76833,266.124,-0.901651
6.77,266.141,-0.901673
6.77167,266.157,-0.901703
6.77333,266.174,-0.901741
6.775,266.19,-0.901783
6.77667,266.207,-0.901836
6.77833,266.224,-0.901894
6.78,266.24,-0.901954
6.78167,266.257,-0.902018
6.78333,266.274,-0.902083
6.785,266.291,-0.902136
6.78667,266.307,-0.902179
6.78833,266.323,-0.902214
6.79,266.34,-0.90225
6.79167,266.357,-0.902275
6.79333,266.373,-0.902293
6.795,266.39,-0.902309
6.79667,266.407,-0.902332
6.79833,266.423,-0.902359
6.8,266.44,-0.902396
6.80167,266.457,-0.902441
6.80333,266.473,-0.902485
6.805,266.49,-0.90252
6.80667,266.506,-0.90255
6.80833,266.523,-0.902577
6.81,266.539,-0.902603
6.81167,266.556,-0.902629
6.81333,266.573,-0.902661
6.815,266.589,-0.902694
6.81667,266.606,-0.90273
6.81833,266.623,-0.902768
6.82,266.639,-0.902806
6.82167,266.656,-0.902849
6.82333,266.672,-0.902895
6.825,266.689,-0.902945
6.82667,266.706,-0.903001
6.82833,266.723,-0.903055
6.83,266.739,-0.903109
6.83167,266.756,-0.903177
6.83333,266.773,-0.903248
6.835,266.789,-0.90331
6.83667,266.806,-0.903371
6.83833,266.822,-0.903421
6.84,266.839,-0.90347
6.84167,266.855,-0.903512
6.84333,266.872,-0.903548
6.845,266.889,-0.903581
6.84667,266.906,-0.903615
6.84833,266.923,-0.903644
6.85,266.939,-0.903667
6.85167,266.956,-0.903692
6.85333,266.972,-0.903723
6.855,266.989,-0.903759
6.85667,267.006,-0.903796
6.85833,267.022,-0.903832
6.86,267.039,-0.903869
6.86167,267.056,-0.903907
6.86333,267.072,-0.903948
6.865,267.089,-0.903994
6.86667,267.105,-0.904039
6.86833,267.122,-0.904082
6.87,267.139,-0.904122
6.87167,267.155,-0.904159
6.87333,267.172,-0.904193
6.875,267.189,-0.904228
6.87667,267.205,-0.904259
6.87833,267.222,-0.904285
6.88,267.239,-0.904316
6.88167,267.256,-0.904341
6.88333,267.272,-0.904366
6.885,267.289,-0.904385
6.88667,267.306,-0.904402
6.88833,267.322,-0.904415
6.89,267.339,-0.904423
6.89167,267.355,-0.904434
6.89333,267.372,-0.904448
6.895,267.389,-0.90447
6.89667,267.405,-0.904493
6.89833,267.422,-0.90453
6.9,267.439,-0.904579
6.90167,267.455,-0.904627
6.90333,267.472,-0.904672
6.905,267.489,-0.904715
6.90667,267.505,-0.904749
6.90833,267.521,-0.904781
6.91,267.538,-0.904808
6.91167,267.555,-0.904835
6.91333,267.571,-0.904856
6.915,267.588,-0.904878
6.91667,267.605,-0.904904
6.91833,267.621,-0.904934
6.92,267.638,-0.904968
6.92167,267.654,-0.905007
6.92333,267.671,-0.905051
6.925,267.688,-0.905104
6.92667,267.705,-0.905163
6.92833,267.721,-0.905214
6.93,267.738,-0.905261
6.93167,267.755,-0.905305
6.93333,267.771,-0.905346
6.935,267.788,-0.905384
6.93667,267.804,-0.905421
6.93833,267.821,-0.905453
6.94,267.838,-0.905481
6.94167,267.855,-0.905507
6.94333,267.871,-0.905543
6.945,267.888,-0.905583
6.94667,267.904,-0.905627
6.94833,267.921,-0.905662
6.95,267.937,-0.905693
6.95167,267.954,-0.90572
6.95333,267.97,-0.905748
6.955,267.988,-0.905776
6.95667,268.004,-0.905801
6.95833,268.021,-0.905822
6.96,268.038,-0.90584
6.96167,268.054,-0.905863
6.96333,268.071,-0.905887
6.965,268.087,-0.90591
6.96667,268.104,-0.905932
6.96833,268.121,-0.905956
6.97,268.138,-0.905978
6.97167,268.154,-0.906003
6.97333,268.171,-0.906037
6.975,268.188,-0.906068
6.97667,268.204,-0.906101
6.97833,268.221,-0.906132
6.98,268.238,-0.90616
6.98167,268.254,-0.906187
6.98333,268.271,-0.906217
6.985,268.287,-0.90625
6.98667,268.304,-0.906286
6.98833,268.321,-0.906325
6.99,268.337,-0.906363
6.99167,268.354,-0.9064
6.99333,268.371,-0.906432
6.995,268.387,-0.906459
6.99667,268.404,-0.906481
6.99833,268.42,-0.906499
7,268.437,-0.906512
7.00167,268.454,-0.906528
7.00333,268.471,-0.906557
7.005,268.488,-0.906586
7.00667,268.504,-0.906623
7.00833,268.521,-0.906656
7.01,268.538,-0.906693
7.01167,268.554,-0.906734
7.01333,268.571,-0.906776
7.015,268.588,-0.906815
7.01667,268.604,-0.90685
7.01833,268.62,-0.906884
7.02,268.637,-0.906916
7.02167,268.654,-0.906963
7.02333,268.67,-0.907011
7.025,268.688,-0.907056
7.02667,268.704,-0.907101
7.02833,268.72,-0.907149
7.03,268.738,-0.9072
7.03167,268.754,-0.907254
7.03333,268.771,-0.907309
7.035,268.787,-0.907367
7.03667,268.804,-0.907421
7.03833,268.821,-0.907473
7.04,268.837,-0.907517
7.04167,268.854,-0.907559
7.04333,268.871,-0.907598
7.045,268.887,-0.907635
7.04667,268.903,-0.907673
7.04833,268.92,-0.907704
7.05,268.937,-0.907737
7.05167,268.953,-0.907765
7.05333,268.97,-0.907798
7.055,268.987,-0.907831
7.05667,269.003,-0.90787
7.05833,269.02,-0.907905
7.06,269.037,-0.907933
7.06167,269.053,-0.907955
7.06333,269.07,-0.907982
7.065,269.087,-0.908008
7.06667,269.103,-0.908036
7.06833,269.12,-0.908062
7.07,269.137,-0.90808
7.07167,269.153,-0.908102
7.07333,269.17,-0.908128
7.075,269.187,-0.908153
7.07667,269.203,-0.908179
7.07833,269.22,-0.908214
7.08,269.237,-0.908247
7.08167,269.254,-0.908279
7.08333,269.27,-0.908314
7.085,269.287,-0.908347
7.08667,269.304,-0.908383
7.08833,269.321,-0.908414
7.09,269.337,-0.908447
7.09167,269.354,-0.908475
7.09333,269.371,-0.908499
7.095,269.387,-0.908517
7.09667,269.404,-0.908532
7.09833,269.421,-0.908546
7.1,269.437,-0.90856
7.10167,269.454,-0.908579
7.10333,269.47,-0.908599
7.105,269.487,-0.908625
7.10667,269.503,-0.908661
7.10833,269.52,-0.908702
7.11,269.537,-0.908742
7.11167,269.553,-0.90879
7.11333,269.57,-0.908841
7.115,269.587,-0.9089
7.11667,269.603,-0.908955
7.11833,269.62,-0.909004
7.12,269.637,-0.909041
7.12167,269.653,-0.909069
7.12333,269.67,-0.909088
7.125,269.686,-0.909105
7.12667,269.703,-0.909125
7.12833,269.72,-0.909144
7.13,269.737,-0.909168
7.13167,269.753,-0.909201
7.13333,269.77,-0.909237
7.135,269.786,-0.90928
7.13667,269.803,-0.909329
7.13833,269.82,-0.909377
7.14,269.836,-0.909419
7.14167,269.854,-0.909449
7.14333,269.87,-0.909474
7.145,269.887,-0.909495
7.14667,269.903,-0.909514
7.14833,269.92,-0.909535
7.15,269.936,-0.909549
7.15167,269.953,-0.909559
7.15333,269.97,-0.909575
7.155,269.987,-0.909597
7.15667,270.003,-0.909622
7.15833,270.02,-0.90965
7.16,270.036,-0.909665
7.16167,270.053,-0.909687
7.16333,270.07,-0.909709
7.165,270.086,-0.909729
7.16667,270.103,-0.909754
7.16833,270.12,-0.909767
7.17,270.136,-0.909778
7.17167,270.153,-0.909788
7.17333,270.169,-0.909803
7.175,270.186,-0.909823
7.17667,270.203,-0.909861
7.17833,270.219,-0.909903
7.18,270.236,-0.909947
7.18167,270.253,-0.909999
7.18333,270.27,-0.910058
7.185,270.286,-0.910119
7.18667,270.303,-0.910176
7.18833,270.319,-0.910228
7.19,270.336,-0.91027
7.19167,270.353,-0.910302
7.19333,270.369,-0.910325
7.195,270.386,-0.91035
7.19667,270.403,-0.910372
7.19833,270.419,-0.91038
7.2,270.436,-0.910384
7.20167,270.453,-0.91039
7.20333,270.469,-0.910391
7.205,270.486,-0.910395
7.20667,270.503,-0.910401
7.20833,270.519,-0.91041
7.21,270.536,-0.910425
7.21167,270.553,-0.91044
7.21333,270.57,-0.910462
7.215,270.586,-0.910488
7.21667,270.603,-0.910519
7.21833,270.619,-0.910547
7.22,270.636,-0.910575
7.22167,270.652,-0.910601
7.22333,270.669,-0.910627
7.225,270.685,-0.910656
7.22667,270.702,-0.910687
7.22833,270.719,-0.910723
7.23,270.736,-0.910763
7.23167,270.753,-0.910803
7.23333,270.769,-0.910848
7.235,270.786,-0.910905
7.23667,270.802,-0.910963
7.23833,270.819,-0.911016
7.24,270.836,-0.911071
7.24167,270.853,-0.911122
7.24333,270.869,-0.911171
7.245,270.886,-0.91121
7.24667,270.903,-0.911244
7.24833,270.919,-0.911267
7.25,270.936,-0.911282
7.25167,270.952,-0.911297
7.25333,270.969,-0.911315
7.255,270.986,-0.91134
7.25667,271.002,-0.911367
7.25833,271.019,-0.911393
7.26,271.036,-0.911418
7.26167,271.052,-0.911447
7.26333,271.069,-0.911483
7.265,271.086,-0.911518
7.26667,271.102,-0.911548
7.26833,271.119,-0.911581
7.27,271.135,-0.91161
7.27167,271.152,-0.911634
7.27333,271.168,-0.911652
7.275,271.185,-0.911668
7.27667,271.202,-0.911685
7.27833,271.218,-0.911707
7.28,271.235,-0.911732
7.28167,271.252,-0.911759
7.28333,271.269,-0.911789
7.285,271.286,-0.911823
7.28667,271.302,-0.911862
7.28833,271.319,-0.911905
7.29,271.335,-0.911946
7.29167,271.352,-0.91199
7.29333,271.368,-0.912029
7.295,271.385,-0.912073
7.29667,271.401,-0.912113
7.29833,271.418,-0.912145
7.3,271.435,-0.912173
7.30167,271.452,-0.912199
7.30333,271.468,-0.912229
7.305,271.485,-0.912252
7.30667,271.501,-0.912279
7.30833,271.518,-0.912308
7.31,271.535,-0.912336
7.31167,271.551,-0.91236
7.31333,271.568,-0.912385
7.315,271.585,-0.912405
7.31667,271.601,-0.912423
7.31833,271.618,-0.912448
7.32,271.635,-0.912475
7.32167,271.651,-0.912499
7.32333,271.668,-0.912524
7.325,271.684,-0.912558
7.32667,271.701,-0.912599
7.32833,271.718,-0.91264
7.33,271.735,-0.912674
7.33167,271.752,-0.912716
7.33333,271.768,-0.912758
7.335,271.785,-0.912797
7.33667,271.802,-0.912826
7.33833,271.818,-0.912848
7.34,271.835,-0.912863
7.34167,271.851,-0.912878
7.34333,271.867,-0.912883
7.345,271.885,-0.912885
7.34667,271.901,-0.912886
7.34833,271.918,-0.912886
7.35,271.935,-0.912897
7.35167,271.951,-0.912919
7.35333,271.968,-0.912948
7.355,271.985,-0.912982
7.35667,272.001,-0.913022
7.35833,272.018,-0.913066
7.36,272.035,-0.913122
7.36167,272.051,-0.913181
7.36333,272.068,-0.913251
7.365,272.085,-0.913318
7.36667,272.101,-0.913373
7.36833,272.118,-0.913412
7.37,272.134,-0.913446
7.37167,272.151,-0.913468
7.37333,272.168,-0.91348
7.375,272.184,-0.913492
7.37667,272.201,-0.913501
7.37833,272.218,-0.913518
7.38,272.234,-0.913543
7.38167,272.251,-0.913573
7.38333,272.268,-0.913609
7.385,272.284,-0.913655
7.38667,272.301,-0.913706
7.38833,272.317,-0.913755
7.39,272.334,-0.913791
7.39167,272.351,-0.913819
7.39333,272.368,-0.913849
7.395,272.384,-0.913877
7.39667,272.401,-0.913899
7.39833,272.418,-0.91391
7.4,272.434,-0.913926
7.40167,272.451,-0.913946
7.40333,272.468,-0.913965
7.405,272.484,-0.913999
7.40667,272.501,-0.914037
7.40833,272.518,-0.914077
7.41,272.535,-0.914121
7.41167,272.551,-0.914166
7.41333,272.568,-0.914215
7.415,272.585,-0.914261
7.41667,272.601,-0.914293
7.41833,272.618,-0.91431
7.42,272.634,-0.914331
7.42167,272.651,-0.914344
7.42333,272.668,-0.91435
7.425,272.684,-0.914362
7.42667,272.701,-0.914374
7.42833,272.718,-0.914392
7.43,272.734,-0.914411
7.43167,272.751,-0.91443
7.43333,272.767,-0.914445
7.435,272.784,-0.914458
7.43667,272.8,-0.914467
7.43833,272.817,-0.914485
7.44,272.834,-0.914506
7.44167,272.85,-0.914526
7.44333,272.867,-0.91455
7.445,272.884,-0.914578
7.44667,272.901,-0.914615
7.44833,272.917,-0.914655
7.45,272.934,-0.914695
7.45167,272.951,-0.914733
7.45333,272.967,-0.914767
7.455,272.984,-0.91481
7.45667,273.001,-0.914851
7.45833,273.017,-0.914886
7.46,273.034,-0.914919
7.46167,273.05,-0.914954
7.46333,273.067,-0.914988
7.465,273.084,-0.915025
7.46667,273.1,-0.915053
7.46833,273.117,-0.915077
7.47,273.134,-0.915097
7.47167,273.15,-0.915119
7.47333,273.167,-0.915146
7.475,273.184,-0.91517
7.47667,273.201,-0.915199
7.47833,273.217,-0.915232
7.48,273.234,-0.915265
7.48167,273.25,-0.915298
7.48333,273.267,-0.915325
7.485,273.283,-0.915343
7.48667,273.3,-0.91536
7.48833,273.317,-0.91538
7.49,273.333,-0.915396
7.49167,273.35,-0.915415
7.49333,273.367,-0.915429
7.495,273.383,-0.915439
7.49667,273.4,-0.915456
7.49833,273.417,-0.915475
7.5,273.433,-0.915499
7.50167,273.45,-0.915511
7.50333,273.467,-0.915522
7.505,273.483,-0.915536
7.50667,273.5,-0.915551
7.50833,273.517,-0.915567
7.51,273.533,-0.915584
7.51167,273.55,-0.915607
7.51333,273.566,-0.915638
7.515,273.582,-0.915676
7.51667,273.599,-0.915718
7.51833,273.616,-0.91576
7.52,273.633,-0.915805
7.52167,273.649,-0.915845
7.52333,273.666,-0.915887
7.525,273.683,-0.91594
7.52667,273.699,-0.915979
7.52833,273.716,-0.916013
7.53,273.733,-0.916042
7.53167,273.749,-0.916069
7.53333,273.766,-0.916088
7.535,273.782,-0.916105
7.53667,273.799,-0.916131
7.53833,273.816,-0.916152
7.54,273.832,-0.916175
7.54167,273.85,-0.916197
7.54333,273.866,-0.916228
7.545,273.883,-0.916259
7.54667,273.899,-0.916287
7.54833,273.916,-0.916321
7.55,273.932,-0.916351
7.55167,273.949,-0.916382
7.55333,273.966,-0.916408
7.555,273.983,-0.916437
7.55667,273.999,-0.916467
7.55833,274.016,-0.916499
7.56,274.032,-0.91653
7.56167,274.049,-0.91656
7.56333,274.066,-0.9166
7.565,274.082,-0.916639
7.56667,274.099,-0.916679
7.56833,274.116,-0.916717
7.57,274.133,-0.916748
7.57167,274.149,-0.916773
7.57333,274.166,-0.916793
7.575,274.183,-0.916802
7.57667,274.199,-0.916811
7.57833,274.216,-0.916813
7.58,274.232,-0.916806
7.58167,274.249,-0.916798
7.58333,274.265,-0.916792
7.585,274.282,-0.91679
7.58667,274.298,-0.916791
7.58833,274.315,-0.916798
7.59,274.332,-0.916804
7.59167,274.348,-0.916819
7.59333,274.365,-0.916842
7.595,274.381,-0.916875
7.59667,274.398,-0.916915
7.59833,274.414,-0.916966
7.6,274.431,-0.917057
7.60167,274.448,-0.91714
7.60333,274.464,-0.917219
7.605,274.481,-0.917269
7.60667,274.498,-0.917323
7.60833,274.514,-0.917372
7.61,274.531,-0.917418
7.61167,274.547,-0.91746
7.61333,274.564,-0.917492
7.615,274.581,-0.917532
7.61667,274.597,-0.917563
7.61833,274.614,-0.9176
7.62,274.631,-0.917626
7.62167,274.647,-0.917643
7.62333,274.664,-0.917659
7.625,274.681,-0.917667
7.62667,274.698,-0.917668
7.62833,274.714,-0.917674
7.63,274.731,-0.917685
7.63167,274.748,-0.917697
7.63333,274.764,-0.917708
7.635,274.781,-0.91773
7.63667,274.797,-0.917765
7.63833,274.814,-0.917798
7.64,274.83,-0.917833
7.64167,274.847,-0.917865
7.64333,274.863,-0.91789
7.645,274.88,-0.91791
7.64667,274.897,-0.917924
7.64833,274.914,-0.917949
7.65,274.93,-0.91798
7.65167,274.947,-0.918004
7.65333,274.963,-0.918026
7.655,274.98,-0.91805
7.65667,274.997,-0.918064
7.65833,275.014,-0.918086
7.66,275.03,-0.918114
7.66167,275.047,-0.918142
7.66333,275.064,-0.918173
7.665,275.08,-0.918202
7.66667,275.097,-0.918227
7.66833,275.114,-0.918255
7.67,275.13,-0.918277
7.67167,275.147,-0.918289
7.67333,275.164,-0.918304
7.675,275.18,-0.918322
7.67667,275.197,-0.91834
7.67833,275.214,-0.918356
7.68,275.23,-0.918379
7.68167,275.247,-0.918415
7.68333,275.263,-0.918454
7.685,275.28,-0.918501
7.68667,275.297,-0.918553
7.68833,275.313,-0.91861
7.69,275.33,-0.918702
7.69167,275.347,-0.918797
7.69333,275.363,-0.918923
7.695,275.38,-0.919057
7.69667,275.396,-0.919134
7.69833,275.413,-0.91919
7.7,275.43,-0.919237
7.70167,275.447,-0.919278
7.70333,275.463,-0.919321
7.705,275.48,-0.919362
7.70667,275.497,-0.919402
7.70833,275.513,-0.919438
7.71,275.53,-0.919466
7.71167,275.547,-0.919503
7.71333,275.563,-0.919536
7.715,275.58,-0.919561
7.71667,275.597,-0.919585
7.71833,275.613,-0.919606
7.72,275.63,-0.919629
7.72167,275.647,-0.919656
7.72333,275.663,-0.919682
7.725,275.68,-0.919712
7.72667,275.696,-0.919738
7.72833,275.713,-0.919758
7.73,275.73,-0.919775
7.73167,275.747,-0.919793
7.73333,275.763,-0.91981
7.735,275.78,-0.919836
7.73667,275.796,-0.919866
7.73833,275.813,-0.919904
7.74,275.83,-0.919943
7.74167,275.846,-0.919987
7.74333,275.863,-0.92003
7.745,275.88,-0.920076
7.74667,275.896,-0.920129
7.74833,275.914,-0.920175
7.75,275.93,-0.920216
7.75167,275.947,-0.920255
7.75333,275.963,-0.920292
7.755,275.98,-0.920326
7.75667,275.996,-0.920359
7.75833,276.013,-0.920399
7.76,276.029,-0.920436
7.76167,276.046,-0.920465
7.76333,276.063,-0.920508
7.765,276.079,-0.920548
7.76667,276.096,-0.920592
7.76833,276.113,-0.920635
7.77,276.13,-0.920676
7.77167,276.146,-0.920705
7.77333,276.163,-0.920733
7.775,276.18,-0.920765
7.77667,276.196,-0.920791
7.77833,276.213,-0.920817
7.78,276.229,-0.920842
7.78167,276.246,-0.920862
7.78333,276.263,-0.920879
7.785,276.279,-0.920902
7.78667,276.296,-0.92092
7.78833,276.312,-0.920921
7.79,276.329,-0.920905
7.79167,276.346,-0.920865
7.79333,276.363,-0.920824
7.795,276.379,-0.92075
7.79667,276.396,-0.920696
7.79833,276.413,-0.920665
7.8,276.429,-0.920654
7.80167,276.446,-0.920658
7.80333,276.463,-0.92068
7.805,276.479,-0.920719
7.80667,276.496,-0.920769
7.80833,276.513,-0.920851
7.81,276.529,-0.920917
7.81167,276.546,-0.92099
7.81333,276.563,-0.921073
7.815,276.579,-0.921134
7.81667,276.596,-0.921178
7.81833,276.613,-0.921226
7.82,276.629,-0.921273
7.82167,276.646,-0.921315
7.82333,276.662,-0.921358
7.825,276.679,-0.921388
7.82667,276.696,-0.921418
7.82833,276.712,-0.921446
7.83,276.729,-0.921462
7.83167,276.746,-0.921477
7.83333,276.762,-0.921499
7.835,276.779,-0.921527
7.83667,276.796,-0.921549
7.83833,276.812,-0.921576
7.84,276.829,-0.921603
7.84167,276.846,-0.921624
7.84333,276.862,-0.921644
7.845,276.879,-0.921668
7.84667,276.895,-0.921697
7.84833,276.912,-0.921727
7.85,276.928,-0.921756
7.85167,276.945,-0.921786
7.85333,276.962,-0.921821
7.855,276.978,-0.921861
7.85667,276.995,-0.921902
7.85833,277.012,-0.921941
7.86,277.029,-0.921974
7.86167,277.046,-0.922006
7.86333,277.062,-0.922036
7.865,277.079,-0.922061
7.86667,277.095,-0.922084
7.86833,277.112,-0.922107
7.87,277.129,-0.922135
7.87167,277.145,-0.922167
7.87333,277.162,-0.922203
7.875,277.179,-0.922248
7.87667,277.195,-0.922295
7.87833,277.212,-0.922347
7.88,277.229,-0.922404
7.88167,277.246,-0.922456
7.88333,277.262,-0.922502
7.885,277.279,-0.922535
7.88667,277.295,-0.92256
7.88833,277.312,-0.922576
7.89,277.328,-0.922582
7.89167,277.345,-0.922587
7.89333,277.362,-0.922586
7.895,277.378,-0.922596
7.89667,277.395,-0.922617
7.89833,277.412,-0.922642
7.9,277.428,-0.922673
7.90167,277.445,-0.922711
7.90333,277.462,-0.922752
7.905,277.478,-0.922796
7.90667,277.495,-0.922837
7.90833,277.512,-0.922883
7.91,277.528,-0.922919
7.91167,277.544,-0.922959
7.91333,277.561,-0.922997
7.915,277.578,-0.923035
7.91667,277.595,-0.923071
7.91833,277.612,-0.923108
7.92,277.629,-0.923149
7.92167,277.645,-0.923188
7.92333,277.662,-0.92322
7.925,277.679,-0.92325
7.92667,277.695,-0.923281
7.92833,277.712,-0.923311
7.93,277.729,-0.923336
7.93167,277.745,-0.923362
7.93333,277.762,-0.923391
7.935,277.778,-0.923429
7.93667,277.795,-0.923468
7.93833,277.812,-0.92351
7.94,277.828,-0.92355
7.94167,277.845,-0.923588
7.94333,277.862,-0.923625
7.945,277.878,-0.923663
7.94667,277.895,-0.923696
7.94833,277.912,-0.923725
7.95,277.928,-0.923737
7.95167,277.945,-0.923745
7.95333,277.962,-0.923748
7.955,277.978,-0.923748
7.95667,277.995,-0.923753
7.95833,278.011,-0.923765
7.96,278.028,-0.923784
7.96167,278.045,-0.92381
7.96333,278.062,-0.923841
7.965,278.078,-0.923871
7.96667,278.094,-0.923892
7.96833,278.111,-0.923916
7.97,278.128,-0.923943
7.97167,278.145,-0.923978
7.97333,278.161,-0.924022
7.975,278.178,-0.924071
7.97667,278.195,-0.924122
7.97833,278.211,-0.924182
7.98,278.228,-0.924237
7.98167,278.245,-0.924294
7.98333,278.261,-0.924356
7.985,278.278,-0.924412
7.98667,278.295,-0.924471
7.98833,278.312,-0.92452
7.99,278.328,-0.924554
7.99167,278.345,-0.924579
7.99333,278.361,-0.92461
7.995,278.378,-0.924642
7.99667,278.395,-0.924667
7.99833,278.412,-0.924682
8,278.428,-0.924686
8.00167,278.445,-0.924686
8.00333,278.461,-0.924687
8.005,278.478,-0.924698
8.00667,278.495,-0.924704
8.00833,278.511,-0.924709
8.01,278.527,-0.92472
8.01167,278.544,-0.924736
8.01333,278.56,-0.924759
8.015,278.577,-0.924785
8.01667,278.594,-0.924814
8.01833,278.611,-0.924852
8.02,278.628,-0.92489
8.02167,278.645,-0.92493
8.02333,278.662,-0.924985
8.025,278.678,-0.92504
8.02667,278.695,-0.925093
8.02833,278.711,-0.925148
8.03,278.728,-0.925197
8.03167,278.744,-0.925234
8.03333,278.761,-0.925271
8.035,278.778,-0.925303
8.03667,278.795,-0.925336
8.03833,278.811,-0.925362
8.04,278.828,-0.925384
8.04167,278.845,-0.925406
8.04333,278.861,-0.925433
8.045,278.878,-0.925458
8.04667,278.895,-0.925487
8.04833,278.911,-0.925523
8.05,278.928,-0.925554
8.05167,278.945,-0.925571
8.05333,278.961,-0.925589
8.055,278.978,-0.925605
8.05667,278.995,-0.925622
8.05833,279.012,-0.925637
8.06,279.028,-0.925645
8.06167,279.045,-0.925644
8.06333,279.061,-0.925642
8.065,279.078,-0.925643
8.06667,279.095,-0.925645
8.06833,279.112,-0.925654
8.07,279.128,-0.925666
8.07167,279.145,-0.925687
8.07333,279.161,-0.925714
8.075,279.178,-0.925752
8.07667,279.195,-0.925802
8.07833,279.211,-0.9259
8.08,279.228,-0.926019
8.08167,279.245,-0.926144
8.08333,279.261,-0.926247
8.085,279.278,-0.92631
8.08667,279.295,-0.926367
8.08833,279.311,-0.926416
8.09,279.328,-0.926466
8.09167,279.344,-0.926507
8.09333,279.361,-0.926539
8.095,279.378,-0.926559
8.09667,279.395,-0.926572
8.09833,279.411,-0.926588
8.1,279.428,-0.926612
8.10167,279.444,-0.926642
8.10333,279.461,-0.926675
8.105,279.478,-0.926718
8.10667,279.494,-0.926766
8.10833,279.511,-0.926822
8.11,279.528,-0.926876
8.11167,279.544,-0.926931
8.11333,279.561,-0.926976
8.115,279.578,-0.927006
8.11667,279.595,-0.92704
8.11833,279.611,-0.927074
8.12,279.628,-0.9271
8.12167,279.644,-0.927119
8.12333,279.661,-0.927139
8.125,279.678,-0.927171
8.12667,279.694,-0.927202
8.12833,279.711,-0.927231
8.13,279.727,-0.927245
8.13167,279.744,-0.927255
8.13333,279.761,-0.92726
8.135,279.777,-0.927263
8.13667,279.794,-0.927266
8.13833,279.811,-0.927263
8.14,279.827,-0.927277
8.14167,279.844,-0.927297
8.14333,279.861,-0.927323
8.145,279.877,-0.927353
8.14667,279.894,-0.927391
8.14833,279.91,-0.927426
8.15,279.927,-0.927474
8.15167,279.944,-0.927525
8.15333,279.961,-0.927568
8.155,279.978,-0.927615
8.15667,279.994,-0.927655
8.15833,280.011,-0.9277
8.16,280.027,-0.927739
8.16167,280.044,-0.927772
8.16333,280.06,-0.927799
8.165,280.077,-0.927822
8.16667,280.094,-0.927842
8.16833,280.111,-0.927863
8.17,280.128,-0.927881
8.17167,280.144,-0.927908
8.17333,280.161,-0.927935
8.175,280.177,-0.927968
8.17667,280.194,-0.928009
8.17833,280.211,-0.928046
8.18,280.227,-0.928079
8.18167,280.244,-0.92811
8.18333,280.26,-0.928133
8.185,280.277,-0.928156
8.18667,280.294,-0.928195
8.18833,280.31,-0.928229
8.19,280.327,-0.92826
8.19167,280.344,-0.92829
8.19333,280.36,-0.928318
8.195,280.377,-0.928347
8.19667,280.393,-0.928382
8.19833,280.41,-0.928419
8.2,280.427,-0.928461
8.20167,280.444,-0.928496
8.20333,280.46,-0.928532
8.205,280.477,-0.928579
8.20667,280.494,-0.928621
8.20833,280.51,-0.928658
8.21,280.527,-0.928693
8.21167,280.544,-0.928732
8.21333,280.56,-0.928775
8.215,280.577,-0.928821
8.21667,280.594,-0.928868
8.21833,280.61,-0.928908
8.22,280.627,-0.92894
8.22167,280.644,-0.928968
8.22333,280.661,-0.928994
8.225,280.677,-0.929023
8.22667,280.693,-0.929047
8.22833,280.71,-0.929065
8.23,280.726,-0.929087
8.23167,280.743,-0.929111
8.23333,280.76,-0.929147
8.235,280.776,-0.929188
8.23667,280.793,-0.929228
8.23833,280.81,-0.929271
8.24,280.827,-0.929311
8.24167,280.844,-0.929352
8.24333,280.86,-0.929384
8.245,280.877,-0.929414
8.24667,280.893,-0.929435
8.24833,280.91,-0.929449
8.25,280.926,-0.929458
8.25167,280.943,-0.929469
8.25333,280.96,-0.929483
8.255,280.977,-0.929493
8.25667,280.993,-0.929514
8.25833,281.01,-0.929536
8.26,281.026,-0.929563
8.26167,281.043,-0.929596
8.26333,281.06,-0.92965
8.265,281.077,-0.929709
8.26667,281.093,-0.929767
8.26833,281.11,-0.929827
8.27,281.126,-0.929876
8.27167,281.143,-0.929922
8.27333,281.16,-0.929949
8.275,281.177,-0.929967
8.27667,281.193,-0.929978
8.27833,281.21,-0.929985
8.28,281.227,-0.929992
8.28167,281.244,-0.930002
8.28333,281.26,-0.930023
8.285,281.276,-0.930055
8.28667,281.293,-0.930102
8.28833,281.31,-0.930148
8.29,281.326,-0.9302
8.29167,281.343,-0.930252
8.29333,281.36,-0.930299
8.295,281.376,-0.93034
8.29667,281.393,-0.930372
8.29833,281.41,-0.930405
8.3,281.427,-0.930428
8.30167,281.443,-0.930439
8.30333,281.46,-0.930443
8.305,281.476,-0.93045
8.30667,281.493,-0.93046
8.30833,281.51,-0.930469
8.31,281.526,-0.930486
8.31167,281.543,-0.930515
8.31333,281.56,-0.930552
8.315,281.577,-0.930593
8.31667,281.593,-0.930636
8.31833,281.61,-0.930672
8.32,281.627,-0.930715
8.32167,281.643,-0.930756
8.32333,281.66,-0.930805
8.325,281.676,-0.930855
8.32667,281.693,-0.930902
8.32833,281.71,-0.930955
8.33,281.726,-0.931006
8.33167,281.743,-0.931058
8.33333,281.76,-0.931103
8.335,281.776,-0.931146
8.33667,281.793,-0.931188
8.33833,281.81,-0.931227
8.34,281.826,-0.931259
8.34167,281.843,-0.931286
8.34333,281.86,-0.931304
8.345,281.877,-0.93132
8.34667,281.893,-0.931336
8.34833,281.91,-0.931353
8.35,281.926,-0.931366
8.35167,281.943,-0.931373
8.35333,281.96,-0.931386
8.355,281.977,-0.9314
8.35667,281.993,-0.931415
8.35833,282.01,-0.931437
8.36,282.027,-0.931465
8.36167,282.043,-0.93149
8.36333,282.06,-0.931517
8.365,282.076,-0.931549
8.36667,282.093,-0.931573
8.36833,282.11,-0.931594
8.37,282.126,-0.931614
8.37167,282.142,-0.931638
8.37333,282.159,-0.931662
8.375,282.176,-0.931685
8.37667,282.193,-0.931712
8.37833,282.209,-0.931747
8.38,282.226,-0.931789
8.38167,282.243,-0.931838
8.38333,282.26,-0.931886
8.385,282.276,-0.931938
8.38667,282.293,-0.931984
8.38833,282.31,-0.932023
8.39,282.327,-0.932058
8.39167,282.343,-0.93209
8.39333,282.36,-0.932113
8.395,282.376,-0.932133
8.39667,282.393,-0.932146
8.39833,282.41,-0.932163
8.4,282.426,-0.932187
8.40167,282.443,-0.932213
8.40333,282.459,-0.932251
8.405,282.476,-0.932289
8.40667,282.493,-0.932327
8.40833,282.509,-0.932373
8.41,282.526,-0.932411
8.41167,282.543,-0.932447
8.41333,282.56,-0.932485
8.415,282.576,-0.932517
8.41667,282.593,-0.932547
8.41833,282.61,-0.932575
8.42,282.627,-0.93261
8.42167,282.643,-0.932645
8.42333,282.66,-0.932687
8.425,282.676,-0.932725
8.42667,282.693,-0.932762
8.42833,282.71,-0.932799
8.43,282.727,-0.932833
8.43167,282.743,-0.932869
8.43333,282.76,-0.932904
8.435,282.776,-0.932941
8.43667,282.793,-0.932979
8.43833,282.81,-0.933025
8.44,282.826,-0.933061
8.44167,282.843,-0.933094
8.44333,282.86,-0.933125
8.445,282.877,-0.933155
8.44667,282.893,-0.933185
8.44833,282.91,-0.933208
8.45,282.927,-0.93323
8.45167,282.943,-0.933258
8.45333,282.96,-0.933286
8.455,282.977,-0.933312
8.45667,282.994,-0.933346
8.45833,283.01,-0.933384
8.46,283.027,-0.933428
8.46167,283.043,-0.933475
8.46333,283.06,-0.933526
8.465,283.077,-0.933573
8.46667,283.093,-0.933615
8.46833,283.109,-0.933656
8.47,283.126,-0.933696
8.47167,283.143,-0.933726
8.47333,283.16,-0.93375
8.475,283.176,-0.933771
8.47667,283.193,-0.933784
8.47833,283.21,-0.933802
8.48,283.227,-0.933822
8.48167,283.243,-0.933841
8.48333,283.26,-0.933861
8.485,283.277,-0.933885
8.48667,283.293,-0.933916
8.48833,283.31,-0.933948
8.49,283.327,-0.933977
8.49167,283.343,-0.934003
8.49333,283.36,-0.934043
8.495,283.376,-0.93408
8.49667,283.393,-0.934115
8.49833,283.41,-0.934149
8.5,283.426,-0.934188
8.50167,283.443,-0.934226
8.50333,283.46,-0.934274
8.505,283.476,-0.934325
8.50667,283.493,-0.934383
8.50833,283.51,-0.934427
8.51,283.526,-0.934464
8.51167,283.543,-0.934509
8.51333,283.56,-0.934547
8.515,283.576,-0.934578
8.51667,283.593,-0.9346
8.51833,283.609,-0.934618
8.52,283.626,-0.934625
8.52167,283.643,-0.934627
8.52333,283.66,-0.934628
8.525,283.676,-0.934631
8.52667,283.693,-0.934637
8.52833,283.709,-0.934648
8.53,283.726,-0.93467
8.53167,283.743,-0.93469
8.53333,283.76,-0.934714
8.535,283.777,-0.934742
8.53667,283.793,-0.934772
8.53833,283.81,-0.934809
8.54,283.827,-0.934847
8.54167,283.844,-0.934885
8.54333,283.86,-0.93492
8.545,283.876,-0.934955
8.54667,283.893,-0.934989
8.54833,283.91,-0.935014
8.55,283.927,-0.935031
8.55167,283.943,-0.935054
8.55333,283.96,-0.935076
8.555,283.977,-0.935092
8.55667,283.993,-0.935111
8.55833,284.009,-0.935133
8.56,284.027,-0.935158
8.56167,284.043,-0.935181
8.56333,284.06,-0.935204
8.565,284.076,-0.93524
8.56667,284.093,-0.935279
8.56833,284.11,-0.935313
8.57,284.126,-0.93535
8.57167,284.143,-0.935386
8.57333,284.16,-0.935421
8.575,284.176,-0.935464
8.57667,284.193,-0.935506
8.57833,284.209,-0.935544
8.58,284.226,-0.935576
8.58167,284.242,-0.935604
8.58333,284.259,-0.935634
8.585,284.276,-0.935664
8.58667,284.292,-0.935692
8.58833,284.309,-0.935721
8.59,284.326,-0.935745
8.59167,284.343,-0.935757
8.59333,284.359,-0.935764
8.595,284.376,-0.935769
8.59667,284.393,-0.935774
8.59833,284.409,-0.935777
8.6,284.426,-0.935776
8.60167,284.443,-0.935776
8.60333,284.459,-0.935772
8.605,284.476,-0.935775
8.60667,284.493,-0.935786
8.60833,284.509,-0.935811
8.61,284.525,-0.935845
8.61167,284.542,-0.935883
8.61333,284.559,-0.935923
8.615,284.576,-0.935967
8.61667,284.592,-0.936014
8.61833,284.609,-0.936064
8.62,284.626,-0.936112
8.62167,284.642,-0.936162
8.62333,284.659,-0.93621
8.625,284.676,-0.936249
8.62667,284.692,-0.936284
8.62833,284.709,-0.936323
8.63,284.726,-0.936366
8.63167,284.742,-0.936409
8.63333,284.76,-0.93646
8.635,284.776,-0.936509
8.63667,284.793,-0.936562
8.63833,284.81,-0.93661
8.64,284.826,-0.936662
8.64167,284.842,-0.936709
8.64333,284.859,-0.936742
8.645,284.876,-0.936771
8.64667,284.893,-0.9368
8.64833,284.909,-0.936815
8.65,284.926,-0.93682
8.65167,284.943,-0.936817
8.65333,284.959,-0.936818
8.655,284.976,-0.936825
8.65667,284.993,-0.936833
8.65833,285.009,-0.936848
8.66,285.026,-0.936871
8.66167,285.042,-0.936899
8.66333,285.059,-0.93694
8.665,285.076,-0.936994
8.66667,285.092,-0.937076
8.66833,285.109,-0.937182
8.67,285.125,-0.937257
8.67167,285.142,-0.937318
8.67333,285.159,-0.937382
8.675,285.176,-0.937445
8.67667,285.192,-0.937508
8.67833,285.209,-0.937567
8.68,285.226,-0.937617
8.68167,285.243,-0.937655
8.68333,285.259,-0.937691
8.685,285.276,-0.937721
8.68667,285.292,-0.937749
8.68833,285.309,-0.937772
8.69,285.326,-0.937789
8.69167,285.342,-0.937808
8.69333,285.359,-0.937833
8.695,285.376,-0.937865
8.69667,285.392,-0.937899
8.69833,285.409,-0.937933
8.7,285.425,-0.937961
8.70167,285.442,-0.937993
8.70333,285.459,-0.938033
8.705,285.476,-0.938069
8.70667,285.492,-0.938105
8.70833,285.509,-0.93814
8.71,285.525,-0.938174
8.71167,285.542,-0.938208
8.71333,285.558,-0.938236
8.715,285.575,-0.938264
8.71667,285.591,-0.938298
8.71833,285.608,-0.938327
8.72,285.625,-0.938358
8.72167,285.642,-0.938389
8.72333,285.659,-0.938416
8.725,285.675,-0.938442
8.72667,285.692,-0.938475
8.72833,285.709,-0.938512
8.73,285.725,-0.938541
8.73167,285.742,-0.938567
8.73333,285.759,-0.938599
8.735,285.775,-0.938639
8.73667,285.792,-0.938671
8.73833,285.808,-0.938703
8.74,285.825,-0.93873
8.74167,285.841,-0.938756
8.74333,285.858,-0.938777
8.745,285.875,-0.938805
8.74667,285.892,-0.938828
8.74833,285.908,-0.938851
8.75,285.925,-0.938872
8.75167,285.941,-0.938894
8.75333,285.958,-0.938927
8.755,285.975,-0.938969
8.75667,285.991,-0.939009
8.75833,286.008,-0.939049
8.76,286.024,-0.939093
8.76167,286.041,-0.939136
8.76333,286.058,-0.939175
8.765,286.074,-0.939212
8.76667,286.091,-0.939248
8.76833,286.108,-0.93928
8.77,286.124,-0.939312
8.77167,286.141,-0.939346
8.77333,286.158,-0.939375
8.775,286.174,-0.939409
8.77667,286.191,-0.939441
8.77833,286.208,-0.939482
8.78,286.224,-0.939523
8.78167,286.241,-0.939556
8.78333,286.257,-0.939587
8.785,286.274,-0.93962
8.78667,286.29,-0.939652
8.78833,286.307,-0.939689
8.79,286.324,-0.939717
8.79167,286.34,-0.939746
8.79333,286.357,-0.939777
8.795,286.374,-0.939817
8.79667,286.391,-0.939859
8.79833,286.408,-0.939907
8.8,286.424,-0.939954
8.80167,286.441,-0.94
8.80333,286.458,-0.940051
8.805,286.474,-0.940104
8.80667,286.491,-0.940143
8.80833,286.507,-0.940169
8.81,286.524,-0.940181
8.81167,286.54,-0.940189
8.81333,286.557,-0.940204
8.815,286.574,-0.940222
8.81667,286.591,-0.940242
8.81833,286.607,-0.940265
8.82,286.624,-0.940292
8.82167,286.64,-0.940324
8.82333,286.657,-0.940367
8.825,286.674,-0.940414
8.82667,286.691,-0.940457
8.82833,286.707,-0.940497
8.83,286.724,-0.940535
8.83167,286.74,-0.94057
8.83333,286.758,-0.940603
8.835,286.774,-0.940636
8.83667,286.79,-0.940671
8.83833,286.807,-0.940708
8.84,286.824,-0.940745
8.84167,286.84,-0.940789
8.84333,286.857,-0.940839
8.845,286.873,-0.94089
8.84667,286.89,-0.940934
8.84833,286.907,-0.940975
8.85,286.923,-0.941015
8.85167,286.94,-0.941057
8.85333,286.957,-0.941099
8.855,286.973,-0.941134
8.85667,286.99,-0.941173
8.85833,287.006,-0.941213
8.86,287.023,-0.941248
8.86167,287.04,-0.94129
8.86333,287.056,-0.941324
8.865,287.073,-0.941369
8.86667,287.09,-0.941409
8.86833,287.107,-0.941443
8.87,287.123,-0.941477
8.87167,287.14,-0.941508
8.87333,287.157,-0.941535
8.875,287.174,-0.941558
8.87667,287.19,-0.941591
8.87833,287.206,-0.941632
8.88,287.223,-0.941676
8.88167,287.24,-0.94172
8.88333,287.256,-0.941769
8.885,287.273,-0.941834
8.88667,287.29,-0.941894
8.88833,287.306,-0.94195
8.89,287.323,-0.942
8.89167,287.34,-0.942042
8.89333,287.356,-0.942073
8.895,287.373,-0.942102
8.89667,287.389,-0.942129
8.89833,287.406,-0.942156
8.9,287.422,-0.942178
8.90167,287.439,-0.9422
8.90333,287.456,-0.942228
8.905,287.472,-0.942265
8.90667,287.489,-0.942305
8.90833,287.506,-0.942357
8.91,287.523,-0.942416
8.91167,287.539,-0.942477
8.91333,287.556,-0.942542
8.915,287.572,-0.942601
8.91667,287.589,-0.942653
8.91833,287.605,-0.942703
8.92,287.622,-0.942747
8.92167,287.639,-0.942792
8.92333,287.656,-0.94283
8.925,287.672,-0.942863
8.92667,287.689,-0.942892
8.92833,287.705,-0.942922
8.93,287.722,-0.942958
8.93167,287.739,-0.942997
8.93333,287.756,-0.943042
8.935,287.772,-0.943089
8.93667,287.789,-0.943153
8.93833,287.805,-0.943212
8.94,287.822,-0.943274
8.94167,287.839,-0.943338
8.94333,287.855,-0.943404
8.945,287.872,-0.943466
8.94667,287.889,-0.943524
8.94833,287.906,-0.943578
8.95,287.922,-0.943627
8.95167,287.939,-0.943677
8.95333,287.955,-0.943726
8.955,287.972,-0.94377
8.95667,287.989,-0.943812
8.95833,288.005,-0.943859
8.96,288.021,-0.943911
8.96167,288.038,-0.943976
8.96333,288.055,-0.944039
8.965,288.072,-0.944096
8.96667,288.088,-0.944147
8.96833,288.105,-0.944197
8.97,288.122,-0.944237
8.97167,288.138,-0.944267
8.97333,288.155,-0.944287
8.975,288.172,-0.944304
8.97667,288.188,-0.944319
8.97833,288.205,-0.944337
8.98,288.222,-0.944361
8.98167,288.238,-0.944389
8.98333,288.255,-0.94443
8.985,288.272,-0.944482
8.98667,288.288,-0.944541
8.98833,288.305,-0.944607
8.99,288.322,-0.944671
8.99167,288.338,-0.944732
8.99333,288.355,-0.94479
8.995,288.371,-0.944852
8.99667,288.388,-0.944912
8.99833,288.405,-0.944971
9,288.421,-0.945025
9.00167,288.438,-0.945082
9.00333,288.455,-0.945137
9.005,288.472,-0.945191
9.00667,288.488,-0.945246
9.00833,288.505,-0.945293
9.01,288.521,-0.945331
9.01167,288.538,-0.945367
9.01333,288.555,-0.945401
9.015,288.572,-0.945432
9.01667,288.588,-0.945466
9.01833,288.605,-0.945502
9.02,288.621,-0.945551
9.02167,288.638,-0.945615
9.02333,288.655,-0.945683
9.025,288.671,-0.945755
9.02667,288.688,-0.945828
9.02833,288.705,-0.945892
9.03,288.722,-0.945955
9.03167,288.738,-0.946011
9.03333,288.755,-0.946063
9.035,288.771,-0.946106
9.03667,288.788,-0.946142
9.03833,288.804,-0.946181
9.04,288.821,-0.946228
9.04167,288.838,-0.94628
9.04333,288.855,-0.946342
9.045,288.871,-0.946406
9.04667,288.888,-0.946471
9.04833,288.905,-0.946542
9.05,288.921,-0.946612
9.05167,288.938,-0.946685
9.05333,288.954,-0.946754
9.055,288.971,-0.946819
9.05667,288.988,-0.946888
9.05833,289.004,-0.946959
9.06,289.021,-0.947033
9.06167,289.038,-0.947107
9.06333,289.054,-0.947173
9.065,289.071,-0.947226
9.06667,289.088,-0.947275
9.06833,289.105,-0.947329
9.07,289.121,-0.947386
9.07167,289.138,-0.947437
9.07333,289.154,-0.947483
9.075,289.171,-0.947528
9.07667,289.188,-0.947582
9.07833,289.204,-0.947635
9.08,289.221,-0.94769
9.08167,289.238,-0.947744
9.08333,289.255,-0.947799
9.085,289.271,-0.94785
9.08667,289.288,-0.947899
9.08833,289.305,-0.947958
9.09,289.322,-0.948021
9.09167,289.338,-0.948085
9.09333,289.355,-0.948151
9.095,289.371,-0.948215
9.09667,289.388,-0.948278
9.09833,289.404,-0.948345
9.1,289.421,-0.948409
9.10167,289.437,-0.948471
9.10333,289.454,-0.948533
9.105,289.471,-0.948593
9.10667,289.487,-0.94865
9.10833,289.504,-0.948707
9.11,289.521,-0.94876
9.11167,289.538,-0.948808
9.11333,289.555,-0.948858
9.115,289.571,-0.948897
9.11667,289.587,-0.948939
9.11833,289.604,-0.948984
9.12,289.621,-0.949038
9.12167,289.637,-0.949093
9.12333,289.654,-0.949149
9.125,289.671,-0.949214
9.12667,289.687,-0.94928
9.12833,289.704,-0.949342
9.13,289.72,-0.949402
9.13167,289.737,-0.949465
9.13333,289.754,-0.949521
9.135,289.771,-0.949573
9.13667,289.787,-0.949622
9.13833,289.804,-0.949667
9.14,289.82,-0.949719
9.14167,289.837,-0.949773
9.14333,289.853,-0.949825
9.145,289.87,-0.949879
9.14667,289.887,-0.949933
9.14833,289.903,-0.949983
9.15,289.92,-0.950037
9.15167,289.937,-0.950096
9.15333,289.953,-0.950155
9.155,289.97,-0.950207
9.15667,289.987,-0.950254
9.15833,290.004,-0.950304
9.16,290.02,-0.950354
9.16167,290.037,-0.950396
9.16333,290.054,-0.950434
9.165,290.07,-0.950475
9.16667,290.087,-0.950513
9.16833,290.103,-0.950551
9.17,290.12,-0.950584
9.17167,290.137,-0.950626
9.17333,290.153,-0.950666
9.175,290.17,-0.950714
9.17667,290.187,-0.950784
9.17833,290.203,-0.950892
9.18,290.22,-0.951024
9.18167,290.236,-0.951155
9.18333,290.253,-0.95133
9.185,290.27,-0.951452
9.18667,290.286,-0.951539
9.18833,290.303,-0.951612
9.19,290.319,-0.951687
9.19167,290.336,-0.951749
9.19333,290.353,-0.951805
9.195,290.37,-0.951858
9.19667,290.387,-0.951903
9.19833,290.403,-0.951944
9.2,290.42,-0.951986
9.20167,290.437,-0.952025
9.20333,290.453,-0.95207
9.205,290.47,-0.95212
9.20667,290.486,-0.952169
9.20833,290.503,-0.952229
9.21,290.52,-0.952295
9.21167,290.537,-0.952358
9.21333,290.553,-0.952423
9.215,290.57,-0.952489
9.21667,290.586,-0.952555
9.21833,290.603,-0.95263
9.22,290.619,-0.952709
9.22167,290.636,-0.952788
9.22333,290.653,-0.952856
9.225,290.67,-0.952914
9.22667,290.686,-0.952966
9.22833,290.703,-0.953009
9.23,290.72,-0.953041
9.23167,290.737,-0.953066
9.23333,290.753,-0.95309
9.235,290.77,-0.953113
9.23667,290.786,-0.953133
9.23833,290.803,-0.953156
9.24,290.82,-0.953188
9.24167,290.836,-0.953218
9.24333,290.853,-0.953257
9.245,290.87,-0.953304
9.24667,290.887,-0.953364
9.24833,290.903,-0.953429
9.25,290.92,-0.953513
9.25167,290.937,-0.953692
9.25333,290.953,-0.953949
9.255,290.97,-0.954264
9.25667,290.986,-0.954447
9.25833,291.003,-0.95464
9.26,291.019,-0.95474
9.26167,291.036,-0.954814
9.26333,291.053,-0.954874
9.265,291.07,-0.954938
9.26667,291.087,-0.955001
9.26833,291.103,-0.955062
9.27,291.12,-0.955128
9.27167,291.137,-0.955199
9.27333,291.154,-0.955272
9.275,291.17,-0.955341
9.27667,291.186,-0.955414
9.27833,291.203,-0.955479
9.28,291.22,-0.955535
9.28167,291.236,-0.95559
9.28333,291.253,-0.955642
9.285,291.27,-0.955694
9.28667,291.286,-0.955748
9.28833,291.303,-0.955793
9.29,291.32,-0.955841
9.29167,291.336,-0.955892
9.29333,291.353,-0.955943
9.295,291.37,-0.955999
9.29667,291.386,-0.956059
9.29833,291.403,-0.956119
9.3,291.419,-0.95618
9.30167,291.436,-0.956235
9.30333,291.453,-0.9563
9.305,291.47,-0.956366
9.30667,291.486,-0.95642
9.30833,291.503,-0.956461
9.31,291.519,-0.956507
9.31167,291.536,-0.956547
9.31333,291.553,-0.956585
9.315,291.569,-0.956623
9.31667,291.586,-0.956668
9.31833,291.603,-0.956717
9.32,291.619,-0.956763
9.32167,291.636,-0.956817
9.32333,291.653,-0.95688
9.325,291.67,-0.956947
9.32667,291.686,-0.957022
9.32833,291.703,-0.957092
9.33,291.719,-0.957158
9.33167,291.736,-0.957222
9.33333,291.753,-0.957284
9.335,291.77,-0.957333
9.33667,291.786,-0.957378
9.33833,291.803,-0.957413
9.34,291.82,-0.957445
9.34167,291.836,-0.957478
9.34333,291.853,-0.957505
9.345,291.87,-0.957536
9.34667,291.886,-0.957573
9.34833,291.903,-0.957617
9.35,291.919,-0.957663
9.35167,291.936,-0.957711
9.35333,291.953,-0.957758
9.355,291.969,-0.957804
9.35667,291.986,-0.957854
9.35833,292.003,-0.957914
9.36,292.019,-0.957975
9.36167,292.036,-0.958035
9.36333,292.052,-0.9581
9.365,292.069,-0.95816
9.36667,292.085,-0.958216
9.36833,292.103,-0.958275
9.37,292.119,-0.958327
9.37167,292.135,-0.958364
9.37333,292.152,-0.958403
9.375,292.169,-0.95844
9.37667,292.186,-0.958481
9.37833,292.202,-0.95852
9.38,292.219,-0.958559
9.38167,292.235,-0.958591
9.38333,292.252,-0.958619
9.385,292.269,-0.958649
9.38667,292.285,-0.95868
9.38833,292.302,-0.958712
9.39,292.318,-0.958743
9.39167,292.336,-0.958782
9.39333,292.352,-0.958826
9.395,292.369,-0.958887
9.39667,292.386,-0.958953
9.39833,292.402,-0.959014
9.4,292.419,-0.95907
9.40167,292.435,-0.959122
9.40333,292.452,-0.959185
9.405,292.468,-0.959247
9.40667,292.485,-0.959309
9.40833,292.501,-0.959378
9.41,292.518,-0.959444
9.41167,292.535,-0.959512
9.41333,292.551,-0.959583
9.415,292.568,-0.959652
9.41667,292.585,-0.959709
9.41833,292.602,-0.959763
9.42,292.618,-0.959812
9.42167,292.635,-0.959861
9.42333,292.652,-0.959907
9.425,292.668,-0.959952
9.42667,292.685,-0.959995
9.42833,292.701,-0.960041
9.43,292.718,-0.960092
9.43167,292.734,-0.960148
9.43333,292.751,-0.960206
9.435,292.768,-0.960255
9.43667,292.784,-0.960309
9.43833,292.801,-0.960365
9.44,292.818,-0.960421
9.44167,292.835,-0.960469
9.44333,292.851,-0.960513
9.445,292.868,-0.960553
9.44667,292.885,-0.960588
9.44833,292.901,-0.960618
9.45,292.918,-0.960643
9.45167,292.934,-0.960662
9.45333,292.951,-0.960674
9.455,292.968,-0.960675
9.45667,292.985,-0.960683
9.45833,293.001,-0.960694
9.46,293.018,-0.960703
9.46167,293.035,-0.96072
9.46333,293.051,-0.960755
9.465,293.068,-0.960804
9.46667,293.085,-0.960862
9.46833,293.101,-0.960926
9.47,293.118,-0.961024
9.47167,293.134,-0.961184
9.47333,293.151,-0.961328
9.475,293.168,-0.961489
9.47667,293.184,-0.961596
9.47833,293.201,-0.961667
9.48,293.217,-0.961737
9.48167,293.235,-0.961799
9.48333,293.251,-0.96186
9.485,293.268,-0.961923
9.48667,293.285,-0.961986
9.48833,293.302,-0.962046
9.49,293.318,-0.962096
9.49167,293.334,-0.962151
9.49333,293.351,-0.962214
9.495,293.367,-0.962273
9.49667,293.384,-0.962333
9.49833,293.401,-0.962398
9.5,293.418,-0.962464
9.50167,293.435,-0.962523
9.50333,293.451,-0.962581
9.505,293.468,-0.962646
9.50667,293.484,-0.962716
9.50833,293.501,-0.962789
9.51,293.517,-0.962857
9.51167,293.534,-0.962933
9.51333,293.551,-0.963018
9.515,293.567,-0.963098
9.51667,293.584,-0.963172
9.51833,293.601,-0.96323
9.52,293.618,-0.963279
9.52167,293.634,-0.963317
9.52333,293.651,-0.963343
9.525,293.668,-0.963359
9.52667,293.684,-0.963381
9.52833,293.701,-0.963404
9.53,293.717,-0.963432
9.53167,293.734,-0.963468
9.53333,293.75,-0.96351
9.535,293.767,-0.963555
9.53667,293.784,-0.963604
9.53833,293.8,-0.963654
9.54,293.817,-0.96371
9.54167,293.834,-0.963762
9.54333,293.85,-0.963814
9.545,293.867,-0.963867
9.54667,293.884,-0.963921
9.54833,293.901,-0.963969
9.55,293.917,-0.964017
9.55167,293.934,-0.964062
9.55333,293.95,-0.964108
9.555,293.967,-0.964165
9.55667,293.984,-0.964218
9.55833,294,-0.964278
9.56,294.017,-0.964336
9.56167,294.034,-0.964387
9.56333,294.05,-0.964433
9.565,294.067,-0.964482
9.56667,294.084,-0.964533
9.56833,294.1,-0.964574
9.57,294.117,-0.964609
9.57167,294.133,-0.964647
9.57333,294.15,-0.964686
9.575,294.167,-0.964727
9.57667,294.183,-0.964783
9.57833,294.2,-0.964838
9.58,294.216,-0.964898
9.58167,294.233,-0.964963
9.58333,294.25,-0.965034
9.585,294.266,-0.965098
9.58667,294.283,-0.965159
9.58833,294.3,-0.965221
9.59,294.317,-0.965272
9.59167,294.333,-0.965328
9.59333,294.35,-0.965386
9.595,294.367,-0.965436
9.59667,294.383,-0.965488
9.59833,294.4,-0.965543
9.6,294.416,-0.965599
9.60167,294.433,-0.965663
9.60333,294.45,-0.96572
9.605,294.467,-0.96577
9.60667,294.483,-0.965824
9.60833,294.5,-0.965872
9.61,294.516,-0.965912
9.61167,294.533,-0.965944
9.61333,294.55,-0.965977
9.615,294.566,-0.966018
9.61667,294.583,-0.966054
9.61833,294.599,-0.966086
9.62,294.616,-0.966129
9.62167,294.633,-0.966175
9.62333,294.65,-0.966227
9.625,294.667,-0.966274
9.62667,294.683,-0.966322
9.62833,294.7,-0.966377
9.63,294.717,-0.966437
9.63167,294.733,-0.96649
9.63333,294.75,-0.966547
9.635,294.767,-0.966602
9.63667,294.783,-0.966664
9.63833,294.8,-0.966731
9.64,294.817,-0.966796
9.64167,294.833,-0.966863
9.64333,294.85,-0.966921
9.645,294.866,-0.966977
9.64667,294.883,-0.967038
9.64833,294.9,-0.967095
9.65,294.916,-0.967146
9.65167,294.933,-0.967184
9.65333,294.95,-0.967216
9.655,294.967,-0.967247
9.65667,294.983,-0.967276
9.65833,295,-0.967302
9.66,295.016,-0.967327
9.66167,295.033,-0.967361
9.66333,295.05,-0.967401
9.665,295.067,-0.967458
9.66667,295.084,-0.967523
9.66833,295.1,-0.967596
9.67,295.117,-0.967667
9.67167,295.133,-0.967739
9.67333,295.15,-0.96781
9.675,295.166,-0.967872
9.67667,295.183,-0.967924
9.67833,295.2,-0.967971
9.68,295.216,-0.96802
9.68167,295.233,-0.96807
9.68333,295.249,-0.968116
9.685,295.266,-0.968166
9.68667,295.283,-0.968214
9.68833,295.299,-0.968266
9.69,295.316,-0.968315
9.69167,295.332,-0.968366
9.69333,295.349,-0.968412
9.695,295.366,-0.968461
9.69667,295.383,-0.968514
9.69833,295.4,-0.968572
9.7,295.417,-0.968638
9.70167,295.433,-0.968701
9.70333,295.449,-0.968765
9.705,295.466,-0.968824
9.70667,295.483,-0.968898
9.70833,295.499,-0.968961
9.71,295.516,-0.96901
9.71167,295.532,-0.969048
9.71333,295.549,-0.969088
9.715,295.566,-0.969127
9.71667,295.582,-0.96917
9.71833,295.599,-0.969221
9.72,295.615,-0.969277
9.72167,295.632,-0.969338
9.72333,295.649,-0.969392
9.725,295.665,-0.969451
9.72667,295.682,-0.969511
9.72833,295.698,-0.969572
9.73,295.715,-0.969631
9.73167,295.732,-0.969693
9.73333,295.749,-0.96975
9.735,295.765,-0.969806
9.73667,295.782,-0.969859
9.73833,295.798,-0.969918
9.74,295.815,-0.969978
9.74167,295.832,-0.970034
9.74333,295.848,-0.970092
9.745,295.865,-0.970145
9.74667,295.882,-0.970197
9.74833,295.898,-0.97025
9.75,295.915,-0.970299
9.75167,295.932,-0.970331
9.75333,295.948,-0.970371
9.755,295.965,-0.970404
9.75667,295.981,-0.970436
9.75833,295.998,-0.970466
9.76,296.015,-0.970503
9.76167,296.031,-0.970543
9.76333,296.048,-0.970585
9.765,296.064,-0.970624
9.76667,296.081,-0.970659
9.76833,296.098,-0.970692
9.77,296.115,-0.970734
9.77167,296.131,-0.970781
9.77333,296.147,-0.970827
9.775,296.164,-0.970865
9.77667,296.181,-0.970896
9.77833,296.197,-0.97093
9.78,296.214,-0.970965
9.78167,296.231,-0.971002
9.78333,296.247,-0.971035
9.785,296.264,-0.971068
9.78667,296.281,-0.971101
9.78833,296.298,-0.971147
9.79,296.314,-0.971198
9.79167,296.331,-0.971259
9.79333,296.347,-0.971315
9.795,296.364,-0.971374
9.79667,296.381,-0.971439
9.79833,296.397,-0.971505
9.8,296.414,-0.971573
9.80167,296.43,-0.971638
9.80333,296.447,-0.971705
9.805,296.464,-0.971768
9.80667,296.48,-0.971834
9.80833,296.497,-0.9719
9.81,296.514,-0.971958
9.81167,296.53,-0.97201
9.81333,296.547,-0.97206
9.815,296.564,-0.972115
9.81667,296.58,-0.972169
9.81833,296.597,-0.972218
9.82,296.614,-0.972269
9.82167,296.63,-0.972315
9.82333,296.647,-0.972359
9.825,296.664,-0.972399
9.82667,296.68,-0.972437
9.82833,296.697,-0.972484
9.83,296.714,-0.972525
9.83167,296.731,-0.972563
9.83333,296.747,-0.972603
9.835,296.763,-0.972645
9.83667,296.78,-0.972684
9.83833,296.796,-0.972728
9.84,296.813,-0.972763
9.84167,296.83,-0.972798
9.84333,296.846,-0.972829
9.845,296.863,-0.972863
9.84667,296.88,-0.972899
9.84833,296.896,-0.972936
9.85,296.913,-0.972973
9.85167,296.929,-0.973013
9.85333,296.946,-0.973057
9.855,296.963,-0.973104
9.85667,296.979,-0.973158
9.85833,296.996,-0.973225
9.86,297.013,-0.973288
9.86167,297.03,-0.973357
9.86333,297.046,-0.973429
9.865,297.063,-0.973501
9.86667,297.08,-0.973574
9.86833,297.096,-0.973648
9.87,297.113,-0.973716
9.87167,297.129,-0.973787
9.87333,297.146,-0.973851
9.875,297.162,-0.973911
9.87667,297.179,-0.973979
9.87833,297.196,-0.974028
9.88,297.212,-0.974077
9.88167,297.229,-0.974118
9.88333,297.246,-0.974157
9.885,297.263,-0.974199
9.88667,297.279,-0.974247
9.88833,297.296,-0.974292
9.89,297.312,-0.974338
9.89167,297.329,-0.974384
9.89333,297.345,-0.974427
9.895,297.362,-0.97446
9.89667,297.379,-0.974491
9.89833,297.395,-0.974518
9.9,297.412,-0.974546
9.90167,297.429,-0.974576
9.90333,297.445,-0.974607
9.905,297.462,-0.974636
9.90667,297.479,-0.97467
9.90833,297.495,-0.974714
9.91,297.512,-0.97477
9.91167,297.529,-0.97484
9.91333,297.545,-0.974908
9.915,297.562,-0.974982
9.91667,297.579,-0.975055
9.91833,297.595,-0.975124
9.92,297.612,-0.975195
9.92167,297.629,-0.97526
9.92333,297.645,-0.975324
9.925,297.662,-0.975383
9.92667,297.679,-0.975446
9.92833,297.695,-0.975505
9.93,297.712,-0.975571
9.93167,297.728,-0.975634
9.93333,297.745,-0.97569
9.935,297.762,-0.975736
9.93667,297.778,-0.975775
9.93833,297.795,-0.975811
9.94,297.811,-0.975841
9.94167,297.828,-0.975873
9.94333,297.844,-0.975904
9.945,297.861,-0.975935
9.94667,297.878,-0.975975
9.94833,297.894,-0.976024
9.95,297.911,-0.976081
9.95167,297.928,-0.976133
9.95333,297.945,-0.976187
9.955,297.961,-0.976239
9.95667,297.978,-0.976289
9.95833,297.995,-0.976339
9.96,298.011,-0.976385
9.96167,298.028,-0.976423
9.96333,298.045,-0.976458
9.965,298.061,-0.976486
9.96667,298.078,-0.976527
9.96833,298.094,-0.976563
9.97,298.11,-0.976607
9.97167,298.127,-0.97665
9.97333,298.144,-0.976695
9.975,298.161,-0.976738
9.97667,298.177,-0.976781
9.97833,298.194,-0.97682
9.98,298.211,-0.976853
9.98167,298.228,-0.976882
9.98333,298.244,-0.976921
9.985,298.261,-0.976966
9.98667,298.277,-0.977008
9.98833,298.294,-0.97705
9.99,298.31,-0.977102
9.99167,298.327,-0.977162
9.99333,298.343,-0.977225
9.995,298.36,-0.977295
9.99667,298.377,-0.977362
9.99833,298.394,-0.977429
10,298.411,-0.977502
10.0017,298.427,-0.977577
10.0033,298.444,-0.977647
10.005,298.461,-0.977708
10.0067,298.477,-0.977773
10.0083,298.494,-0.977836
10.01,298.51,-0.97789
10.0117,298.527,-0.977937
10.0133,298.543,-0.977987
10.015,298.56,-0.978033
10.0167,298.577,-0.978075
10.0183,298.593,-0.978126
10.02,298.611,-0.978181
10.0217,298.627,-0.978242
10.0233,298.644,-0.978304
10.025,298.66,-0.978365
10.0267,298.677,-0.978424
10.0283,298.693,-0.978483
10.03,298.71,-0.978532
10.0317,298.726,-0.978578
10.0333,298.743,-0.978627
10.035,298.76,-0.978681
10.0367,298.776,-0.978738
10.0383,298.793,-0.978798
10.04,298.81,-0.978852
10.0417,298.827,-0.978911
10.0433,298.843,-0.978969
10.045,298.86,-0.979022
10.0467,298.877,-0.979076
10.0483,298.893,-0.979118
10.05,298.91,-0.979162
10.0517,298.927,-0.979207
10.0533,298.943,-0.979249
10.055,298.96,-0.979296
10.0567,298.977,-0.979346
10.0583,298.994,-0.979398
10.06,299.01,-0.979449
10.0617,299.027,-0.979503
10.0633,299.043,-0.979557
10.065,299.06,-0.97961
10.0667,299.077,-0.979667
10.0683,299.093,-0.97974
10.07,299.11,-0.97981
10.0717,299.127,-0.979879
10.0733,299.143,-0.979944
10.075,299.16,-0.979991
10.0767,299.176,-0.980032
10.0783,299.193,-0.980061
10.08,299.21,-0.98009
10.0817,299.227,-0.980116
10.0833,299.243,-0.980146
10.085,299.26,-0.980184
10.0867,299.277,-0.980224
10.0883,299.293,-0.980276
10.09,299.31,-0.980338
10.0917,299.327,-0.980412
10.0933,299.343,-0.98048
10.095,299.36,-0.980542
10.0967,299.376,-0.980595
10.0983,299.393,-0.980648
10.1,299.41,-0.980697
10.1017,299.426,-0.980743
10.1033,299.443,-0.980795
10.105,299.46,-0.980851
10.1067,299.477,-0.980904
10.1083,299.493,-0.980954
10.11,299.51,-0.981013
10.1117,299.527,-0.981083
10.1133,299.543,-0.981149
10.115,299.56,-0.981201
10.1167,299.576,-0.981254
10.1183,299.593,-0.981306
10.12,299.609,-0.981359
10.1217,299.626,-0.981405
10.1233,299.643,-0.981452
10.125,299.66,-0.9815
10.1267,299.676,-0.981537
10.1283,299.693,-0.981578
10.13,299.71,-0.98162
10.1317,299.726,-0.981665
10.1333,299.743,-0.981717
10.135,299.759,-0.981769
10.1367,299.776,-0.981821
10.1383,299.792,-0.981874
10.14,299.81,-0.981937
10.1417,299.826,-0.982006
10.1433,299.843,-0.982075
10.145,299.859,-0.982144
10.1467,299.876,-0.982204
10.1483,299.893,-0.982266
10.15,299.909,-0.982328
10.1517,299.926,-0.982391
10.1533,299.942,-0.982451
10.155,299.959,-0.9825
10.1567,299.976,-0.982548
10.1583,299.992,-0.982595
10.16,300.009,-0.982649
10.1617,300.026,-0.982696
10.1633,300.043,-0.982737
10.165,300.06,-0.982776
10.1667,300.076,-0.98281
10.1683,300.093,-0.98284
10.17,300.109,-0.982875
10.1717,300.126,-0.982911
10.1733,300.143,-0.98295
10.175,300.159,-0.982993
10.1767,300.176,-0.983044
10.1783,300.193,-0.983107
10.18,300.21,-0.98317
10.1817,300.227,-0.983236
10.1833,300.243,-0.983293
10.185,300.259,-0.983339
10.1867,300.276,-0.983378
10.1883,300.293,-0.983428
10.19,300.31,-0.983478
10.1917,300.327,-0.983529
10.1933,300.343,-0.983591
10.195,300.36,-0.983658
10.1967,300.377,-0.983733
10.1983,300.393,-0.983839
10.2,300.409,-0.983931
10.2017,300.426,-0.984012
10.2033,300.443,-0.984086
10.205,300.459,-0.984151
10.2067,300.476,-0.984215
10.2083,300.493,-0.984267
10.21,300.509,-0.984309
10.2117,300.526,-0.98435
10.2133,300.542,-0.98439
10.215,300.559,-0.984428
10.2167,300.576,-0.98447
10.2183,300.593,-0.984507
10.22,300.61,-0.984539
10.2217,300.626,-0.984569
10.2233,300.643,-0.984598
10.225,300.66,-0.984632
10.2267,300.676,-0.984668
10.2283,300.693,-0.984705
10.23,300.71,-0.984742
10.2317,300.726,-0.984787
10.2333,300.743,-0.984837
10.235,300.76,-0.984898
10.2367,300.776,-0.984964
10.2383,300.793,-0.985041
10.24,300.809,-0.985117
10.2417,300.826,-0.985187
10.2433,300.843,-0.985251
10.245,300.859,-0.985311
10.2467,300.876,-0.985367
10.2483,300.893,-0.985422
10.25,300.909,-0.985477
10.2517,300.926,-0.985534
10.2533,300.943,-0.985589
10.255,300.959,-0.985637
10.2567,300.976,-0.98568
10.2583,300.993,-0.985733
10.26,301.01,-0.985779
10.2617,301.026,-0.985826
10.2633,301.043,-0.98587
10.265,301.06,-0.985921
10.2667,301.076,-0.985971
10.2683,301.093,-0.986013
10.27,301.109,-0.986055
10.2717,301.126,-0.986097
10.2733,301.143,-0.986135
10.275,301.159,-0.986181
10.2767,301.176,-0.986235
10.2783,301.193,-0.986281
10.28,301.21,-0.986321
10.2817,301.226,-0.986367
10.2833,301.243,-0.98642
10.285,301.259,-0.986477
10.2867,301.276,-0.986536
10.2883,301.293,-0.986595
10.29,301.309,-0.986656
10.2917,301.326,-0.986709
10.2933,301.342,-0.986759
10.295,301.359,-0.986809
10.2967,301.376,-0.986848
10.2983,301.393,-0.986884
10.3,301.409,-0.986916
10.3017,301.426,-0.98694
10.3033,301.442,-0.986969
10.305,301.46,-0.987007
10.3067,301.476,-0.987056
10.3083,301.493,-0.987103
10.31,301.51,-0.987147
10.3117,301.526,-0.987194
10.3133,301.543,-0.987245
10.315,301.559,-0.9873
10.3167,301.575,-0.987346
10.3183,301.592,-0.987392
10.32,301.609,-0.987434
10.3217,301.626,-0.987479
10.3233,301.643,-0.987526
10.325,301.659,-0.987572
10.3267,301.676,-0.98762
10.3283,301.692,-0.987668
10.33,301.709,-0.987708
10.3317,301.726,-0.987743
10.3333,301.743,-0.987789
10.335,301.759,-0.987836
10.3367,301.776,-0.987883
10.3383,301.793,-0.987934
10.34,301.809,-0.987983
10.3417,301.826,-0.988017
10.3433,301.843,-0.98805
10.345,301.859,-0.988089
10.3467,301.876,-0.988129
10.3483,301.892,-0.988168
10.35,301.909,-0.988208
10.3517,301.926,-0.988244
10.3533,301.942,-0.98828
10.355,301.959,-0.98832
10.3567,301.976,-0.988362
10.3583,301.993,-0.988402
10.36,302.009,-0.988441
10.3617,302.026,-0.988479
10.3633,302.043,-0.988523
10.365,302.059,-0.988562
10.3667,302.076,-0.988598
10.3683,302.093,-0.98864
10.37,302.109,-0.988682
10.3717,302.126,-0.988724
10.3733,302.143,-0.988765
10.375,302.159,-0.98881
10.3767,302.176,-0.988856
10.3783,302.192,-0.988907
10.38,302.209,-0.988959
10.3817,302.226,-0.989003
10.3833,302.242,-0.989043
10.385,302.259,-0.989073
10.3867,302.276,-0.989106
10.3883,302.292,-0.989137
10.39,302.309,-0.989167
10.3917,302.326,-0.989196
10.3933,302.342,-0.989227
10.395,302.359,-0.989259
10.3967,302.375,-0.989295
10.3983,302.392,-0.989341
10.4,302.409,-0.989388
10.4017,302.425,-0.98944
10.4033,302.442,-0.9895
10.405,302.458,-0.989566
10.4067,302.475,-0.989627
10.4083,302.492,-0.989685
10.41,302.508,-0.989754
10.4117,302.525,-0.989812
10.4133,302.542,-0.989866
10.415,302.559,-0.989921
10.4167,302.575,-0.989971
10.4183,302.592,-0.990015
10.42,302.609,-0.990055
10.4217,302.626,-0.990098
10.4233,302.642,-0.990137
10.425,302.659,-0.990178
10.4267,302.675,-0.990218
10.4283,302.692,-0.990266
10.43,302.709,-0.990315
10.4317,302.725,-0.990353
10.4333,302.742,-0.990388
10.435,302.759,-0.990414
10.4367,302.776,-0.990444
10.4383,302.792,-0.99047
10.44,302.809,-0.990498
10.4417,302.825,-0.990523
10.4433,302.842,-0.990555
10.445,302.858,-0.990602
10.4467,302.875,-0.990654
10.4483,302.892,-0.990713
10.45,302.908,-0.990775
10.4517,302.925,-0.990836
10.4533,302.942,-0.990892
10.455,302.958,-0.990941
10.4567,302.975,-0.990981
10.4583,302.992,-0.991021
10.46,303.008,-0.991059
10.4617,303.025,-0.991091
10.4633,303.042,-0.991124
10.465,303.058,-0.991163
10.4667,303.075,-0.991205
10.4683,303.091,-0.991247
10.47,303.108,-0.991288
10.4717,303.125,-0.991334
10.4733,303.141,-0.991375
10.475,303.158,-0.99142
10.4767,303.175,-0.991468
10.4783,303.191,-0.991515
10.48,303.208,-0.991563
10.4817,303.225,-0.991617
10.4833,303.241,-0.991666
10.485,303.258,-0.991718
10.4867,303.275,-0.991767
10.4883,303.291,-0.991815
10.49,303.308,-0.991851
10.4917,303.325,-0.99188
10.4933,303.342,-0.99191
10.495,303.358,-0.991945
10.4967,303.375,-0.991996
10.4983,303.391,-0.992055
10.5,303.408,-0.992115
10.5017,303.425,-0.992181
10.5033,303.442,-0.992251
10.505,303.458,-0.992325
10.5067,303.475,-0.992399
10.5083,303.491,-0.992471
10.51,303.508,-0.99253
10.5117,303.524,-0.992582
10.5133,303.541,-0.992637
10.515,303.558,-0.992692
10.5167,303.574,-0.992739
10.5183,303.591,-0.992772
10.52,303.608,-0.9928
10.5217,303.625,-0.992824
10.5233,303.641,-0.992841
10.525,303.658,-0.99286
10.5267,303.675,-0.992876
10.5283,303.691,-0.992897
10.53,303.708,-0.992939
10.5317,303.725,-0.992986
10.5333,303.741,-0.99304
10.535,303.758,-0.993094
10.5367,303.774,-0.993153
10.5383,303.791,-0.993214
10.54,303.808,-0.993272
10.5417,303.824,-0.993334
10.5433,303.841,-0.993392
10.545,303.857,-0.993446
10.5467,303.875,-0.993501
10.5483,303.891,-0.993555
10.55,303.908,-0.993608
10.5517,303.925,-0.993654
10.5533,303.941,-0.993698
10.555,303.958,-0.993739
10.5567,303.975,-0.993776
10.5583,303.991,-0.993816
10.56,304.007,-0.993854
10.5617,304.024,-0.993904
10.5633,304.041,-0.99395
10.565,304.057,-0.993997
10.5667,304.074,-0.994051
10.5683,304.091,-0.994108
10.57,304.108,-0.994175
10.5717,304.124,-0.994245
10.5733,304.141,-0.994312
10.575,304.157,-0.994366
10.5767,304.174,-0.994419
10.5783,304.191,-0.994478
10.58,304.207,-0.994534
10.5817,304.224,-0.994589
10.5833,304.24,-0.994633
10.585,304.257,-0.994675
10.5867,304.274,-0.994721
10.5883,304.291,-0.994769
10.59,304.307,-0.994814
10.5917,304.324,-0.994865
10.5933,304.341,-0.994906
10.595,304.358,-0.994946
10.5967,304.374,-0.994976
10.5983,304.391,-0.995005
10.6,304.407,-0.995034
10.6017,304.424,-0.995066
10.6033,304.441,-0.995109
10.605,304.457,-0.995158
10.6067,304.474,-0.995215
10.6083,304.49,-0.995262
10.61,304.507,-0.995318
10.6117,304.524,-0.995374
10.6133,304.54,-0.995427
10.615,304.557,-0.995475
10.6167,304.574,-0.995515
10.6183,304.59,-0.995551
10.62,304.607,-0.995593
10.6217,304.624,-0.995633
10.6233,304.64,-0.995675
10.625,304.657,-0.99572
10.6267,304.673,-0.995759
10.6283,304.69,-0.995807
10.63,304.707,-0.995858
10.6317,304.723,-0.995908
10.6333,304.74,-0.995959
10.635,304.757,-0.996008
10.6367,304.773,-0.996053
10.6383,304.79,-0.99611
10.64,304.807,-0.99616
10.6417,304.824,-0.996214
10.6433,304.84,-0.996264
10.645,304.857,-0.996307
10.6467,304.874,-0.996346
10.6483,304.89,-0.996378
10.65,304.907,-0.99641
10.6517,304.924,-0.996443
10.6533,304.941,-0.996478
10.655,304.957,-0.996517
10.6567,304.974,-0.996565
10.6583,304.99,-0.996625
10.66,305.007,-0.996694
10.6617,305.024,-0.996775
10.6633,305.04,-0.99688
10.665,305.057,-0.996994
10.6667,305.074,-0.99708
10.6683,305.091,-0.997147
10.67,305.107,-0.997206
10.6717,305.124,-0.997264
10.6733,305.14,-0.997318
10.675,305.157,-0.997361
10.6767,305.173,-0.997403
10.6783,305.19,-0.997434
10.68,305.207,-0.997466
10.6817,305.223,-0.997509
10.6833,305.24,-0.997563
10.685,305.257,-0.997615
10.6867,305.273,-0.997677
10.6883,305.29,-0.997742
10.69,305.307,-0.997804
10.6917,305.324,-0.99787
10.6933,305.34,-0.997948
10.695,305.357,-0.99803
10.6967,305.374,-0.998101
10.6983,305.39,-0.998175
10.7,305.407,-0.998254
10.7017,305.424,-0.998328
10.7033,305.44,-0.998382
10.705,305.456,-0.998432
10.7067,305.474,-0.998482
10.7083,305.49,-0.998525
10.71,305.507,-0.998574
10.7117,305.523,-0.998615
10.7133,305.541,-0.99866
10.715,305.557,-0.998707
10.7167,305.574,-0.998754
10.7183,305.591,-0.998799
10.72,305.607,-0.998834
10.7217,305.624,-0.998854
10.7233,305.641,-0.998871
10.725,305.657,-0.998896
10.7267,305.674,-0.998927
10.7283,305.69,-0.998958
10.73,305.707,-0.998989
10.7317,305.724,-0.999027
10.7333,305.74,-0.999074
10.735,305.757,-0.999132
10.7367,305.773,-0.999192
10.7383,305.79,-0.999259
10.74,305.807,-0.999316
10.7417,305.824,-0.999378
10.7433,305.84,-0.999444
10.745,305.856,-0.999512
10.7467,305.873,-0.999575
10.7483,305.89,-0.999632
10.75,305.907,-0.999689
10.7517,305.923,-0.999752
10.7533,305.94,-0.999814
10.755,305.957,-0.999865
10.7567,305.974,-0.999921
10.7583,305.99,-0.999983
10.76,306.007,-1.00005
10.7617,306.024,-1.00011
10.7633,306.04,-1.00018
10.765,306.057,-1.00026
10.7667,306.073,-1.00033
10.7683,306.09,-1.0004
10.77,306.107,-1.00047
10.7717,306.123,-1.00054
10.7733,306.14,-1.0006
10.775,306.156,-1.00065
10.7767,306.173,-1.00069
10.7783,306.19,-1.00072
10.78,306.206,-1.00075
10.7817,306.223,-1.00079
10.7833,306.24,-1.00083
10.785,306.256,-1.00087
10.7867,306.273,-1.00092
10.7883,306.29,-1.00097
10.79,306.306,-1.00102
10.7917,306.323,-1.00106
10.7933,306.339,-1.00111
10.795,306.356,-1.00115
10.7967,306.373,-1.0012
10.7983,306.39,-1.00126
10.8,306.406,-1.0013
10.8017,306.423,-1.00135
10.8033,306.44,-1.0014
10.805,306.456,-1.00145
10.8067,306.473,-1.00151
10.8083,306.49,-1.00157
10.81,306.506,-1.00163
10.8117,306.523,-1.00169
10.8133,306.54,-1.00175
10.815,306.556,-1.00181
10.8167,306.573,-1.00187
10.8183,306.59,-1.00192
10.82,306.607,-1.00197
10.8217,306.623,-1.00202
10.8233,306.64,-1.00207
10.825,306.656,-1.00212
10.8267,306.673,-1.00217
10.8283,306.69,-1.00222
10.83,306.707,-1.00227
10.8317,306.723,-1.00232
10.8333,306.74,-1.00237
10.835,306.756,-1.00241
10.8367,306.773,-1.00245
10.8383,306.79,-1.00249
10.84,306.806,-1.00252
10.8417,306.823,-1.00255
10.8433,306.839,-1.00257
10.845,306.856,-1.0026
10.8467,306.873,-1.00262
10.8483,306.89,-1.00265
10.85,306.906,-1.00268
10.8517,306.923,-1.00273
10.8533,306.939,-1.00277
10.855,306.956,-1.00282
10.8567,306.973,-1.00287
10.8583,306.99,-1.00292
10.86,307.006,-1.00298
10.8617,307.023,-1.00304
10.8633,307.04,-1.00309
10.865,307.056,-1.00314
10.8667,307.073,-1.00319
10.8683,307.089,-1.00324
10.87,307.106,-1.00329
10.8717,307.122,-1.00334
10.8733,307.139,-1.00339
10.875,307.156,-1.00344
10.8767,307.173,-1.00348
10.8783,307.189,-1.00354
10.88,307.206,-1.0036
10.8817,307.223,-1.00366
10.8833,307.24,-1.00372
10.885,307.256,-1.00378
10.8867,307.273,-1.00384
10.8883,307.289,-1.00389
10.89,307.306,-1.00394
10.8917,307.323,-1.004
10.8933,307.34,-1.00405
10.895,307.356,-1.0041
10.8967,307.373,-1.00416
10.8983,307.389,-1.00421
10.9,307.406,-1.00425
10.9017,307.423,-1.00429
10.9033,307.44,-1.00433
10.905,307.456,-1.00438
10.9067,307.472,-1.00443
10.9083,307.489,-1.00449
10.91,307.506,-1.00453
10.9117,307.522,-1.00458
10.9133,307.539,-1.00463
10.915,307.556,-1.00469
10.9167,307.572,-1.00476
10.9183,307.589,-1.00483
10.92,307.606,-1.0049
10.9217,307.622,-1.00497
10.9233,307.64,-1.00504
10.925,307.656,-1.00511
10.9267,307.673,-1.00517
10.9283,307.69,-1.00522
10.93,307.706,-1.00527
10.9317,307.723,-1.00532
10.9333,307.739,-1.00537
10.935,307.756,-1.0054
10.9367,307.772,-1.00543
10.9383,307.789,-1.00546
10.94,307.806,-1.00549
10.9417,307.822,-1.00551
10.9433,307.839,-1.00554
10.945,307.855,-1.00558
10.9467,307.872,-1.00563
10.9483,307.889,-1.00568
10.95,307.905,-1.00573
10.9517,307.922,-1.0058
10.9533,307.939,-1.00588
10.955,307.956,-1.00595
10.9567,307.972,-1.00601
10.9583,307.989,-1.00607
10.96,308.006,-1.00613
10.9617,308.022,-1.00618
10.9633,308.039,-1.00624
10.965,308.056,-1.00631
10.9667,308.072,-1.00638
10.9683,308.089,-1.00645
10.97,308.106,-1.00652
10.9717,308.123,-1.00659
10.9733,308.139,-1.00665
10.975,308.156,-1.0067
10.9767,308.172,-1.00675
10.9783,308.189,-1.00678
10.98,308.205,-1.00681
10.9817,308.222,-1.00685
10.9833,308.239,-1.00688
10.985,308.256,-1.00692
10.9867,308.272,-1.00697
10.9883,308.289,-1.00701
10.99,308.306,-1.00706
10.9917,308.322,-1.0071
10.9933,308.339,-1.00714
10.995,308.356,-1.00718
10.9967,308.372,-1.00722
10.9983,308.389,-1.00726
11,308.406,-1.0073
11.0017,308.422,-1.00735
11.0033,308.439,-1.00741
11.005,308.455,-1.00746
11.0067,308.472,-1.00751
11.0083,308.489,-1.00756
11.01,308.505,-1.00761
11.0117,308.522,-1.00765
11.0133,308.538,-1.0077
11.015,308.555,-1.00774
11.0167,308.571,-1.00779
11.0183,308.588,-1.00784
11.02,308.605,-1.00789
11.0217,308.622,-1.00795
11.0233,308.638,-1.00803
11.025,308.655,-1.00811
11.0267,308.671,-1.00818
11.0283,308.688,-1.00825
11.03,308.705,-1.00831
11.0317,308.722,-1.00837
11.0333,308.738,-1.00843
11.035,308.755,-1.00847
11.0367,308.772,-1.00851
11.0383,308.788,-1.00853
11.04,308.805,-1.00855
11.0417,308.822,-1.00857
11.0433,308.838,-1.0086
11.045,308.855,-1.00862
11.0467,308.871,-1.00866
11.0483,308.888,-1.0087
11.05,308.905,-1.00874
11.0517,308.921,-1.0088
11.0533,308.938,-1.00885
11.055,308.954,-1.0089
11.0567,308.971,-1.00895
11.0583,308.987,-1.009
11.06,309.004,-1.00906
11.0617,309.021,-1.00911
11.0633,309.038,-1.00917
11.065,309.054,-1.00923
11.0667,309.071,-1.00929
11.0683,309.087,-1.00936
11.07,309.104,-1.00942
11.0717,309.121,-1.00947
11.0733,309.137,-1.00952
11.075,309.154,-1.00955
11.0767,309.171,-1.00958
11.0783,309.187,-1.0096
11.08,309.204,-1.00962
11.0817,309.221,-1.00964
11.0833,309.237,-1.00968
11.085,309.254,-1.00972
11.0867,309.271,-1.00978
11.0883,309.288,-1.00983
11.09,309.304,-1.00988
11.0917,309.321,-1.00993
11.0933,309.337,-1.00999
11.095,309.354,-1.01006
11.0967,309.37,-1.01013
11.0983,309.387,-1.01019
11.1,309.404,-1.01024
11.1017,309.42,-1.01029
11.1033,309.437,-1.01034
11.105,309.454,-1.01037
11.1067,309.47,-1.0104
11.1083,309.487,-1.01043
11.11,309.504,-1.01045
11.1117,309.52,-1.01049
11.1133,309.537,-1.01054
11.115,309.553,-1.01059
11.1167,309.57,-1.01065
11.1183,309.587,-1.01071
11.12,309.603,-1.01077
11.1217,309.62,-1.01085
11.1233,309.637,-1.01092
11.125,309.653,-1.01099
11.1267,309.67,-1.01105
11.1283,309.687,-1.01111
11.13,309.703,-1.01117
11.1317,309.72,-1.01125
11.1333,309.736,-1.01131
11.135,309.753,-1.01136
11.1367,309.769,-1.01141
11.1383,309.786,-1.01146
11.14,309.803,-1.01151
11.1417,309.82,-1.01156
11.1433,309.836,-1.0116
11.145,309.853,-1.01163
11.1467,309.87,-1.01167
11.1483,309.886,-1.01172
11.15,309.903,-1.01176
11.1517,309.919,-1.0118
11.1533,309.936,-1.01184
11.155,309.953,-1.01189
11.1567,309.97,-1.01195
11.1583,309.987,-1.01201
11.16,310.003,-1.01206
11.1617,310.02,-1.01211
11.1633,310.036,-1.01215
11.165,310.053,-1.0122
11.1667,310.07,-1.01224
11.1683,310.086,-1.01229
11.17,310.103,-1.01234
11.1717,310.119,-1.01239
11.1733,310.136,-1.01246
11.175,310.153,-1.01253
11.1767,310.169,-1.01261
11.1783,310.186,-1.01268
11.18,310.202,-1.01281
11.1817,310.219,-1.01299
11.1833,310.236,-1.01311
11.185,310.252,-1.01319
11.1867,310.269,-1.01326
11.1883,310.286,-1.01333
11.19,310.303,-1.01338
11.1917,310.319,-1.01344
11.1933,310.335,-1.01348
11.195,310.352,-1.01351
11.1967,310.369,-1.01353
11.1983,310.385,-1.01356
11.2,310.402,-1.01359
11.2017,310.418,-1.01362
11.2033,310.434,-1.01365
11.205,310.451,-1.0137
11.2067,310.467,-1.01375
11.2083,310.485,-1.01379
11.21,310.502,-1.01384
11.2117,310.518,-1.01389
11.2133,310.535,-1.01393
11.215,310.552,-1.01397
11.2167,310.568,-1.014
11.2183,310.585,-1.01404
11.22,310.601,-1.01407
11.2217,310.618,-1.01412
11.2233,310.635,-1.01416
11.225,310.651,-1.01422
11.2267,310.668,-1.01428
11.2283,310.685,-1.01434
11.23,310.701,-1.01439
11.2317,310.718,-1.01444
11.2333,310.735,-1.01449
11.235,310.751,-1.01453
11.2367,310.768,-1.01458
11.2383,310.785,-1.01462
11.24,310.801,-1.01466
11.2417,310.818,-1.0147
11.2433,310.835,-1.01474
11.245,310.851,-1.01478
11.2467,310.868,-1.01482
11.2483,310.884,-1.01487
11.25,310.901,-1.01491
11.2517,310.918,-1.01494
11.2533,310.934,-1.01498
11.255,310.951,-1.01502
11.2567,310.968,-1.01506
11.2583,310.984,-1.0151
11.26,311.001,-1.01513
11.2617,311.017,-1.01517
11.2633,311.034,-1.01522
11.265,311.051,-1.01528
11.2667,311.068,-1.01534
11.2683,311.084,-1.0154
11.27,311.101,-1.01546
11.2717,311.118,-1.01552
11.2733,311.134,-1.01558
11.275,311.151,-1.01564
11.2767,311.168,-1.01571
11.2783,311.184,-1.01577
11.28,311.201,-1.01584
11.2817,311.218,-1.01591
11.2833,311.234,-1.01598
11.285,311.251,-1.01605
11.2867,311.267,-1.01612
11.2883,311.284,-1.01619
11.29,311.301,-1.01625
11.2917,311.317,-1.01631
11.2933,311.334,-1.01637
11.295,311.351,-1.01643
11.2967,311.368,-1.01648
11.2983,311.384,-1.01653
11.3,311.401,-1.01659
11.3017,311.417,-1.01665
11.3033,311.434,-1.01672
11.305,311.45,-1.01678
11.3067,311.467,-1.01684
11.3083,311.484,-1.0169
11.31,311.5,-1.01695
11.3117,311.517,-1.017
11.3133,311.534,-1.01704
11.315,311.55,-1.01708
11.3167,311.567,-1.01712
11.3183,311.584,-1.01717
11.32,311.601,-1.01722
11.3217,311.617,-1.01727
11.3233,311.634,-1.01733
11.325,311.65,-1.01741
11.3267,311.667,-1.01748
11.3283,311.683,-1.01755
11.33,311.7,-1.01764
11.3317,311.717,-1.01772
11.3333,311.733,-1.01779
11.335,311.75,-1.01786
11.3367,311.767,-1.01792
11.3383,311.783,-1.01797
11.34,311.8,-1.01803
11.3417,311.816,-1.01808
11.3433,311.833,-1.01812
11.345,311.85,-1.01816
11.3467,311.867,-1.0182
11.3483,311.883,-1.01826
11.35,311.9,-1.0183
11.3517,311.917,-1.01835
11.3533,311.933,-1.01842
11.355,311.95,-1.01848
11.3567,311.967,-1.01855
11.3583,311.983,-1.01863
11.36,312,-1.01871
11.3617,312.016,-1.01879
11.3633,312.033,-1.01887
11.365,312.05,-1.01894
11.3667,312.066,-1.01901
11.3683,312.083,-1.01908
11.37,312.1,-1.01913
11.3717,312.116,-1.01919
11.3733,312.133,-1.01924
11.375,312.15,-1.01928
11.3767,312.167,-1.01933
11.3783,312.184,-1.01938
11.38,312.2,-1.01943
11.3817,312.216,-1.0195
11.3833,312.233,-1.01957
11.385,312.249,-1.01964
11.3867,312.266,-1.0197
11.3883,312.283,-1.01977
11.39,312.299,-1.01983
11.3917,312.316,-1.01989
11.3933,312.332,-1.01995
11.395,312.349,-1.02
11.3967,312.366,-1.02006
11.3983,312.383,-1.02012
11.4,312.399,-1.02018
11.4017,312.416,-1.02023
11.4033,312.433,-1.02029
11.405,312.449,-1.02034
11.4067,312.466,-1.02038
11.4083,312.483,-1.02042
11.41,312.5,-1.02046
11.4117,312.516,-1.02049
11.4133,312.533,-1.02054
11.415,312.549,-1.02059
11.4167,312.566,-1.02065
11.4183,312.583,-1.02072
11.42,312.599,-1.0208
11.4217,312.616,-1.02087
11.4233,312.633,-1.02095
11.425,312.649,-1.02103
11.4267,312.666,-1.02111
11.4283,312.683,-1.02118
11.43,312.699,-1.02126
11.4317,312.716,-1.02132
11.4333,312.733,-1.02138
11.435,312.749,-1.02145
11.4367,312.766,-1.02153
11.4383,312.783,-1.02161
11.44,312.8,-1.02169
11.4417,312.816,-1.02177
11.4433,312.832,-1.02182
11.445,312.849,-1.02187
11.4467,312.866,-1.02191
11.4483,312.882,-1.02194
11.45,312.899,-1.02199
11.4517,312.916,-1.02203
11.4533,312.932,-1.02208
11.455,312.949,-1.02213
11.4567,312.965,-1.0222
11.4583,312.982,-1.02228
11.46,312.999,-1.02236
11.4617,313.015,-1.02244
11.4633,313.032,-1.02252
11.465,313.049,-1.02259
11.4667,313.065,-1.02265
11.4683,313.082,-1.02271
11.47,313.099,-1.02277
11.4717,313.116,-1.02281
11.4733,313.132,-1.02285
11.475,313.149,-1.02288
11.4767,313.165,-1.02292
11.4783,313.182,-1.02298
11.48,313.199,-1.02304
11.4817,313.215,-1.02311
11.4833,313.232,-1.02319
11.485,313.249,-1.02329
11.4867,313.266,-1.02344
11.4883,313.283,-1.02355
11.49,313.299,-1.02363
11.4917,313.316,-1.0237
11.4933,313.333,-1.02377
11.495,313.349,-1.02385
11.4967,313.366,-1.02392
11.4983,313.382,-1.024
11.5,313.398,-1.02407
11.5017,313.415,-1.02414
11.5033,313.432,-1.02421
11.505,313.448,-1.02427
11.5067,313.465,-1.02434
11.5083,313.482,-1.0244
11.51,313.498,-1.02446
11.5117,313.515,-1.02451
11.5133,313.532,-1.02457
11.515,313.549,-1.02463
11.5167,313.565,-1.02469
11.5183,313.582,-1.02475
11.52,313.599,-1.02481
11.5217,313.615,-1.02488
11.5233,313.632,-1.02493
11.525,313.648,-1.02498
11.5267,313.665,-1.02504
11.5283,313.682,-1.0251
11.53,313.698,-1.02516
11.5317,313.715,-1.02522
11.5333,313.732,-1.02529
11.535,313.748,-1.02537
11.5367,313.765,-1.02545
11.5383,313.781,-1.02554
11.54,313.798,-1.02562
11.5417,313.815,-1.02569
11.5433,313.831,-1.02577
11.545,313.848,-1.02585
11.5467,313.864,-1.02593
11.5483,313.881,-1.02601
11.55,313.898,-1.02609
11.5517,313.915,-1.02617
11.5533,313.931,-1.02626
11.555,313.948,-1.02634
11.5567,313.965,-1.02642
11.5583,313.982,-1.0265
11.56,313.998,-1.02658
11.5617,314.014,-1.02666
11.5633,314.031,-1.02674
11.565,314.048,-1.0268
11.5667,314.065,-1.02685
11.5683,314.081,-1.0269
11.57,314.098,-1.02694
11.5717,314.114,-1.02699
11.5733,314.131,-1.02704
11.575,314.148,-1.02708
11.5767,314.165,-1.02713
11.5783,314.181,-1.02718
11.58,314.198,-1.02722
11.5817,314.214,-1.02727
11.5833,314.231,-1.02731
11.585,314.248,-1.02735
11.5867,314.264,-1.02739
11.5883,314.281,-1.02743
11.59,314.298,-1.02749
11.5917,314.314,-1.02755
11.5933,314.331,-1.02761
11.595,314.348,-1.02769
11.5967,314.364,-1.02776
11.5983,314.381,-1.02784
11.6,314.398,-1.02792
11.6017,314.414,-1.028
11.6033,314.431,-1.02808
11.605,314.447,-1.02816
11.6067,314.464,-1.02823
11.6083,314.481,-1.02831
11.61,314.497,-1.02838
11.6117,314.514,-1.02844
11.6133,314.531,-1.02849
11.615,314.547,-1.02854
11.6167,314.563,-1.02858
11.6183,314.58,-1.02863
11.62,314.597,-1.02868
11.6217,314.614,-1.02874
11.6233,314.63,-1.0288
11.625,314.647,-1.02888
11.6267,314.663,-1.02898
11.6283,314.68,-1.02914
11.63,314.697,-1.02927
11.6317,314.714,-1.02938
11.6333,314.73,-1.02946
11.635,314.747,-1.02954
11.6367,314.764,-1.02961
11.6383,314.78,-1.02967
11.64,314.797,-1.02974
11.6417,314.813,-1.0298
11.6433,314.83,-1.02987
11.645,314.847,-1.02994
11.6467,314.864,-1.03001
11.6483,314.88,-1.03008
11.65,314.897,-1.03015
11.6517,314.913,-1.03022
11.6533,314.93,-1.03029
11.655,314.946,-1.03036
11.6567,314.963,-1.03042
11.6583,314.98,-1.03049
11.66,314.996,-1.03055
11.6617,315.013,-1.03061
11.6633,315.03,-1.03066
11.665,315.047,-1.03072
11.6667,315.063,-1.03078
11.6683,315.08,-1.03085
11.67,315.097,-1.03093
11.6717,315.113,-1.03101
11.6733,315.13,-1.03109
11.675,315.146,-1.03117
11.6767,315.163,-1.03125
11.6783,315.18,-1.03132
11.68,315.197,-1.03139
11.6817,315.213,-1.03145
11.6833,315.23,-1.03151
11.685,315.247,-1.03156
11.6867,315.263,-1.03162
11.6883,315.279,-1.03168
11.69,315.296,-1.03175
11.6917,315.313,-1.03182
11.6933,315.329,-1.0319
11.695,315.346,-1.03197
11.6967,315.363,-1.03205
11.6983,315.38,-1.03212
11.7,315.396,-1.0322
11.7017,315.413,-1.03228
11.7033,315.429,-1.03237
11.705,315.446,-1.03246
11.7067,315.463,-1.03254
11.7083,315.48,-1.03263
11.71,315.496,-1.03271
11.7117,315.512,-1.0328
11.7133,315.53,-1.0329
11.715,315.546,-1.033
11.7167,315.562,-1.03309
11.7183,315.579,-1.03318
11.72,315.596,-1.03327
11.7217,315.613,-1.03335
11.7233,315.629,-1.03343
11.725,315.646,-1.03352
11.7267,315.662,-1.03361
11.7283,315.679,-1.03369
11.73,315.696,-1.03378
11.7317,315.713,-1.03386
11.7333,315.729,-1.03395
11.735,315.745,-1.03404
11.7367,315.762,-1.03411
11.7383,315.779,-1.03418
11.74,315.795,-1.03423
11.7417,315.812,-1.03428
11.7433,315.829,-1.03432
11.745,315.845,-1.03436
11.7467,315.862,-1.0344
11.7483,315.879,-1.03444
11.75,315.895,-1.0345
11.7517,315.912,-1.03458
11.7533,315.929,-1.03467
11.755,315.945,-1.03476
11.7567,315.962,-1.03486
11.7583,315.979,-1.035
11.76,315.995,-1.03512
11.7617,316.012,-1.03521
11.7633,316.029,-1.0353
11.765,316.045,-1.03539
11.7667,316.062,-1.03547
11.7683,316.079,-1.03555
11.77,316.095,-1.03562
11.7717,316.112,-1.0357
11.7733,316.128,-1.03578
11.775,316.145,-1.03586
11.7767,316.162,-1.03594
11.7783,316.178,-1.03602
11.78,316.195,-1.0361
11.7817,316.212,-1.03617
11.7833,316.228,-1.03623
11.785,316.245,-1.0363
11.7867,316.262,-1.03637
11.7883,316.278,-1.03645
11.79,316.295,-1.03652
11.7917,316.312,-1.03659
11.7933,316.328,-1.03668
11.795,316.345,-1.03676
11.7967,316.361,-1.03685
11.7983,316.378,-1.03692
11.8,316.395,-1.037
11.8017,316.412,-1.03707
11.8033,316.428,-1.03713
11.805,316.444,-1.03719
11.8067,316.461,-1.03726
11.8083,316.478,-1.03734
11.81,316.495,-1.03741
11.8117,316.511,-1.03749
11.8133,316.528,-1.03757
11.815,316.545,-1.03766
11.8167,316.561,-1.03773
11.8183,316.578,-1.03781
11.82,316.595,-1.03789
11.8217,316.611,-1.03798
11.8233,316.628,-1.03806
11.825,316.645,-1.03814
11.8267,316.661,-1.03823
11.8283,316.678,-1.03832
11.83,316.695,-1.03841
11.8317,316.712,-1.03851
11.8333,316.728,-1.0386
11.835,316.745,-1.03869
11.8367,316.761,-1.03877
11.8383,316.778,-1.03885
11.84,316.795,-1.03892
11.8417,316.811,-1.03899
11.8433,316.828,-1.03906
11.845,316.844,-1.03912
11.8467,316.861,-1.03918
11.8483,316.878,-1.03924
11.85,316.894,-1.03931
11.8517,316.911,-1.03938
11.8533,316.928,-1.03946
11.855,316.944,-1.03954
11.8567,316.961,-1.03962
11.8583,316.978,-1.03971
11.86,316.994,-1.03979
11.8617,317.011,-1.03988
11.8633,317.027,-1.03996
11.865,317.044,-1.04005
11.8667,317.061,-1.04015
11.8683,317.077,-1.04029
11.87,317.094,-1.04046
11.8717,317.111,-1.04059
11.8733,317.127,-1.04072
11.875,317.144,-1.04082
11.8767,317.161,-1.04093
11.8783,317.177,-1.04102
11.88,317.194,-1.04111
11.8817,317.211,-1.04118
11.8833,317.227,-1.04125
11.885,317.244,-1.04132
11.8867,317.261,-1.0414
11.8883,317.277,-1.04148
11.89,317.293,-1.04156
11.8917,317.31,-1.04164
11.8933,317.326,-1.04172
11.895,317.344,-1.0418
11.8967,317.36,-1.04189
11.8983,317.377,-1.04198
11.9,317.393,-1.04207
11.9017,317.41,-1.04216
11.9033,317.427,-1.04224
11.905,317.444,-1.04233
11.9067,317.46,-1.04242
11.9083,317.477,-1.04251
11.91,317.493,-1.0426
11.9117,317.509,-1.04269
11.9133,317.526,-1.04277
11.915,317.543,-1.04286
11.9167,317.56,-1.04295
11.9183,317.577,-1.04303
11.92,317.593,-1.04311
11.9217,317.61,-1.0432
11.9233,317.627,-1.04329
11.925,317.644,-1.04338
11.9267,317.66,-1.04348
11.9283,317.677,-1.04359
11.93,317.693,-1.04369
11.9317,317.71,-1.0438
11.9333,317.726,-1.04389
11.935,317.743,-1.04398
11.9367,317.76,-1.04406
11.9383,317.776,-1.04414
11.94,317.793,-1.04421
11.9417,317.81,-1.04427
11.9433,317.826,-1.04435
11.945,317.843,-1.04443
11.9467,317.86,-1.04451
11.9483,317.876,-1.0446
11.95,317.893,-1.04471
11.9517,317.91,-1.04484
11.9533,317.926,-1.04502
11.955,317.943,-1.04516
11.9567,317.96,-1.04526
11.9583,317.976,-1.04537
11.96,317.993,-1.04548
11.9617,318.009,-1.04558
11.9633,318.026,-1.04568
11.965,318.043,-1.04577
11.9667,318.059,-1.04586
11.9683,318.076,-1.04595
11.97,318.093,-1.04603
11.9717,318.109,-1.04612
11.9733,318.126,-1.0462
11.975,318.143,-1.04628
11.9767,318.16,-1.04637
11.9783,318.176,-1.04646
11.98,318.193,-1.04655
11.9817,318.209,-1.04667
11.9833,318.226,-1.04683
11.985,318.243,-1.04699
11.9867,318.259,-1.04711
11.9883,318.276,-1.04721
11.99,318.293,-1.04731
11.9917,318.309,-1.04741
11.9933,318.325,-1.04749
11.995,318.342,-1.04756
11.9967,318.359,-1.04763
11.9983,318.376,-1.04771
12,318.392,-1.04778
12.0017,318.409,-1.04785
12.0033,318.426,-1.04793
12.005,318.443,-1.04802
12.0067,318.459,-1.04811
12.0083,318.476,-1.04821
12.01,318.492,-1.04831
12.0117,318.509,-1.0484
12.0133,318.525,-1.04849
12.015,318.542,-1.04859
12.0167,318.558,-1.04869
12.0183,318.575,-1.04879
12.02,318.592,-1.04889
12.0217,318.609,-1.049
12.0233,318.625,-1.04911
12.025,318.642,-1.04922
12.0267,318.658,-1.04934
12.0283,318.675,-1.04946
12.03,318.692,-1.04957
12.0317,318.709,-1.04969
12.0333,318.726,-1.0498
12.035,318.742,-1.04992
12.0367,318.759,-1.05004
12.0383,318.775,-1.05017
12.04,318.792,-1.05033
12.0417,318.809,-1.05047
12.0433,318.825,-1.05059
12.045,318.842,-1.05069
12.0467,318.858,-1.0508
12.0483,318.875,-1.05091
12.05,318.892,-1.051
12.0517,318.908,-1.0511
12.0533,318.926,-1.0512
12.055,318.942,-1.05129
12.0567,318.958,-1.05139
12.0583,318.975,-1.0515
12.06,318.992,-1.05161
12.0617,319.008,-1.05172
12.0633,319.025,-1.05183
12.065,319.042,-1.05193
12.0667,319.059,-1.05204
12.0683,319.076,-1.05216
12.07,319.092,-1.05227
12.0717,319.109,-1.05239
12.0733,319.126,-1.05251
12.075,319.142,-1.05262
12.0767,319.159,-1.05273
12.0783,319.176,-1.05285
12.08,319.192,-1.05299
12.0817,319.209,-1.05312
12.0833,319.225,-1.05325
12.085,319.242,-1.05343
12.0867,319.259,-1.05365
12.0883,319.275,-1.05398
12.09,319.292,-1.05433
12.0917,319.308,-1.05462
12.0933,319.325,-1.0548
12.095,319.342,-1.05493
12.0967,319.359,-1.05506
12.0983,319.375,-1.05519
12.1,319.392,-1.05532
12.1017,319.408,-1.05544
12.1033,319.425,-1.05555
12.105,319.442,-1.05567
12.1067,319.458,-1.05578
12.1083,319.475,-1.05589
12.11,319.492,-1.056
12.1117,319.508,-1.05611
12.1133,319.525,-1.05622
12.115,319.542,-1.05632
12.1167,319.558,-1.05642
12.1183,319.575,-1.05651
12.12,319.591,-1.05661
12.1217,319.608,-1.05669
12.1233,319.624,-1.05679
12.125,319.641,-1.05691
12.1267,319.658,-1.05702
12.1283,319.674,-1.05714
12.13,319.691,-1.05725
12.1317,319.708,-1.05737
12.1333,319.724,-1.0575
12.135,319.741,-1.05762
12.1367,319.758,-1.05774
12.1383,319.774,-1.05786
12.14,319.791,-1.05797
12.1417,319.808,-1.05808
12.1433,319.824,-1.05819
12.145,319.841,-1.05831
12.1467,319.858,-1.05843
12.1483,319.874,-1.05854
12.15,319.891,-1.05864
12.1517,319.908,-1.05875
12.1533,319.924,-1.05885
12.155,319.941,-1.05895
12.1567,319.957,-1.05905
12.1583,319.974,-1.05915
12.16,319.991,-1.05926
12.1617,320.007,-1.05937
12.1633,320.024,-1.05949
12.165,320.041,-1.05961
12.1667,320.058,-1.05974
12.1683,320.074,-1.05987
12.17,320.091,-1.05999
12.1717,320.107,-1.06011
12.1733,320.124,-1.06024
12.175,320.141,-1.06037
12.1767,320.157,-1.06048
12.1783,320.174,-1.06059
12.18,320.191,-1.0607
12.1817,320.207,-1.06081
12.1833,320.223,-1.06094
12.185,320.24,-1.06106
12.1867,320.257,-1.06119
12.1883,320.274,-1.06143
12.19,320.291,-1.06171
12.1917,320.307,-1.06197
12.1933,320.324,-1.06215
12.195,320.341,-1.06228
12.1967,320.357,-1.0624
12.1983,320.374,-1.06251
12.2,320.391,-1.06262
12.2017,320.407,-1.06273
12.2033,320.424,-1.06284
12.205,320.44,-1.06294
12.2067,320.457,-1.06306
12.2083,320.474,-1.06318
12.21,320.49,-1.06331
12.2117,320.507,-1.06344
12.2133,320.524,-1.06362
12.215,320.541,-1.06387
12.2167,320.557,-1.06405
12.2183,320.574,-1.06424
12.22,320.591,-1.0645
12.2217,320.608,-1.06486
12.2233,320.625,-1.06508
12.225,320.641,-1.06525
12.2267,320.658,-1.06549
12.2283,320.675,-1.06575
12.23,320.691,-1.06602
12.2317,320.708,-1.06631
12.2333,320.724,-1.06653
12.235,320.741,-1.06667
12.2367,320.757,-1.06689
12.2383,320.774,-1.06709
12.24,320.791,-1.06735
12.2417,320.807,-1.06754
12.2433,320.824,-1.06769
12.245,320.841,-1.06783
12.2467,320.857,-1.06797
12.2483,320.874,-1.06811
12.25,320.891,-1.06824
12.2517,320.907,-1.06836
12.2533,320.924,-1.06847
12.255,320.94,-1.06858
12.2567,320.957,-1.0687
12.2583,320.974,-1.06882
12.26,320.99,-1.06894
12.2617,321.007,-1.06905
12.2633,321.024,-1.06918
12.265,321.04,-1.06931
12.2667,321.057,-1.06946
12.2683,321.074,-1.06969
12.27,321.09,-1.0699
12.2717,321.107,-1.07009
12.2733,321.123,-1.07032
12.275,321.14,-1.07065
12.2767,321.156,-1.07093
12.2783,321.173,-1.07112
12.28,321.19,-1.07126
12.2817,321.206,-1.07139
12.2833,321.223,-1.07154
12.285,321.24,-1.07166
12.2867,321.256,-1.07178
12.2883,321.273,-1.07191
12.29,321.29,-1.07202
12.2917,321.307,-1.07214
12.2933,321.323,-1.07226
12.295,321.34,-1.07238
12.2967,321.356,-1.07251
12.2983,321.373,-1.07264
12.3,321.389,-1.07278
12.3017,321.406,-1.07292
12.3033,321.422,-1.07306
12.305,321.439,-1.0732
12.3067,321.456,-1.07334
12.3083,321.472,-1.07348
12.31,321.489,-1.07362
12.3117,321.505,-1.07377
12.3133,321.522,-1.07391
12.315,321.539,-1.07413
12.3167,321.556,-1.07427
12.3183,321.573,-1.07442
12.32,321.589,-1.07456
12.3217,321.606,-1.07471
12.3233,321.622,-1.07486
12.325,321.639,-1.075
12.3267,321.655,-1.07513
12.3283,321.672,-1.07525
12.33,321.689,-1.07537
12.3317,321.705,-1.07549
12.3333,321.721,-1.07562
12.335,321.738,-1.07574
12.3367,321.755,-1.07587
12.3383,321.771,-1.07606
12.34,321.788,-1.0764
12.3417,321.805,-1.07676
12.3433,321.822,-1.07705
12.345,321.838,-1.07747
12.3467,321.855,-1.07784
12.3483,321.872,-1.07833
12.35,321.888,-1.07893
12.3517,321.905,-1.07939
12.3533,321.921,-1.07978
12.355,321.937,-1.08007
12.3567,321.955,-1.08027
12.3583,321.971,-1.08048
12.36,321.988,-1.08063
12.3617,322.004,-1.08081
12.3633,322.021,-1.08096
12.365,322.038,-1.0811
12.3667,322.054,-1.08125
12.3683,322.071,-1.0814
12.37,322.088,-1.08165
12.3717,322.104,-1.08199
12.3733,322.121,-1.0824
12.375,322.138,-1.08288
12.3767,322.154,-1.08348
12.3783,322.171,-1.08406
12.38,322.188,-1.08442
12.3817,322.204,-1.08475
12.3833,322.221,-1.08497
12.385,322.237,-1.08511
12.3867,322.254,-1.08525
12.3883,322.27,-1.0854
12.39,322.287,-1.08553
12.3917,322.304,-1.08567
12.3933,322.321,-1.08581
12.395,322.337,-1.086
12.3967,322.354,-1.08614
12.3983,322.37,-1.08627
12.4,322.387,-1.08643
12.4017,322.404,-1.08657
12.4033,322.42,-1.08676
12.405,322.437,-1.08715
12.4067,322.453,-1.08753
12.4083,322.47,-1.08809
12.41,322.487,-1.08876
12.4117,322.503,-1.08922
12.4133,322.52,-1.08961
12.415,322.537,-1.09001
12.4167,322.554,-1.09046
12.4183,322.57,-1.09096
12.42,322.587,-1.09132
12.4217,322.604,-1.09155
12.4233,322.62,-1.09178
12.425,322.637,-1.09199
12.4267,322.653,-1.09221
12.4283,322.67,-1.09235
12.43,322.686,-1.09249
12.4317,322.703,-1.09263
12.4333,322.72,-1.09277
12.435,322.736,-1.09295
12.4367,322.753,-1.09322
12.4383,322.77,-1.09364
12.44,322.786,-1.09402
12.4417,322.803,-1.09458
12.4433,322.82,-1.09534
12.445,322.836,-1.09631
12.4467,322.853,-1.09717
12.4483,322.869,-1.09804
12.45,322.886,-1.09871
12.4517,322.903,-1.09916
12.4533,322.919,-1.09958
12.455,322.936,-1.09989
12.4567,322.952,-1.1001
12.4583,322.969,-1.10034
12.46,322.986,-1.10059
12.4617,323.002,-1.10083
12.4633,323.019,-1.10112
12.465,323.036,-1.10148
12.4667,323.052,-1.10165
12.4683,323.069,-1.10184
12.47,323.085,-1.10211
12.4717,323.102,-1.10242
12.4733,323.119,-1.10276
12.475,323.135,-1.10317
12.4767,323.152,-1.10367
12.4783,323.169,-1.10435
12.48,323.185,-1.10513
12.4817,323.202,-1.1058
12.4833,323.219,-1.10655
12.485,323.235,-1.10726
12.4867,323.252,-1.10814
12.4883,323.269,-1.1088
12.49,323.285,-1.10934
12.4917,323.302,-1.10971
12.4933,323.319,-1.10995
12.495,323.336,-1.11023
12.4967,323.352,-1.11057
12.4983,323.369,-1.11092
12.5,323.385,-1.11136
12.5017,323.401,-1.11182
12.5033,323.418,-1.11222
12.505,323.435,-1.11264
12.5067,323.451,-1.11296
12.5083,323.468,-1.1132
12.51,323.485,-1.11343
12.5117,323.501,-1.11368
12.5133,323.518,-1.11392
12.515,323.534,-1.11419
12.5167,323.551,-1.11442
12.5183,323.568,-1.1148
12.52,323.584,-1.11531
12.5217,323.601,-1.11586
12.5233,323.617,-1.11651
12.525,323.634,-1.11723
12.5267,323.651,-1.11778
12.5283,323.667,-1.1183
12.53,323.684,-1.11891
12.5317,323.7,-1.11959
12.5333,323.717,-1.12034
12.535,323.734,-1.12096
12.5367,323.75,-1.12149
12.5383,323.767,-1.12208
12.54,323.783,-1.12259
12.5417,323.8,-1.12315
12.5433,323.817,-1.12381
12.545,323.833,-1.12434
12.5467,323.85,-1.12487
12.5483,323.867,-1.12532
12.55,323.883,-1.12588
12.5517,323.899,-1.1265
12.5533,323.916,-1.12708
12.555,323.933,-1.12784
12.5567,323.949,-1.12884
12.5583,323.966,-1.12972
12.56,323.983,-1.13053
12.5617,323.999,-1.1312
12.5633,324.016,-1.1318
12.565,324.032,-1.13233
12.5667,324.049,-1.1328
12.5683,324.066,-1.13318
12.57,324.082,-1.13367
12.5717,324.099,-1.13414
12.5733,324.116,-1.13464
12.575,324.133,-1.13534
12.5767,324.149,-1.13607
12.5783,324.166,-1.13672
12.58,324.182,-1.13747
12.5817,324.199,-1.13839
12.5833,324.216,-1.1393
12.585,324.232,-1.1401
12.5867,324.249,-1.14078
12.5883,324.265,-1.14151
12.59,324.282,-1.14219
12.5917,324.298,-1.14285
12.5933,324.315,-1.14337
12.595,324.332,-1.14401
12.5967,324.348,-1.14491
12.5983,324.365,-1.14581
12.6,324.381,-1.14684
12.6017,324.398,-1.14788
12.6033,324.415,-1.14914
12.605,324.431,-1.15033
12.6067,324.448,-1.1513
12.6083,324.464,-1.15241
12.61,324.481,-1.15336
12.6117,324.498,-1.1541
12.6133,324.514,-1.15461
12.615,324.531,-1.15511
12.6167,324.548,-1.15571
12.6183,324.564,-1.15639
12.62,324.581,-1.15718
12.6217,324.597,-1.15806
12.6233,324.614,-1.15931
12.625,324.631,-1.16057
12.6267,324.647,-1.16176
12.6283,324.664,-1.16289
12.63,324.68,-1.16408
12.6317,324.697,-1.16512
12.6333,324.714,-1.16626
12.635,324.73,-1.16736
12.6367,324.747,-1.16844
12.6383,324.764,-1.16967
12.64,324.78,-1.17088
12.6417,324.797,-1.17208
12.6433,324.813,-1.1729
12.645,324.83,-1.17351
12.6467,324.847,-1.17404
12.6483,324.863,-1.17445
12.65,324.88,-1.17487
12.6517,324.897,-1.17529
12.6533,324.913,-1.17569
12.655,324.93,-1.17608
12.6567,324.947,-1.17659
12.6583,324.964,-1.1772
12.66,324.98,-1.17793
12.6617,324.996,-1.17881
12.6633,325.013,-1.17973
12.665,325.029,-1.18089
12.6667,325.046,-1.18227
12.6683,325.063,-1.18359
12.67,325.079,-1.18505
12.6717,325.096,-1.18659
12.6733,325.112,-1.18777
12.675,325.129,-1.18876
12.6767,325.146,-1.18972
12.6783,325.162,-1.19079
12.68,325.179,-1.1919
12.6817,325.195,-1.19275
12.6833,325.212,-1.19353
12.685,325.228,-1.19438
12.6867,325.245,-1.19517
12.6883,325.262,-1.19597
12.69,325.278,-1.19724
12.6917,325.295,-1.19895
12.6933,325.311,-1.20064
12.695,325.328,-1.20269
12.6967,325.344,-1.20505
12.6983,325.361,-1.20765
12.7,325.378,-1.20958
12.7017,325.394,-1.2109
12.7033,325.411,-1.21159
12.705,325.427,-1.21244
12.7067,325.444,-1.21292
12.7083,325.461,-1.21344
12.71,325.477,-1.21408
12.7117,325.494,-1.21461
12.7133,325.511,-1.21526
12.715,325.527,-1.21621
12.7167,325.544,-1.21739
12.7183,325.561,-1.21852
12.72,325.577,-1.21999
12.7217,325.594,-1.22168
12.7233,325.611,-1.22363
12.725,325.627,-1.22521
12.7267,325.643,-1.22655
12.7283,325.66,-1.22796
12.73,325.676,-1.22925
12.7317,325.692,-1.23061
12.7333,325.708,-1.23175
12.735,325.725,-1.23332
12.7367,325.742,-1.23517
12.7383,325.759,-1.23677
12.74,325.775,-1.23838
12.7417,325.792,-1.23988
12.7433,325.808,-1.24142
12.745,325.825,-1.24288
12.7467,325.842,-1.24421
12.7483,325.858,-1.2453
12.75,325.875,-1.24666
12.7517,325.891,-1.24805
12.7533,325.908,-1.24975
12.755,325.924,-1.25183
12.7567,325.941,-1.25395
12.7583,325.958,-1.25554
12.76,325.974,-1.25718
12.7617,325.991,-1.25879
12.7633,326.008,-1.25989
12.765,326.024,-1.26059
12.7667,326.04,-1.26123
12.7683,326.057,-1.26157
12.77,326.074,-1.26204
12.7717,326.09,-1.2628
12.7733,326.107,-1.26364
12.775,326.123,-1.2646
12.7767,326.14,-1.26633
12.7783,326.156,-1.26902
12.78,326.173,-1.27176
12.7817,326.19,-1.27492
12.7833,326.207,-1.27799
12.785,326.223,-1.28092
12.7867,326.24,-1.28341
12.7883,326.256,-1.28579
12.79,326.272,-1.28763
12.7917,326.289,-1.28935
12.7933,326.305,-1.29018
12.795,326.322,-1.29128
12.7967,326.338,-1.29293
12.7983,326.355,-1.29379
12.8,326.372,-1.29484
12.8017,326.388,-1.29618
12.8033,326.405,-1.29773
12.805,326.421,-1.29955
12.8067,326.438,-1.30169
12.8083,326.455,-1.30365
12.81,326.471,-1.30616
12.8117,326.488,-1.30868
12.8133,326.504,-1.31153
12.815,326.521,-1.31475
12.8167,326.537,-1.31802
12.8183,326.554,-1.32068
12.82,326.57,-1.32249
12.8217,326.587,-1.32459
12.8233,326.603,-1.32678
12.825,326.62,-1.32838
12.8267,326.636,-1.32938
12.8283,326.653,-1.33087
12.83,326.67,-1.33191
12.8317,326.686,-1.33347
12.8333,326.703,-1.33583
12.835,326.719,-1.3389
12.8367,326.736,-1.34168
12.8383,326.752,-1.344
12.84,326.769,-1.34629
12.8417,326.785,-1.34885
12.8433,326.802,-1.35184
12.845,326.818,-1.35433
12.8467,326.835,-1.35692
12.8483,326.851,-1.35929
12.85,326.868,-1.36235
12.8517,326.884,-1.36548
12.8533,326.901,-1.36844
12.855,326.917,-1.37266
12.8567,326.934,-1.37506
12.8583,326.95,-1.37757
12.86,326.967,-1.38015
12.8617,326.984,-1.38187
12.8633,327,-1.38255
12.865,327.016,-1.38421
12.8667,327.033,-1.38641
12.8683,327.049,-1.39011
12.87,327.066,-1.39326
12.8717,327.082,-1.39653
12.8733,327.099,-1.39964
12.875,327.116,-1.40337
12.8767,327.132,-1.40567
12.8783,327.148,-1.40945
12.88,327.165,-1.41178
12.8817,327.181,-1.41368
12.8833,327.198,-1.41539
12.885,327.214,-1.41815
12.8867,327.231,-1.41993
12.8883,327.247,-1.4231
12.89,327.264,-1.42653
12.8917,327.28,-1.42958
12.8933,327.297,-1.43304
12.895,327.313,-1.43789
12.8967,327.33,-1.44195
12.8983,327.346,-1.44541
12.9,327.363,-1.44917
12.9017,327.379,-1.4528
12.9033,327.396,-1.45564
12.905,327.412,-1.45847
12.9067,327.429,-1.46173
12.9083,327.445,-1.46439
12.91,327.462,-1.4684
12.9117,327.478,-1.47088
12.9133,327.494,-1.4732
12.915,327.511,-1.47671
12.9167,327.528,-1.47975
12.9183,327.544,-1.48318
12.92,327.56,-1.48655
12.9217,327.576,-1.48964
12.9233,327.593,-1.49273
12.925,327.61,-1.49767
12.9267,327.626,-1.50051
12.9283,327.643,-1.50513
12.93,327.659,-1.50967
12.9317,327.676,-1.51395
12.9333,327.692,-1.51694
12.935,327.708,-1.52145
12.9367,327.725,-1.52496
12.9383,327.742,-1.53029
12.94,327.758,-1.53385
12.9417,327.774,-1.53699
12.9433,327.791,-1.54121
12.945,327.807,-1.54542
12.9467,327.824,-1.54899
12.9483,327.84,-1.55426
12.95,327.856,-1.55817
12.9517,327.873,-1.56266
12.9533,327.889,-1.56719
12.955,327.905,-1.57204
12.9567,327.922,-1.57612
12.9583,327.938,-1.57982
12.96,327.955,-1.58341
12.9617,327.971,-1.58617
12.9633,327.988,-1.59028
12.965,328.004,-1.59523
12.9667,328.02,-1.59974
12.9683,328.036,-1.60414
12.97,328.053,-1.60852
12.9717,328.069,-1.61293
12.9733,328.086,-1.61777
12.975,328.102,-1.6234
12.9767,328.119,-1.62811
12.9783,328.135,-1.63364
12.98,328.151,-1.63821
12.9817,328.167,-1.64279
12.9833,328.184,-1.64672
12.985,328.2,-1.65097
12.9867,328.216,-1.65657
12.9883,328.233,-1.6626
12.99,328.249,-1.66823
12.9917,328.266,-1.67388
12.9933,328.282,-1.68055
12.995,328.299,-1.68702
12.9967,328.315,-1.69373
12.9983,328.332,-1.69879
13,328.348,-1.70292
13.0017,328.364,-1.70742
13.0033,328.381,-1.71039
13.005,328.397,-1.71407
13.0067,328.413,-1.71826
13.0083,328.43,-1.72338
13.01,328.446,-1.72814
13.0117,328.462,-1.73275
13.0133,328.478,-1.73798
13.015,328.495,-1.74313
13.0167,328.511,-1.74855
13.0183,328.527,-1.75325
13.02,328.544,-1.75965
13.0217,328.56,-1.76582
13.0233,328.576,-1.77223
13.025,328.592,-1.77843
13.0267,328.608,-1.78514
13.0283,328.625,-1.79241
13.03,328.642,-1.79877
13.0317,328.658,-1.80509
13.0333,328.674,-1.81127
13.035,328.69,-1.81748
13.0367,328.706,-1.82234
13.0383,328.723,-1.82746
13.04,328.739,-1.83377
13.0417,328.755,-1.8389
13.0433,328.772,-1.84437
13.045,328.788,-1.8481
13.0467,328.804,-1.85248
13.0483,328.821,-1.85754
13.05,328.837,-1.86333
13.0517,328.854,-1.86808
13.0533,328.87,-1.87385
13.055,328.886,-1.87996
13.0567,328.902,-1.88553
13.0583,328.918,-1.8913
13.06,328.934,-1.89824
13.0617,328.951,-1.90431
13.0633,328.967,-1.91138
13.065,328.983,-1.91699
13.0667,328.999,-1.92409
13.0683,329.016,-1.93129
13.07,329.032,-1.9387
13.0717,329.048,-1.94377
13.0733,329.065,-1.94939
13.075,329.081,-1.95542
13.0767,329.097,-1.96192
13.0783,329.113,-1.96796
13.08,329.129,-1.97343
13.0817,329.146,-1.97949
13.0833,329.162,-1.98641
13.085,329.178,-1.99167
13.0867,329.194,-1.99841
13.0883,329.211,-2.00309
13.09,329.227,-2.00717
13.0917,329.244,-2.01125
13.0933,329.26,-2.01602
13.095,329.276,-2.02039
13.0967,329.292,-2.02496
13.0983,329.308,-2.0297
13.1,329.325,-2.03403
13.1017,329.341,-2.03959
13.1033,329.357,-2.04431
13.105,329.374,-2.04968
13.1067,329.39,-2.05439
13.1083,329.406,-2.05892
13.11,329.422,-2.06374
13.1117,329.439,-2.06796
13.1133,329.455,-2.07148
13.115,329.471,-2.07569
13.1167,329.488,-2.08061
13.1183,329.504,-2.08567
13.12,329.52,-2.08756
13.1217,329.537,-2.09165
13.1233,329.553,-2.09556
13.125,329.569,-2.09924
13.1267,329.586,-2.10259
13.1283,329.602,-2.10594
13.13,329.618,-2.10868
13.1317,329.634,-2.11081
13.1333,329.651,-2.11295
13.135,329.667,-2.11586
13.1367,329.683,-2.11831
13.1383,329.7,-2.12053
13.14,329.716,-2.1214
13.1417,329.733,-2.12338
13.1433,329.749,-2.1251
13.145,329.765,-2.12561
13.1467,329.781,-2.12573
13.1483,329.798,-2.1271
13.15,329.814,-2.12814
13.1517,329.831,-2.1276
13.1533,329.847,-2.12896
13.155,329.864,-2.12881
13.1567,329.88,-2.12852
13.1583,329.896,-2.12749
13.16,329.913,-2.12647
13.1617,329.929,-2.12555
13.1633,329.945,-2.12467
13.165,329.962,-2.12392
13.1667,329.979,-2.12287
13.1683,329.995,-2.11893
13.17,330.012,-2.11656
13.1717,330.028,-2.11373
13.1733,330.045,-2.10983
13.175,330.061,-2.10649
13.1767,330.077,-2.10307
13.1783,330.094,-2.10009
13.18,330.111,-2.09572
13.1817,330.127,-2.08984
13.1833,330.144,-2.08342
13.185,330.16,-2.07709
13.1867,330.177,-2.0684
13.1883,330.194,-2.06072
13.19,330.211,-2.05389
13.1917,330.227,-2.04602
13.1933,330.244,-2.03885
13.195,330.26,-2.03076
13.1967,330.277,-2.023
13.1983,330.294,-2.01434
13.2,330.311,-2.00615
13.2017,330.327,-1.99602
13.2033,330.344,-1.98791
13.205,330.361,-1.97907
13.2067,330.378,-1.9708
13.2083,330.395,-1.96149
13.21,330.411,-1.95237
13.2117,330.428,-1.94372
13.2133,330.445,-1.93407
13.215,330.462,-1.92351
13.2167,330.479,-1.91291
13.2183,330.496,-1.90088
13.22,330.513,-1.88908
13.2217,330.53,-1.87812
13.2233,330.547,-1.86683
13.225,330.564,-1.85525
13.2267,330.58,-1.8433
13.2283,330.598,-1.83174
13.23,330.614,-1.82127
13.2317,330.631,-1.80977
13.2333,330.648,-1.79693
13.235,330.666,-1.78522
13.2367,330.683,-1.77323
13.2383,330.7,-1.76131
13.24,330.717,-1.74917
13.2417,330.734,-1.73703
13.2433,330.751,-1.72552
13.245,330.769,-1.71376
13.2467,330.786,-1.70182
13.2483,330.803,-1.68989
13.25,330.82,-1.67748
13.2517,330.837,-1.66445
13.2533,330.854,-1.65412
13.255,330.871,-1.64232
13.2567,330.889,-1.6311
13.2583,330.906,-1.621
13.26,330.923,-1.61114
13.2617,330.941,-1.60069
13.2633,330.958,-1.59036
13.265,330.975,-1.57945
13.2667,330.992,-1.56913
13.2683,331.009,-1.55981
13.27,331.027,-1.54925
13.2717,331.044,-1.53821
13.2733,331.061,-1.52831
13.275,331.078,-1.51762
13.2767,331.096,-1.50666
13.2783,331.113,-1.49653
13.28,331.13,-1.48626
13.2817,331.148,-1.47706
13.2833,331.165,-1.46723
13.285,331.182,-1.45833
13.2867,331.199,-1.45064
13.2883,331.217,-1.44331
13.29,331.234,-1.4343
13.2917,331.251,-1.42643
13.2933,331.269,-1.41879
13.295,331.286,-1.41087
13.2967,331.303,-1.40337
13.2983,331.32,-1.39598
13.3,331.338,-1.3878
13.3017,331.355,-1.38079
13.3033,331.372,-1.3736
13.305,331.39,-1.36643
13.3067,331.407,-1.36056
13.3083,331.424,-1.35465
13.31,331.441,-1.34816
13.3117,331.458,-1.34151
13.3133,331.476,-1.33478
13.315,331.493,-1.32831
13.3167,331.51,-1.3209
13.3183,331.527,-1.31332
13.32,331.545,-1.30542
13.3217,331.562,-1.30042
13.3233,331.579,-1.29476
13.325,331.596,-1.29087
13.3267,331.613,-1.28555
13.3283,331.631,-1.28001
13.33,331.648,-1.27476
13.3317,331.665,-1.27188
13.3333,331.682,-1.26733
13.335,331.699,-1.26188
13.3367,331.716,-1.25739
13.3383,331.733,-1.25046
13.34,331.751,-1.24645
13.3417,331.768,-1.24192
13.3433,331.785,-1.23719
13.345,331.803,-1.23303
13.3467,331.82,-1.22827
13.3483,331.837,-1.22313
13.35,331.854,-1.21762
13.3517,331.871,-1.21306
13.3533,331.888,-1.20839
13.355,331.905,-1.20411
13.3567,331.922,-1.20114
13.3583,331.94,-1.19666
13.36,331.957,-1.19266
13.3617,331.974,-1.18855
13.3633,331.991,-1.18532
13.365,332.008,-1.18273
13.3667,332.025,-1.1793
13.3683,332.042,-1.17557
13.37,332.059,-1.17116
13.3717,332.076,-1.16936
13.3733,332.093,-1.16604
13.375,332.11,-1.16314
13.3767,332.127,-1.16089
13.3783,332.144,-1.15838
13.38,332.162,-1.15434
13.3817,332.178,-1.15175
13.3833,332.196,-1.14967
13.385,332.213,-1.14596
13.3867,332.23,-1.14355
13.3883,332.247,-1.14038
13.39,332.264,-1.138
13.3917,332.281,-1.13477
13.3933,332.298,-1.13411
13.395,332.315,-1.13327
13.3967,332.332,-1.13139
13.3983,332.349,-1.12908
13.4,332.366,-1.12643
13.4017,332.383,-1.12461
13.4033,332.399,-1.12303
13.405,332.417,-1.12061
13.4067,332.434,-1.1187
13.4083,332.451,-1.11562
13.41,332.468,-1.11246
13.4117,332.485,-1.10954
13.4133,332.502,-1.10725
13.415,332.518,-1.10565
13.4167,332.536,-1.10256
13.4183,332.552,-1.10184
13.42,332.569,-1.09924
13.4217,332.586,-1.09735
13.4233,332.604,-1.09568
13.425,332.62,-1.09346
13.4267,332.637,-1.09161
13.4283,332.654,-1.09095
13.43,332.671,-1.08912
13.4317,332.688,-1.08809
13.4333,332.705,-1.08667
13.435,332.722,-1.08571
13.4367,332.739,-1.0856
13.4383,332.756,-1.08397
13.44,332.773,-1.08225
13.4417,332.79,-1.08041
13.4433,332.806,-1.07737
13.445,332.823,-1.07502
13.4467,332.841,-1.07339
13.4483,332.857,-1.07295
13.45,332.874,-1.07146
13.4517,332.891,-1.07025
13.4533,332.908,-1.07015
13.455,332.925,-1.07016
13.4567,332.942,-1.0703
13.4583,332.958,-1.06976
13.46,332.976,-1.06928
13.4617,332.992,-1.06857
13.4633,333.009,-1.06787
13.465,333.026,-1.06679
13.4667,333.043,-1.06533
13.4683,333.059,-1.06347
13.47,333.076,-1.06144
13.4717,333.093,-1.06021
13.4733,333.11,-1.05916
13.475,333.127,-1.05792
13.4767,333.144,-1.05632
13.4783,333.161,-1.05509
13.48,333.177,-1.05422
13.4817,333.194,-1.05376
13.4833,333.211,-1.05358
13.485,333.228,-1.05354
13.4867,333.245,-1.05341
13.4883,333.262,-1.05284
13.49,333.279,-1.05234
13.4917,333.295,-1.0518
13.4933,333.312,-1.05116
13.495,333.329,-1.05039
13.4967,333.345,-1.04955
13.4983,333.362,-1.04894
13.5,333.379,-1.0483
13.5017,333.396,-1.04774
13.5033,333.413,-1.04713
13.505,333.43,-1.04647
13.5067,333.447,-1.04563
13.5083,333.463,-1.04494
13.51,333.48,-1.04412
13.5117,333.497,-1.04301
13.5133,333.513,-1.04167
13.515,333.53,-1.04045
13.5167,333.547,-1.03978
13.5183,333.564,-1.03913
13.52,333.581,-1.03863
13.5217,333.597,-1.03826
13.5233,333.614,-1.03794
13.525,333.631,-1.03756
13.5267,333.648,-1.03726
13.5283,333.665,-1.03674
13.53,333.682,-1.03612
13.5317,333.698,-1.03535
13.5333,333.715,-1.03443
13.535,333.732,-1.03379
13.5367,333.749,-1.03311
13.5383,333.765,-1.03259
13.54,333.782,-1.03217
13.5417,333.799,-1.03179
13.5433,333.816,-1.03141
13.545,333.832,-1.03106
13.5467,333.849,-1.03065
13.5483,333.866,-1.0303
13.55,333.883,-1.02998
13.5517,333.899,-1.02977
13.5533,333.916,-1.0296
13.555,333.933,-1.02941
13.5567,333.949,-1.02926
13.5583,333.966,-1.0292
13.56,333.983,-1.02908
13.5617,334,-1.02888
13.5633,334.016,-1.02869
13.565,334.033,-1.02841
13.5667,334.05,-1.02808
13.5683,334.067,-1.02769
13.57,334.084,-1.02724
13.5717,334.1,-1.02696
13.5733,334.117,-1.02673
13.575,334.134,-1.02658
13.5767,334.15,-1.02637
13.5783,334.167,-1.0262
13.58,334.184,-1.02596
13.5817,334.201,-1.02568
13.5833,334.217,-1.02542
13.585,334.234,-1.02515
13.5867,334.251,-1.02485
13.5883,334.267,-1.02452
13.59,334.284,-1.02417
13.5917,334.301,-1.02389
13.5933,334.318,-1.02369
13.595,334.335,-1.02349
13.5967,334.352,-1.02331
13.5983,334.368,-1.02316
13.6,334.385,-1.02303
13.6017,334.402,-1.02295
13.6033,334.418,-1.02286
13.605,334.435,-1.02276
13.6067,334.452,-1.02269
13.6083,334.468,-1.02262
13.61,334.485,-1.02254
13.6117,334.501,-1.02244
13.6133,334.518,-1.0223
13.615,334.535,-1.02221
13.6167,334.552,-1.02212
13.6183,334.569,-1.02207
13.62,334.585,-1.02199
13.6217,334.602,-1.02191
13.6233,334.619,-1.02185
13.625,334.636,-1.02175
13.6267,334.652,-1.02165
13.6283,334.669,-1.02149
13.63,334.685,-1.02132
13.6317,334.702,-1.02116
13.6333,334.718,-1.02086
13.635,334.735,-1.02066
13.6367,334.752,-1.02053
13.6383,334.769,-1.02036
13.64,334.786,-1.0202
13.6417,334.802,-1.02005
13.6433,334.819,-1.01993
13.645,334.836,-1.01986
13.6467,334.853,-1.01977
13.6483,334.869,-1.0197
13.65,334.886,-1.01963
13.6517,334.903,-1.01956
13.6533,334.919,-1.0195
13.655,334.936,-1.01922
13.6567,334.953,-1.01909
13.6583,334.969,-1.01898
13.66,334.986,-1.01891
13.6617,335.003,-1.01886
13.6633,335.019,-1.0188
13.665,335.036,-1.01868
13.6667,335.053,-1.01863
13.6683,335.07,-1.01857
13.67,335.086,-1.0185
13.6717,335.103,-1.01842
13.6733,335.12,-1.01828
13.675,335.137,-1.01809
13.6767,335.153,-1.01792
13.6783,335.17,-1.01781
13.68,335.186,-1.01769
13.6817,335.203,-1.0176
13.6833,335.22,-1.01752
13.685,335.236,-1.01745
13.6867,335.253,-1.01739
13.6883,335.27,-1.01724
13.69,335.286,-1.01719
13.6917,335.303,-1.0171
13.6933,335.32,-1.01704
13.695,335.337,-1.01699
13.6967,335.353,-1.01693
13.6983,335.37,-1.01686
13.7,335.387,-1.0168
13.7017,335.403,-1.01673
13.7033,335.42,-1.01666
13.705,335.437,-1.01658
13.7067,335.453,-1.0165
13.7083,335.47,-1.01643
13.71,335.487,-1.01635
13.7117,335.504,-1.01627
13.7133,335.52,-1.01619
13.715,335.537,-1.01611
13.7167,335.553,-1.01604
13.7183,335.57,-1.01596
13.72,335.587,-1.01589
13.7217,335.603,-1.01582
13.7233,335.62,-1.01574
13.725,335.636,-1.01567
13.7267,335.653,-1.01559
13.7283,335.67,-1.01551
13.73,335.687,-1.01543
13.7317,335.703,-1.01536
13.7333,335.72,-1.01528
13.735,335.736,-1.01521
13.7367,335.753,-1.01514
13.7383,335.77,-1.01509
13.74,335.787,-1.01504
13.7417,335.803,-1.015
13.7433,335.82,-1.01495
13.745,335.836,-1.0149
13.7467,335.853,-1.01485
13.7483,335.87,-1.01479
13.75,335.887,-1.01475
13.7517,335.903,-1.01469
13.7533,335.92,-1.01462
13.755,335.937,-1.01454
13.7567,335.953,-1.01446
13.7583,335.97,-1.01433
13.76,335.986,-1.01417
13.7617,336.003,-1.014
13.7633,336.02,-1.01377
13.765,336.037,-1.01359
13.7667,336.054,-1.01344
13.7683,336.07,-1.01335
13.77,336.087,-1.01327
13.7717,336.103,-1.0132
13.7733,336.12,-1.01313
13.775,336.137,-1.01309
13.7767,336.153,-1.01305
13.7783,336.17,-1.01301
13.78,336.186,-1.01297
13.7817,336.203,-1.01292
13.7833,336.22,-1.01287
13.785,336.236,-1.01281
13.7867,336.253,-1.01275
13.7883,336.27,-1.01267
13.79,336.286,-1.01258
13.7917,336.303,-1.01251
13.7933,336.319,-1.01243
13.795,336.336,-1.01236
13.7967,336.353,-1.01229
13.7983,336.369,-1.01223
13.8,336.386,-1.01218
13.8017,336.403,-1.01213
13.8033,336.42,-1.01207
13.805,336.436,-1.01201
13.8067,336.453,-1.01195
13.8083,336.47,-1.0119
13.81,336.486,-1.01185
13.8117,336.503,-1.0118
13.8133,336.52,-1.01174
13.815,336.536,-1.01168
13.8167,336.553,-1.01162
13.8183,336.57,-1.01156
13.82,336.586,-1.01152
13.8217,336.603,-1.01147
13.8233,336.62,-1.01144
13.825,336.636,-1.0114
13.8267,336.653,-1.01136
13.8283,336.67,-1.01133
13.83,336.686,-1.01129
13.8317,336.703,-1.01124
13.8333,336.719,-1.01118
13.835,336.736,-1.01112
13.8367,336.753,-1.01106
13.8383,336.769,-1.01099
13.84,336.786,-1.01094
13.8417,336.803,-1.01088
13.8433,336.819,-1.01081
13.845,336.836,-1.01075
13.8467,336.853,-1.0107
13.8483,336.869,-1.01065
13.85,336.886,-1.0106
13.8517,336.903,-1.01055
13.8533,336.919,-1.0105
13.855,336.936,-1.01044
13.8567,336.953,-1.0104
13.8583,336.969,-1.01035
13.86,336.986,-1.01031
13.8617,337.003,-1.01027
13.8633,337.019,-1.01024
13.865,337.036,-1.0102
13.8667,337.053,-1.01017
13.8683,337.069,-1.01013
13.87,337.086,-1.01008
13.8717,337.103,-1.01003
13.8733,337.119,-1.00997
13.875,337.136,-1.00991
13.8767,337.153,-1.00986
13.8783,337.17,-1.0098
13.88,337.186,-1.00974
13.8817,337.202,-1.00969
13.8833,337.219,-1.00965
13.885,337.236,-1.0096
13.8867,337.253,-1.00954
13.8883,337.269,-1.00949
13.89,337.286,-1.00945
13.8917,337.303,-1.00942
13.8933,337.319,-1.00939
13.895,337.336,-1.00936
13.8967,337.353,-1.00933
13.8983,337.369,-1.0093
13.9,337.386,-1.00927
13.9017,337.402,-1.00924
13.9033,337.419,-1.0092
13.905,337.436,-1.00916
13.9067,337.453,-1.00913
13.9083,337.469,-1.00911
13.91,337.486,-1.00908
13.9117,337.503,-1.00905
13.9133,337.519,-1.00903
13.915,337.536,-1.009
13.9167,337.552,-1.00895
13.9183,337.569,-1.00891
13.92,337.586,-1.00886
13.9217,337.602,-1.00881
13.9233,337.619,-1.00876
13.925,337.636,-1.00872
13.9267,337.652,-1.00869
13.9283,337.669,-1.00866
13.93,337.685,-1.00863
13.9317,337.702,-1.0086
13.9333,337.719,-1.00858
13.935,337.735,-1.00856
13.9367,337.752,-1.00855
13.9383,337.768,-1.00853
13.94,337.785,-1.00851
13.9417,337.802,-1.0085
13.9433,337.818,-1.00849
13.945,337.835,-1.00847
13.9467,337.852,-1.00844
13.9483,337.868,-1.00842
13.95,337.885,-1.00839
13.9517,337.902,-1.00837
13.9533,337.919,-1.00834
13.955,337.935,-1.00832
13.9567,337.952,-1.00831
13.9583,337.968,-1.00829
13.96,337.985,-1.00827
13.9617,338.002,-1.00826
13.9633,338.019,-1.00825
13.965,338.036,-1.00823
13.9667,338.052,-1.00822
13.9683,338.069,-1.00821
13.97,338.085,-1.00819
13.9717,338.102,-1.00818
13.9733,338.118,-1.00815
13.975,338.135,-1.00813
13.9767,338.152,-1.0081
13.9783,338.168,-1.00808
13.98,338.185,-1.00806
13.9817,338.202,-1.00803
13.9833,338.218,-1.00801
13.985,338.235,-1.008
13.9867,338.251,-1.00798
13.9883,338.268,-1.00796
13.99,338.285,-1.00794
13.9917,338.301,-1.00791
13.9933,338.318,-1.00788
13.995,338.334,-1.00786
13.9967,338.351,-1.00784
13.9983,338.368,-1.00783
14,338.385,-1.00782
14.0017,338.401,-1.00782
14.0033,338.418,-1.0078
14.005,338.435,-1.00779
14.0067,338.451,-1.00778
14.0083,338.468,-1.00776
14.01,338.484,-1.00773
14.0117,338.501,-1.00771
14.0133,338.518,-1.00768
14.015,338.534,-1.00766
14.0167,338.551,-1.00763
14.0183,338.568,-1.00762
14.02,338.584,-1.00761
14.0217,338.601,-1.0076
14.0233,338.617,-1.0076
14.025,338.634,-1.00761
14.0267,338.651,-1.00763
14.0283,338.668,-1.00764
14.03,338.684,-1.00765
14.0317,338.701,-1.00766
14.0333,338.718,-1.00765
14.035,338.734,-1.00764
14.0367,338.75,-1.00761
14.0383,338.767,-1.00758
14.04,338.784,-1.00757
14.0417,338.8,-1.00755
14.0433,338.817,-1.00754
14.045,338.834,-1.00753
14.0467,338.851,-1.00752
14.0483,338.867,-1.00751
14.05,338.884,-1.00749
14.0517,338.901,-1.00747
14.0533,338.917,-1.00745
14.055,338.934,-1.00743
14.0567,338.95,-1.0074
14.0583,338.967,-1.00738
14.06,338.984,-1.00736
14.0617,339,-1.00734
14.0633,339.017,-1.00733
14.065,339.034,-1.00732
14.0667,339.05,-1.00733
14.0683,339.067,-1.00733
14.07,339.084,-1.00734
14.0717,339.101,-1.00736
14.0733,339.117,-1.00738
14.075,339.134,-1.0074
14.0767,339.15,-1.00742
14.0783,339.167,-1.00743
14.08,339.184,-1.00743
14.0817,339.2,-1.00742
14.0833,339.217,-1.00742
14.085,339.233,-1.00742
14.0867,339.25,-1.00741
14.0883,339.267,-1.00741
14.09,339.284,-1.00741
14.0917,339.3,-1.0074
14.0933,339.317,-1.00741
14.095,339.333,-1.00741
14.0967,339.35,-1.00741
14.0983,339.366,-1.00742
14.1,339.383,-1.00742
14.1017,339.4,-1.00743
14.1033,339.416,-1.00743
14.105,339.433,-1.00745
14.1067,339.45,-1.00747
14.1083,339.467,-1.00749
14.11,339.483,-1.0075
14.1117,339.5,-1.00751
14.1133,339.517,-1.00752
14.115,339.533,-1.00751
14.1167,339.55,-1.0075
14.1183,339.566,-1.0075
14.12,339.583,-1.00749
14.1217,339.6,-1.00747
14.1233,339.616,-1.00745
14.125,339.633,-1.00744
14.1267,339.65,-1.00742
14.1283,339.666,-1.00741
14.13,339.683,-1.0074
14.1317,339.7,-1.00738
14.1333,339.717,-1.00736
14.135,339.733,-1.00735
14.1367,339.75,-1.00735
14.1383,339.767,-1.00734
14.14,339.783,-1.00733
14.1417,339.8,-1.00732
14.1433,339.816,-1.00731
14.145,339.833,-1.0073
14.1467,339.85,-1.00729
14.1483,339.866,-1.00728
14.15,339.883,-1.00728
14.1517,339.9,-1.00728
14.1533,339.916,-1.0073
14.155,339.933,-1.00731
14.1567,339.95,-1.00733
14.1583,339.966,-1.00735
14.16,339.983,-1.00738
14.1617,339.999,-1.0074
14.1633,340.016,-1.00742
14.165,340.033,-1.00743
14.1667,340.049,-1.00745
14.1683,340.066,-1.00748
14.17,340.083,-1.0075
14.1717,340.099,-1.00752
14.1733,340.116,-1.00754
14.175,340.133,-1.00756
14.1767,340.15,-1.00758
14.1783,340.166,-1.0076
14.18,340.183,-1.00762
14.1817,340.199,-1.00765
14.1833,340.216,-1.00767
14.185,340.232,-1.0077
14.1867,340.249,-1.00773
14.1883,340.266,-1.00776
14.19,340.282,-1.00779
14.1917,340.299,-1.00781
14.1933,340.315,-1.00782
14.195,340.332,-1.00783
14.1967,340.349,-1.00786
14.1983,340.366,-1.00787
14.2,340.382,-1.00788
14.2017,340.399,-1.00789
14.2033,340.416,-1.0079
14.205,340.432,-1.00791
14.2067,340.449,-1.00792
14.2083,340.466,-1.00793
14.21,340.482,-1.00795
14.2117,340.499,-1.00797
14.2133,340.516,-1.00799
14.215,340.533,-1.00801
14.2167,340.549,-1.00802
14.2183,340.566,-1.00803
14.22,340.582,-1.00804
14.2217,340.599,-1.00804
14.2233,340.615,-1.00802
14.225,340.632,-1.008
14.2267,340.648,-1.00798
14.2283,340.665,-1.00797
14.23,340.682,-1.00796
14.2317,340.699,-1.00795
14.2333,340.715,-1.00795
14.235,340.732,-1.00795
14.2367,340.749,-1.00797
14.2383,340.766,-1.00799
14.24,340.782,-1.008
14.2417,340.799,-1.00802
14.2433,340.815,-1.00804
14.245,340.832,-1.00806
14.2467,340.849,-1.00808
14.2483,340.865,-1.00811
14.25,340.882,-1.00814
14.2517,340.899,-1.00817
14.2533,340.916,-1.00821
14.255,340.933,-1.00825
14.2567,340.949,-1.00828
14.2583,340.966,-1.0083
14.26,340.982,-1.00831
14.2617,340.999,-1.00832
14.2633,341.015,-1.00833
14.265,341.032,-1.00834
14.2667,341.049,-1.00835
14.2683,341.066,-1.00836
14.27,341.082,-1.00839
14.2717,341.099,-1.00843
14.2733,341.115,-1.00847
14.275,341.132,-1.00851
14.2767,341.149,-1.00855
14.2783,341.165,-1.00858
14.28,341.182,-1.00861
14.2817,341.198,-1.00863
14.2833,341.215,-1.00865
14.285,341.232,-1.00867
14.2867,341.248,-1.0087
14.2883,341.265,-1.00873
14.29,341.282,-1.00877
14.2917,341.299,-1.00881
14.2933,341.315,-1.00886
14.295,341.332,-1.00891
14.2967,341.348,-1.00894
14.2983,341.365,-1.00897
14.3,341.382,-1.00899
14.3017,341.399,-1.00901
14.3033,341.415,-1.00901
14.305,341.431,-1.00901
14.3067,341.448,-1.00901
14.3083,341.465,-1.00902
14.31,341.482,-1.00905
14.3117,341.498,-1.00909
14.3133,341.515,-1.00912
14.315,341.531,-1.00916
14.3167,341.548,-1.00921
14.3183,341.565,-1.00926
14.32,341.582,-1.00931
14.3217,341.598,-1.00935
14.3233,341.615,-1.00938
14.325,341.632,-1.00939
14.3267,341.648,-1.0094
14.3283,341.664,-1.00941
14.33,341.681,-1.00941
14.3317,341.698,-1.00942
14.3333,341.715,-1.00943
14.335,341.731,-1.00944
14.3367,341.748,-1.00947
14.3383,341.764,-1.00949
14.34,341.781,-1.00952
14.3417,341.798,-1.00956
14.3433,341.814,-1.00959
14.345,341.831,-1.00961
14.3467,341.848,-1.00963
14.3483,341.864,-1.00965
14.35,341.881,-1.00967
14.3517,341.897,-1.00968
14.3533,341.914,-1.00969
14.355,341.931,-1.0097
14.3567,341.947,-1.00971
14.3583,341.964,-1.00971
14.36,341.98,-1.00972
14.3617,341.997,-1.00974
14.3633,342.013,-1.00976
14.365,342.03,-1.00978
14.3667,342.047,-1.00981
14.3683,342.064,-1.00984
14.37,342.081,-1.00986
14.3717,342.097,-1.00988
14.3733,342.114,-1.0099
14.375,342.13,-1.00993
14.3767,342.147,-1.00996
14.3783,342.163,-1.01
14.38,342.18,-1.01004
14.3817,342.197,-1.01008
14.3833,342.214,-1.01011
14.385,342.23,-1.01014
14.3867,342.247,-1.01016
14.3883,342.264,-1.01017
14.39,342.281,-1.01018
14.3917,342.297,-1.01019
14.3933,342.314,-1.01019
14.395,342.33,-1.01019
14.3967,342.347,-1.01019
14.3983,342.364,-1.01019
14.4,342.38,-1.01019
14.4017,342.397,-1.01019
14.4033,342.413,-1.01021
14.405,342.43,-1.01022
14.4067,342.447,-1.01024
14.4083,342.463,-1.01026
14.41,342.48,-1.01028
14.4117,342.497,-1.0103
14.4133,342.513,-1.01033
14.415,342.53,-1.01036
14.4167,342.547,-1.01039
14.4183,342.564,-1.01043
14.42,342.58,-1.01048
14.4217,342.597,-1.01053
14.4233,342.613,-1.01059
14.425,342.63,-1.01065
14.4267,342.646,-1.0107
14.4283,342.663,-1.01074
14.43,342.679,-1.01076
14.4317,342.696,-1.01079
14.4333,342.713,-1.0108
14.435,342.73,-1.01083
14.4367,342.746,-1.01084
14.4383,342.763,-1.01087
14.44,342.78,-1.01089
14.4417,342.796,-1.01092
14.4433,342.813,-1.01096
14.445,342.83,-1.01099
14.4467,342.846,-1.01103
14.4483,342.863,-1.01108
14.45,342.879,-1.01113
14.4517,342.896,-1.01119
14.4533,342.913,-1.01125
14.455,342.929,-1.01135
14.4567,342.946,-1.01142
14.4583,342.962,-1.01148
14.46,342.979,-1.01154
14.4617,342.996,-1.01159
14.4633,343.013,-1.01164
14.465,343.03,-1.01167
14.4667,343.046,-1.01169
14.4683,343.063,-1.0117
14.47,343.08,-1.0117
14.4717,343.096,-1.0117
14.4733,343.113,-1.01169
14.475,343.129,-1.0117
14.4767,343.146,-1.01171
14.4783,343.163,-1.01173
14.48,343.179,-1.01176
14.4817,343.195,-1.0118
14.4833,343.212,-1.01186
14.485,343.229,-1.0119
14.4867,343.246,-1.01195
14.4883,343.262,-1.012
14.49,343.278,-1.01204
14.4917,343.295,-1.01207
14.4933,343.312,-1.01209
14.495,343.328,-1.01211
14.4967,343.345,-1.01214
14.4983,343.362,-1.01217
14.5,343.378,-1.01221
14.5017,343.395,-1.01226
14.5033,343.412,-1.0123
14.505,343.429,-1.01235
14.5067,343.445,-1.0124
14.5083,343.462,-1.01243
14.51,343.478,-1.01247
14.5117,343.495,-1.01251
14.5133,343.511,-1.01254
14.515,343.528,-1.01258
14.5167,343.545,-1.01261
14.5183,343.562,-1.01264
14.52,343.578,-1.01268
14.5217,343.595,-1.01271
14.5233,343.611,-1.01275
14.525,343.628,-1.01276
14.5267,343.645,-1.01278
14.5283,343.661,-1.0128
14.53,343.678,-1.01282
14.5317,343.695,-1.01284
14.5333,343.712,-1.01286
14.535,343.728,-1.01289
14.5367,343.745,-1.01292
14.5383,343.761,-1.01295
14.54,343.778,-1.01298
14.5417,343.795,-1.01301
14.5433,343.811,-1.01304
14.545,343.828,-1.01307
14.5467,343.845,-1.01309
14.5483,343.861,-1.01312
14.55,343.878,-1.01315
14.5517,343.895,-1.01318
14.5533,343.911,-1.01322
14.555,343.928,-1.01326
14.5567,343.945,-1.0133
14.5583,343.961,-1.01334
14.56,343.978,-1.01338
14.5617,343.994,-1.01342
14.5633,344.011,-1.01346
14.565,344.027,-1.01349
14.5667,344.044,-1.01352
14.5683,344.061,-1.01355
14.57,344.078,-1.01357
14.5717,344.094,-1.01359
14.5733,344.111,-1.01361
14.575,344.128,-1.01365
14.5767,344.145,-1.01368
14.5783,344.161,-1.01371
14.58,344.178,-1.01374
14.5817,344.194,-1.01376
14.5833,344.211,-1.01379
14.585,344.228,-1.01381
14.5867,344.244,-1.01384
14.5883,344.261,-1.01386
14.59,344.278,-1.0139
14.5917,344.294,-1.01393
14.5933,344.31,-1.01397
14.595,344.327,-1.01401
14.5967,344.344,-1.01406
14.5983,344.361,-1.01411
14.6,344.378,-1.01417
14.6017,344.394,-1.01423
14.6033,344.41,-1.01428
14.605,344.427,-1.01434
14.6067,344.444,-1.01439
14.6083,344.461,-1.01445
14.61,344.477,-1.01451
14.6117,344.494,-1.01456
14.6133,344.51,-1.01461
14.615,344.527,-1.01465
14.6167,344.544,-1.0147
14.6183,344.56,-1.01474
14.62,344.577,-1.01478
14.6217,344.594,-1.01482
14.6233,344.61,-1.01486
14.625,344.627,-1.0149
14.6267,344.644,-1.01493
14.6283,344.66,-1.01496
14.63,344.677,-1.01498
14.6317,344.693,-1.01501
14.6333,344.71,-1.01503
14.635,344.727,-1.01507
14.6367,344.743,-1.01511
14.6383,344.76,-1.01515
14.64,344.776,-1.01519
14.6417,344.793,-1.01523
14.6433,344.81,-1.01528
14.645,344.827,-1.01531
14.6467,344.843,-1.01534
14.6483,344.86,-1.01536
14.65,344.876,-1.01538
14.6517,344.893,-1.0154
14.6533,344.909,-1.01543
14.655,344.926,-1.01546
14.6567,344.943,-1.0155
14.6583,344.959,-1.01555
14.66,344.975,-1.01561
14.6617,344.993,-1.01566
14.6633,345.009,-1.01571
14.665,345.026,-1.01575
14.6667,345.042,-1.01579
14.6683,345.059,-1.01581
14.67,345.076,-1.01584
14.6717,345.092,-1.01586
14.6733,345.109,-1.01588
14.675,345.125,-1.0159
14.6767,345.142,-1.01592
14.6783,345.159,-1.01594
14.68,345.176,-1.01597
14.6817,345.192,-1.016
14.6833,345.209,-1.01603
14.685,345.225,-1.01606
14.6867,345.242,-1.0161
14.6883,345.258,-1.01614
14.69,345.275,-1.01619
14.6917,345.292,-1.01625
14.6933,345.308,-1.0163
14.695,345.325,-1.01636
14.6967,345.342,-1.01643
14.6983,345.359,-1.01649
14.7,345.375,-1.01655
14.7017,345.392,-1.01661
14.7033,345.409,-1.01667
14.705,345.425,-1.01672
14.7067,345.442,-1.01676
14.7083,345.459,-1.01679
14.71,345.475,-1.01681
14.7117,345.492,-1.01682
14.7133,345.508,-1.01683
14.715,345.525,-1.01684
14.7167,345.542,-1.01686
14.7183,345.558,-1.01688
14.72,345.575,-1.01692
14.7217,345.592,-1.01697
14.7233,345.608,-1.01701
14.725,345.625,-1.01707
14.7267,345.642,-1.01713
14.7283,345.659,-1.01718
14.73,345.675,-1.01724
14.7317,345.691,-1.01729
14.7333,345.708,-1.01734
14.735,345.725,-1.01739
14.7367,345.741,-1.01743
14.7383,345.758,-1.01746
14.74,345.775,-1.01748
14.7417,345.792,-1.01751
14.7433,345.808,-1.01754
14.745,345.825,-1.01757
14.7467,345.842,-1.01759
14.7483,345.858,-1.01762
14.75,345.875,-1.01766
14.7517,345.891,-1.0177
14.7533,345.908,-1.01775
14.755,345.925,-1.01783
14.7567,345.941,-1.01795
14.7583,345.958,-1.01813
14.76,345.975,-1.01839
14.7617,345.991,-1.01878
14.7633,346.008,-1.01902
14.765,346.024,-1.0191
14.7667,346.041,-1.01917
14.7683,346.058,-1.01922
14.77,346.074,-1.01926
14.7717,346.091,-1.01928
14.7733,346.107,-1.01928
14.775,346.124,-1.01929
14.7767,346.141,-1.01929
14.7783,346.158,-1.01931
14.78,346.174,-1.01933
14.7817,346.191,-1.01936
14.7833,346.208,-1.0194
14.785,346.225,-1.01943
14.7867,346.241,-1.01948
14.7883,346.258,-1.01953
14.79,346.274,-1.01959
14.7917,346.291,-1.01963
14.7933,346.307,-1.01967
14.795,346.324,-1.0197
14.7967,346.341,-1.01972
14.7983,346.358,-1.01975
14.8,346.374,-1.01977
14.8017,346.391,-1.0198
14.8033,346.407,-1.01984
14.805,346.424,-1.01988
14.8067,346.44,-1.01992
14.8083,346.457,-1.01998
14.81,346.474,-1.02004
14.8117,346.491,-1.0201
14.8133,346.507,-1.02015
14.815,346.524,-1.02019
14.8167,346.541,-1.02023
14.8183,346.558,-1.02027
14.82,346.575,-1.02031
14.8217,346.591,-1.02035
14.8233,346.608,-1.02039
14.825,346.624,-1.02043
14.8267,346.641,-1.02046
14.8283,346.658,-1.0205
14.83,346.675,-1.02054
14.8317,346.691,-1.02058
14.8333,346.707,-1.02062
14.835,346.724,-1.02065
14.8367,346.741,-1.02069
14.8383,346.758,-1.02073
14.84,346.775,-1.02075
14.8417,346.791,-1.02077
14.8433,346.808,-1.02078
14.845,346.825,-1.02081
14.8467,346.841,-1.02082
14.8483,346.857,-1.02084
14.85,346.874,-1.02087
14.8517,346.89,-1.02091
14.8533,346.908,-1.02095
14.855,346.924,-1.021
14.8567,346.941,-1.02104
14.8583,346.958,-1.02109
14.86,346.974,-1.02113
14.8617,346.991,-1.02116
14.8633,347.008,-1.0212
14.865,347.024,-1.02124
14.8667,347.041,-1.02127
14.8683,347.058,-1.0213
14.87,347.074,-1.02133
14.8717,347.091,-1.02136
14.8733,347.107,-1.02139
14.875,347.124,-1.02144
14.8767,347.141,-1.02148
14.8783,347.157,-1.02152
14.88,347.174,-1.02156
14.8817,347.19,-1.02161
14.8833,347.207,-1.02166
14.885,347.224,-1.02171
14.8867,347.241,-1.02176
14.8883,347.257,-1.02181
14.89,347.274,-1.02186
14.8917,347.29,-1.02191
14.8933,347.307,-1.02196
14.895,347.324,-1.022
14.8967,347.341,-1.02203
14.8983,347.357,-1.02206
14.9,347.374,-1.02209
14.9017,347.391,-1.02212
14.9033,347.407,-1.02216
14.905,347.424,-1.0222
14.9067,347.44,-1.02223
14.9083,347.456,-1.02227
14.91,347.473,-1.02232
14.9117,347.49,-1.02238
14.9133,347.507,-1.02245
14.915,347.524,-1.0225
14.9167,347.54,-1.02255
14.9183,347.557,-1.02259
14.92,347.574,-1.02263
14.9217,347.59,-1.02267
14.9233,347.607,-1.0227
14.925,347.624,-1.02272
14.9267,347.64,-1.02274
14.9283,347.657,-1.02276
14.93,347.673,-1.02277
14.9317,347.69,-1.02279
14.9333,347.707,-1.02281
14.935,347.724,-1.02283
14.9367,347.74,-1.02286
14.9383,347.757,-1.02291
14.94,347.774,-1.02296
14.9417,347.79,-1.02301
14.9433,347.807,-1.02306
14.945,347.823,-1.02311
14.9467,347.84,-1.02315
14.9483,347.857,-1.0232
14.95,347.874,-1.02324
14.9517,347.89,-1.02327
14.9533,347.907,-1.02331
14.955,347.923,-1.02333
14.9567,347.94,-1.02337
14.9583,347.956,-1.02341
14.96,347.973,-1.02347
14.9617,347.99,-1.02352
14.9633,348.006,-1.02359
14.965,348.023,-1.02364
14.9667,348.04,-1.0237
14.9683,348.056,-1.02377
14.97,348.073,-1.02384
14.9717,348.089,-1.02391
14.9733,348.106,-1.02397
14.975,348.123,-1.02402
14.9767,348.139,-1.02406
14.9783,348.156,-1.02411
14.98,348.173,-1.02415
14.9817,348.19,-1.02419
14.9833,348.207,-1.02422
14.985,348.223,-1.02426
14.9867,348.24,-1.02431
14.9883,348.257,-1.02436
14.99,348.273,-1.02441
14.9917,348.29,-1.02446
14.9933,348.306,-1.0245
14.995,348.323,-1.02452
14.9967,348.339,-1.02454
14.9983,348.356,-1.02456
15,348.373,-1.02457
15.0017,348.389,-1.02458
15.0033,348.406,-1.0246
15.005,348.423,-1.02462
15.0067,348.44,-1.02465
15.0083,348.457,-1.02469
15.01,348.473,-1.02474
15.0117,348.49,-1.02479
15.0133,348.506,-1.02485
15.015,348.523,-1.02491
15.0167,348.539,-1.02498
15.0183,348.556,-1.02505
15.02,348.573,-1.0251
15.0217,348.589,-1.02515
15.0233,348.606,-1.02519
15.025,348.623,-1.02522
15.0267,348.64,-1.02526
15.0283,348.656,-1.02528
15.03,348.673,-1.02532
15.0317,348.689,-1.02535
15.0333,348.706,-1.02539
15.035,348.723,-1.02542
15.0367,348.739,-1.02546
15.0383,348.756,-1.02549
15.04,348.772,-1.02552
15.0417,348.789,-1.02555
15.0433,348.805,-1.02558
15.045,348.822,-1.02561
15.0467,348.839,-1.02563
15.0483,348.856,-1.02567
15.05,348.872,-1.02571
15.0517,348.889,-1.02575
15.0533,348.906,-1.02579
15.055,348.922,-1.02583
15.0567,348.939,-1.02586
15.0583,348.956,-1.02591
15.06,348.972,-1.02597
15.0617,348.989,-1.02603
15.0633,349.006,-1.02609
15.065,349.022,-1.02614
15.0667,349.039,-1.02619
15.0683,349.055,-1.02624
15.07,349.072,-1.02628
15.0717,349.089,-1.02633
15.0733,349.106,-1.02637
15.075,349.122,-1.02641
15.0767,349.139,-1.02645
15.0783,349.155,-1.02648
15.08,349.172,-1.02653
15.0817,349.188,-1.02656
15.0833,349.205,-1.02659
15.085,349.221,-1.02661
15.0867,349.238,-1.02663
15.0883,349.254,-1.02665
15.09,349.271,-1.02667
15.0917,349.288,-1.02668
15.0933,349.305,-1.02671
15.095,349.322,-1.02675
15.0967,349.338,-1.02679
15.0983,349.355,-1.02685
15.1,349.372,-1.0269
15.1017,349.388,-1.02695
15.1033,349.405,-1.02701
15.105,349.422,-1.02706
15.1067,349.439,-1.02711
15.1083,349.455,-1.02717
15.11,349.472,-1.02722
15.1117,349.489,-1.02726
15.1133,349.505,-1.02729
15.115,349.522,-1.02734
15.1167,349.538,-1.02738
15.1183,349.555,-1.02743
15.12,349.572,-1.02748
15.1217,349.588,-1.02752
15.1233,349.605,-1.02757
15.125,349.622,-1.02762
15.1267,349.638,-1.02767
15.1283,349.655,-1.02772
15.13,349.671,-1.02778
15.1317,349.688,-1.02783
15.1333,349.705,-1.02788
15.135,349.721,-1.02794
15.1367,349.738,-1.02801
15.1383,349.755,-1.02807
15.14,349.771,-1.02812
15.1417,349.788,-1.02818
15.1433,349.804,-1.02824
15.145,349.821,-1.0283
15.1467,349.838,-1.02834
15.1483,349.854,-1.02838
15.15,349.871,-1.02842
15.1517,349.888,-1.02845
15.1533,349.904,-1.02848
15.155,349.921,-1.02852
15.1567,349.938,-1.02858
15.1583,349.954,-1.02863
15.16,349.971,-1.02869
15.1617,349.988,-1.02879
15.1633,350.004,-1.02887
15.165,350.021,-1.02894
15.1667,350.038,-1.02901
15.1683,350.055,-1.02907
15.17,350.071,-1.02912
15.1717,350.088,-1.02917
15.1733,350.104,-1.0292
15.175,350.121,-1.02925
15.1767,350.138,-1.02929
15.1783,350.154,-1.02934
15.18,350.171,-1.0294
15.1817,350.187,-1.02946
15.1833,350.204,-1.02951
15.185,350.221,-1.02956
15.1867,350.237,-1.02962
15.1883,350.254,-1.02967
15.19,350.27,-1.02972
15.1917,350.287,-1.02978
15.1933,350.304,-1.02983
15.195,350.321,-1.0299
15.1967,350.337,-1.02996
15.1983,350.354,-1.03003
15.2,350.371,-1.03009
15.2017,350.387,-1.03015
15.2033,350.404,-1.0302
15.205,350.421,-1.03025
15.2067,350.437,-1.0303
15.2083,350.454,-1.03034
15.21,350.47,-1.03039
15.2117,350.487,-1.03044
15.2133,350.504,-1.03049
15.215,350.52,-1.03055
15.2167,350.537,-1.03062
15.2183,350.554,-1.03068
15.22,350.57,-1.03074
15.2217,350.587,-1.03081
15.2233,350.604,-1.03088
15.225,350.62,-1.03093
15.2267,350.637,-1.03098
15.2283,350.653,-1.03102
15.23,350.67,-1.03106
15.2317,350.687,-1.03108
15.2333,350.704,-1.03111
15.235,350.721,-1.03112
15.2367,350.737,-1.03113
15.2383,350.754,-1.03114
15.24,350.77,-1.03116
15.2417,350.787,-1.03119
15.2433,350.804,-1.03122
15.245,350.82,-1.03127
15.2467,350.837,-1.03132
15.2483,350.853,-1.03137
15.25,350.87,-1.03142
15.2517,350.886,-1.03148
15.2533,350.903,-1.03154
15.255,350.92,-1.0316
15.2567,350.937,-1.03166
15.2583,350.953,-1.03172
15.26,350.97,-1.03178
15.2617,350.987,-1.03184
15.2633,351.003,-1.03189
15.265,351.02,-1.03194
15.2667,351.036,-1.03199
15.2683,351.053,-1.03203
15.27,351.07,-1.03207
15.2717,351.086,-1.0321
15.2733,351.103,-1.03213
15.275,351.119,-1.03217
15.2767,351.136,-1.03221
15.2783,351.153,-1.03226
15.28,351.17,-1.03231
15.2817,351.186,-1.03236
15.2833,351.203,-1.03242
15.285,351.22,-1.03247
15.2867,351.236,-1.03252
15.2883,351.253,-1.03257
15.29,351.27,-1.03261
15.2917,351.286,-1.03266
15.2933,351.303,-1.0327
15.295,351.319,-1.03275
15.2967,351.336,-1.03281
15.2983,351.352,-1.03286
15.3,351.369,-1.0329
15.3017,351.386,-1.03294
15.3033,351.403,-1.03297
15.305,351.42,-1.033
15.3067,351.436,-1.03302
15.3083,351.453,-1.03303
15.31,351.469,-1.03305
15.3117,351.486,-1.03308
15.3133,351.503,-1.03312
15.315,351.519,-1.03317
15.3167,351.536,-1.03323
15.3183,351.553,-1.03329
15.32,351.569,-1.03335
15.3217,351.586,-1.03342
15.3233,351.603,-1.03348
15.325,351.619,-1.03353
15.3267,351.636,-1.03357
15.3283,351.652,-1.0336
15.33,351.669,-1.03363
15.3317,351.685,-1.03366
15.3333,351.702,-1.03369
15.335,351.719,-1.03372
15.3367,351.735,-1.03376
15.3383,351.752,-1.0338
15.34,351.769,-1.03385
15.3417,351.785,-1.03389
15.3433,351.802,-1.03393
15.345,351.819,-1.03398
15.3467,351.835,-1.03402
15.3483,351.852,-1.03406
15.35,351.869,-1.0341
15.3517,351.885,-1.03414
15.3533,351.902,-1.03418
15.355,351.919,-1.03423
15.3567,351.935,-1.03427
15.3583,351.952,-1.03432
15.36,351.968,-1.03437
15.3617,351.985,-1.03441
15.3633,352.002,-1.03445
15.365,352.019,-1.03449
15.3667,352.035,-1.03453
15.3683,352.052,-1.03456
15.37,352.068,-1.03459
15.3717,352.085,-1.03463
15.3733,352.101,-1.03467
15.375,352.118,-1.03471
15.3767,352.135,-1.03474
15.3783,352.151,-1.03477
15.38,352.168,-1.03481
15.3817,352.185,-1.03485
15.3833,352.201,-1.03488
15.385,352.218,-1.03491
15.3867,352.235,-1.03495
15.3883,352.251,-1.03499
15.39,352.268,-1.03503
15.3917,352.285,-1.03507
15.3933,352.301,-1.03511
15.395,352.318,-1.03515
15.3967,352.335,-1.03518
15.3983,352.351,-1.03522
15.4,352.368,-1.03525
15.4017,352.385,-1.03529
15.4033,352.401,-1.03534
15.405,352.418,-1.0354
15.4067,352.435,-1.03545
15.4083,352.451,-1.03551
15.41,352.468,-1.03557
15.4117,352.485,-1.03563
15.4133,352.501,-1.03568
15.415,352.518,-1.03573
15.4167,352.535,-1.03578
15.4183,352.551,-1.03582
15.42,352.568,-1.03586
15.4217,352.584,-1.0359
15.4233,352.601,-1.03593
15.425,352.618,-1.03595
15.4267,352.634,-1.03597
15.4283,352.651,-1.036
15.43,352.667,-1.03603
15.4317,352.684,-1.03607
15.4333,352.701,-1.03611
15.435,352.717,-1.03616
15.4367,352.734,-1.03622
15.4383,352.751,-1.03628
15.44,352.767,-1.03634
15.4417,352.784,-1.03639
15.4433,352.801,-1.03644
15.445,352.817,-1.03648
15.4467,352.834,-1.03653
15.4483,352.851,-1.03658
15.45,352.867,-1.03662
15.4517,352.884,-1.03668
15.4533,352.901,-1.03673
15.455,352.917,-1.0368
15.4567,352.934,-1.03687
15.4583,352.951,-1.03694
15.46,352.967,-1.037
15.4617,352.984,-1.03707
15.4633,353,-1.03713
15.465,353.017,-1.0372
15.4667,353.034,-1.03725
15.4683,353.051,-1.03731
15.47,353.067,-1.03736
15.4717,353.084,-1.03741
15.4733,353.1,-1.03746
15.475,353.117,-1.03751
15.4767,353.133,-1.03755
15.4783,353.15,-1.0376
15.48,353.167,-1.03764
15.4817,353.183,-1.03768
15.4833,353.2,-1.03772
15.485,353.217,-1.03775
15.4867,353.234,-1.03779
15.4883,353.25,-1.03783
15.49,353.267,-1.03786
15.4917,353.283,-1.03789
15.4933,353.3,-1.03793
15.495,353.317,-1.03797
15.4967,353.334,-1.03801
15.4983,353.35,-1.03805
15.5,353.367,-1.03809
15.5017,353.384,-1.03813
15.5033,353.4,-1.03817
15.505,353.417,-1.03821
15.5067,353.433,-1.03825
15.5083,353.45,-1.03829
15.51,353.466,-1.03832
15.5117,353.483,-1.03836
15.5133,353.5,-1.0384
15.515,353.516,-1.03844
15.5167,353.533,-1.03848
15.5183,353.55,-1.03852
15.52,353.566,-1.03856
15.5217,353.583,-1.03861
15.5233,353.6,-1.03867
15.525,353.616,-1.03873
15.5267,353.633,-1.03879
15.5283,353.65,-1.03884
15.53,353.667,-1.0389
15.5317,353.683,-1.03896
15.5333,353.7,-1.03901
15.535,353.717,-1.03906
15.5367,353.733,-1.03911
15.5383,353.749,-1.03915
15.54,353.766,-1.03919
15.5417,353.783,-1.03923
15.5433,353.799,-1.03927
15.545,353.816,-1.0393
15.5467,353.833,-1.03934
15.5483,353.85,-1.03938
15.55,353.866,-1.03943
15.5517,353.883,-1.03947
15.5533,353.9,-1.03951
15.555,353.916,-1.03955
15.5567,353.933,-1.03959
15.5583,353.949,-1.03963
15.56,353.966,-1.03967
15.5617,353.983,-1.03969
15.5633,353.999,-1.03972
15.565,354.016,-1.03974
15.5667,354.032,-1.03976
15.5683,354.049,-1.03979
15.57,354.066,-1.03982
15.5717,354.083,-1.03986
15.5733,354.099,-1.03991
15.575,354.116,-1.03997
15.5767,354.132,-1.04003
15.5783,354.149,-1.04008
15.58,354.166,-1.04013
15.5817,354.182,-1.04018
15.5833,354.199,-1.04024
15.585,354.215,-1.0403
15.5867,354.232,-1.04035
15.5883,354.249,-1.04039
15.59,354.266,-1.04044
15.5917,354.282,-1.04049
15.5933,354.298,-1.04054
15.595,354.315,-1.04059
15.5967,354.332,-1.04063
15.5983,354.349,-1.04067
15.6,354.365,-1.04071
15.6017,354.382,-1.04074
15.6033,354.398,-1.04076
15.605,354.415,-1.04079
15.6067,354.432,-1.04081
15.6083,354.449,-1.04084
15.61,354.465,-1.04086
15.6117,354.482,-1.04089
15.6133,354.499,-1.04093
15.615,354.515,-1.04097
15.6167,354.532,-1.04102
15.6183,354.548,-1.04107
15.62,354.565,-1.04111
15.6217,354.582,-1.04115
15.6233,354.598,-1.04118
15.625,354.615,-1.04122
15.6267,354.631,-1.04125
15.6283,354.648,-1.04129
15.63,354.664,-1.04134
15.6317,354.681,-1.04139
15.6333,354.698,-1.04143
15.635,354.714,-1.04147
15.6367,354.731,-1.04153
15.6383,354.747,-1.04158
15.64,354.764,-1.04162
15.6417,354.781,-1.04166
15.6433,354.798,-1.04169
15.645,354.814,-1.04173
15.6467,354.831,-1.04177
15.6483,354.848,-1.04182
15.65,354.864,-1.04186
15.6517,354.881,-1.04191
15.6533,354.898,-1.04196
15.655,354.914,-1.04202
15.6567,354.931,-1.04208
15.6583,354.947,-1.04215
15.66,354.964,-1.04221
15.6617,354.98,-1.04227
15.6633,354.997,-1.04233
15.665,355.014,-1.04239
15.6667,355.031,-1.04246
15.6683,355.047,-1.04251
15.67,355.064,-1.04255
15.6717,355.081,-1.04258
15.6733,355.097,-1.04262
15.675,355.114,-1.04266
15.6767,355.13,-1.0427
15.6783,355.147,-1.04274
15.68,355.163,-1.04278
15.6817,355.181,-1.04283
15.6833,355.197,-1.04288
15.685,355.213,-1.04293
15.6867,355.23,-1.04298
15.6883,355.247,-1.04303
15.69,355.264,-1.04307
15.6917,355.28,-1.04312
15.6933,355.297,-1.04316
15.695,355.313,-1.04319
15.6967,355.33,-1.04323
15.6983,355.346,-1.04326
15.7,355.363,-1.04329
15.7017,355.38,-1.04333
15.7033,355.397,-1.04336
15.705,355.413,-1.04339
15.7067,355.43,-1.04341
15.7083,355.446,-1.04344
15.71,355.463,-1.04347
15.7117,355.48,-1.04351
15.7133,355.496,-1.04356
15.715,355.513,-1.04361
15.7167,355.529,-1.04366
15.7183,355.546,-1.04372
15.72,355.563,-1.04379
15.7217,355.58,-1.04385
15.7233,355.596,-1.04393
15.725,355.613,-1.044
15.7267,355.63,-1.04405
15.7283,355.647,-1.04411
15.73,355.663,-1.04416
15.7317,355.68,-1.04419
15.7333,355.696,-1.04421
15.735,355.713,-1.04422
15.7367,355.73,-1.04424
15.7383,355.747,-1.04425
15.74,355.763,-1.04428
15.7417,355.78,-1.04432
15.7433,355.796,-1.04436
15.745,355.813,-1.04441
15.7467,355.829,-1.04447
15.7483,355.846,-1.04454
15.75,355.863,-1.04461
15.7517,355.879,-1.04467
15.7533,355.896,-1.04472
15.755,355.912,-1.04475
15.7567,355.929,-1.04478
15.7583,355.946,-1.04481
15.76,355.962,-1.04484
15.7617,355.979,-1.04488
15.7633,355.996,-1.04491
15.765,356.013,-1.04494
15.7667,356.029,-1.04498
15.7683,356.046,-1.04504
15.77,356.063,-1.04509
15.7717,356.08,-1.04515
15.7733,356.097,-1.0452
15.775,356.114,-1.04526
15.7767,356.13,-1.0453
15.7783,356.146,-1.04535
15.78,356.163,-1.04539
15.7817,356.179,-1.04543
15.7833,356.196,-1.04547
15.785,356.213,-1.04553
15.7867,356.229,-1.04558
15.7883,356.246,-1.04564
15.79,356.263,-1.0457
15.7917,356.279,-1.04577
15.7933,356.295,-1.04584
15.795,356.312,-1.04589
15.7967,356.329,-1.04594
15.7983,356.345,-1.04599
15.8,356.362,-1.04603
15.8017,356.379,-1.04607
15.8033,356.396,-1.04611
15.805,356.412,-1.04615
15.8067,356.429,-1.04619
15.8083,356.446,-1.04623
15.81,356.462,-1.04627
15.8117,356.479,-1.04631
15.8133,356.496,-1.04634
15.815,356.512,-1.04638
15.8167,356.529,-1.04642
15.8183,356.545,-1.04646
15.82,356.563,-1.04652
15.8217,356.579,-1.04658
15.8233,356.596,-1.04664
15.825,356.612,-1.0467
15.8267,356.629,-1.04677
15.8283,356.646,-1.04683
15.83,356.662,-1.04688
15.8317,356.679,-1.04692
15.8333,356.695,-1.04696
15.835,356.712,-1.04699
15.8367,356.729,-1.04702
15.8383,356.745,-1.04705
15.84,356.762,-1.04708
15.8417,356.779,-1.04712
15.8433,356.795,-1.04715
15.845,356.812,-1.04718
15.8467,356.829,-1.04721
15.8483,356.845,-1.04723
15.85,356.862,-1.04726
15.8517,356.879,-1.0473
15.8533,356.895,-1.04734
15.855,356.911,-1.04738
15.8567,356.928,-1.04742
15.8583,356.945,-1.04747
15.86,356.962,-1.04751
15.8617,356.978,-1.04755
15.8633,356.995,-1.04759
15.865,357.012,-1.04762
15.8667,357.028,-1.04765
15.8683,357.045,-1.04769
15.87,357.061,-1.04773
15.8717,357.078,-1.04778
15.8733,357.095,-1.04782
15.875,357.112,-1.04789
15.8767,357.128,-1.04795
15.8783,357.145,-1.04801
15.88,357.162,-1.04808
15.8817,357.178,-1.04814
15.8833,357.195,-1.04821
15.885,357.211,-1.04827
15.8867,357.228,-1.04833
15.8883,357.245,-1.04838
15.89,357.262,-1.04844
15.8917,357.278,-1.04849
15.8933,357.295,-1.04853
15.895,357.311,-1.04857
15.8967,357.328,-1.04861
15.8983,357.345,-1.04865
15.9,357.361,-1.04869
15.9017,357.378,-1.04872
15.9033,357.395,-1.04877
15.905,357.411,-1.04881
15.9067,357.428,-1.04884
15.9083,357.445,-1.04889
15.91,357.461,-1.04894
15.9117,357.478,-1.04901
15.9133,357.494,-1.04906
15.915,357.511,-1.04911
15.9167,357.527,-1.04917
15.9183,357.544,-1.04922
15.92,357.561,-1.04928
15.9217,357.577,-1.04933
15.9233,357.594,-1.04937
15.925,357.611,-1.0494
15.9267,357.627,-1.04943
15.9283,357.644,-1.04947
15.93,357.661,-1.04951
15.9317,357.678,-1.04955
15.9333,357.694,-1.04959
15.935,357.711,-1.04963
15.9367,357.728,-1.04966
15.9383,357.744,-1.0497
15.94,357.761,-1.04972
15.9417,357.777,-1.04975
15.9433,357.794,-1.04978
15.945,357.811,-1.04982
15.9467,357.827,-1.04985
15.9483,357.844,-1.04987
15.95,357.861,-1.04991
15.9517,357.877,-1.04993
15.9533,357.894,-1.04995
15.955,357.911,-1.04997
15.9567,357.927,-1.04999
15.9583,357.944,-1.05001
15.96,357.96,-1.05004
15.9617,357.977,-1.05008
15.9633,357.994,-1.05012
15.965,358.011,-1.05016
15.9667,358.027,-1.05021
15.9683,358.044,-1.05026
15.97,358.06,-1.05032
15.9717,358.077,-1.05037
15.9733,358.094,-1.05041
15.975,358.11,-1.05046
15.9767,358.127,-1.05051
15.9783,358.143,-1.05056
15.98,358.16,-1.05062
15.9817,358.177,-1.05068
15.9833,358.193,-1.05073
15.985,358.21,-1.05079
15.9867,358.227,-1.05085
15.9883,358.243,-1.05089
15.99,358.26,-1.05094
15.9917,358.277,-1.05098
15.9933,358.294,-1.05103
15.995,358.31,-1.05108
15.9967,358.327,-1.05112
15.9983,358.343,-1.05116
16,358.36,-1.0512
16.0017,358.377,-1.05123
16.0033,358.393,-1.05126
16.005,358.41,-1.0513
16.0067,358.427,-1.05134
16.0083,358.443,-1.05139
16.01,358.46,-1.05143
16.0117,358.477,-1.05147
16.0133,358.493,-1.05151
16.015,358.51,-1.05155
16.0167,358.527,-1.05158
16.0183,358.543,-1.05161
16.02,358.56,-1.05164
16.0217,358.577,-1.05166
16.0233,358.593,-1.05168
16.025,358.611,-1.05171
16.0267,358.627,-1.05174
16.0283,358.644,-1.05179
16.03,358.66,-1.05184
16.0317,358.677,-1.05189
16.0333,358.693,-1.05194
16.035,358.71,-1.052
16.0367,358.726,-1.05205
16.0383,358.743,-1.0521
16.04,358.76,-1.05213
16.0417,358.776,-1.05215
16.0433,358.793,-1.05217
16.045,358.809,-1.05219
16.0467,358.826,-1.0522
16.0483,358.843,-1.05221
16.05,358.859,-1.05223
16.0517,358.876,-1.05227
16.0533,358.893,-1.05233
16.055,358.909,-1.05241
16.0567,358.926,-1.0526
16.0583,358.942,-1.05276
16.06,358.959,-1.05298
16.0617,358.976,-1.05317
16.0633,358.993,-1.05326
16.065,359.009,-1.05332
16.0667,359.026,-1.05336
16.0683,359.043,-1.05339
16.07,359.06,-1.05342
16.0717,359.077,-1.05344
16.0733,359.093,-1.05348
16.075,359.11,-1.05351
16.0767,359.126,-1.05355
16.0783,359.143,-1.05359
16.08,359.16,-1.05364
16.0817,359.176,-1.0537
16.0833,359.193,-1.05376
16.085,359.21,-1.05382
16.0867,359.226,-1.05388
16.0883,359.243,-1.05393
16.09,359.259,-1.05398
16.0917,359.275,-1.05403
16.0933,359.293,-1.05406
16.095,359.309,-1.05409
16.0967,359.326,-1.05411
16.0983,359.343,-1.05411
16.1,359.359,-1.05412
16.1017,359.376,-1.05413
16.1033,359.392,-1.05414
16.105,359.409,-1.05416
16.1067,359.426,-1.05418
16.1083,359.443,-1.05421
16.11,359.459,-1.05425
16.1117,359.476,-1.05429
16.1133,359.492,-1.05432
16.115,359.509,-1.05436
16.1167,359.525,-1.05441
16.1183,359.543,-1.05445
16.12,359.559,-1.0545
16.1217,359.576,-1.05455
16.1233,359.593,-1.05461
16.125,359.609,-1.05466
16.1267,359.626,-1.05472
16.1283,359.643,-1.05478
16.13,359.659,-1.05484
16.1317,359.676,-1.05489
16.1333,359.693,-1.05494
16.135,359.709,-1.05498
16.1367,359.726,-1.05502
16.1383,359.743,-1.05505
16.14,359.759,-1.05508
16.1417,359.776,-1.05509
16.1433,359.792,-1.05512
16.145,359.809,-1.05514
16.1467,359.826,-1.05516
16.1483,359.842,-1.05519
16.15,359.859,-1.05521
16.1517,359.876,-1.05525
16.1533,359.893,-1.05529
16.155,359.91,-1.05533
16.1567,359.926,-1.05536
16.1583,359.943,-1.05539
16.16,359.959,-1.05543
16.1617,359.976,-1.05548
16.1633,359.992,-1.05552
16.165,360.009,-1.05556
16.1667,360.025,-1.05561
16.1683,360.042,-1.05565
16.17,360.059,-1.05568
16.1717,360.075,-1.05573
16.1733,360.092,-1.05578
16.175,360.109,-1.05583
16.1767,360.125,-1.05588
16.1783,360.142,-1.05594
16.18,360.159,-1.05599
16.1817,360.176,-1.05605
16.1833,360.192,-1.05612
16.185,360.209,-1.05617
16.1867,360.225,-1.05623
16.1883,360.242,-1.05628
16.19,360.259,-1.05632
16.1917,360.275,-1.05637
16.1933,360.292,-1.05642
16.195,360.309,-1.05646
16.1967,360.326,-1.0565
16.1983,360.342,-1.05652
16.2,360.359,-1.05654
16.2017,360.376,-1.05656
16.2033,360.392,-1.05657
16.205,360.409,-1.05659
16.2067,360.425,-1.05661
16.2083,360.442,-1.05663
16.21,360.459,-1.05666
16.2117,360.475,-1.05669
16.2133,360.492,-1.05671
16.215,360.508,-1.05674
16.2167,360.525,-1.05677
16.2183,360.542,-1.05679
16.22,360.559,-1.05682
16.2217,360.575,-1.05686
16.2233,360.592,-1.0569
16.225,360.609,-1.05694
16.2267,360.625,-1.05699
16.2283,360.642,-1.05705
16.23,360.659,-1.05712
16.2317,360.675,-1.05718
16.2333,360.692,-1.05724
16.235,360.709,-1.05729
16.2367,360.725,-1.05734
16.2383,360.742,-1.05739
16.24,360.758,-1.05742
16.2417,360.775,-1.05746
16.2433,360.792,-1.05748
16.245,360.808,-1.0575
16.2467,360.825,-1.05752
16.2483,360.841,-1.05755
16.25,360.858,-1.05757
16.2517,360.874,-1.0576
16.2533,360.891,-1.05763
16.255,360.908,-1.05766
16.2567,360.925,-1.05769
16.2583,360.942,-1.05772
16.26,360.958,-1.05775
16.2617,360.975,-1.05778
16.2633,360.991,-1.0578
16.265,361.008,-1.05782
16.2667,361.025,-1.05786
16.2683,361.042,-1.0579
16.27,361.058,-1.05794
16.2717,361.075,-1.058
16.2733,361.092,-1.05807
16.275,361.109,-1.05813
16.2767,361.126,-1.05819
16.2783,361.142,-1.05824
16.28,361.159,-1.05829
16.2817,361.175,-1.05833
16.2833,361.192,-1.05837
16.285,361.208,-1.05841
16.2867,361.225,-1.05844
16.2883,361.242,-1.05848
16.29,361.259,-1.05852
16.2917,361.275,-1.05855
16.2933,361.292,-1.05859
16.295,361.308,-1.05864
16.2967,361.324,-1.0587
16.2983,361.341,-1.05875
16.3,361.358,-1.0588
16.3017,361.375,-1.05884
16.3033,361.391,-1.05888
16.305,361.408,-1.05893
16.3067,361.424,-1.05897
16.3083,361.442,-1.05901
16.31,361.458,-1.05904
16.3117,361.475,-1.05907
16.3133,361.491,-1.05911
16.315,361.508,-1.05915
16.3167,361.524,-1.0592
16.3183,361.541,-1.05925
16.32,361.558,-1.05929
16.3217,361.574,-1.05934
16.3233,361.591,-1.05938
16.325,361.608,-1.05942
16.3267,361.624,-1.05947
16.3283,361.641,-1.05952
16.33,361.658,-1.05957
16.3317,361.675,-1.05963
16.3333,361.692,-1.05969
16.335,361.708,-1.05974
16.3367,361.725,-1.05979
16.3383,361.741,-1.05983
16.34,361.758,-1.05986
16.3417,361.775,-1.05989
16.3433,361.791,-1.05991
16.345,361.808,-1.05992
16.3467,361.824,-1.05994
16.3483,361.841,-1.05996
16.35,361.858,-1.05998
16.3517,361.875,-1.06
16.3533,361.891,-1.06003
16.355,361.908,-1.06004
16.3567,361.924,-1.06006
16.3583,361.941,-1.06007
16.36,361.958,-1.06007
16.3617,361.974,-1.06007
16.3633,361.991,-1.06007
16.365,362.007,-1.06007
16.3667,362.024,-1.06008
16.3683,362.041,-1.0601
16.37,362.058,-1.06014
16.3717,362.074,-1.06019
16.3733,362.091,-1.06025
16.375,362.107,-1.06032
16.3767,362.124,-1.06039
16.3783,362.141,-1.06048
16.38,362.157,-1.06055
16.3817,362.174,-1.06061
16.3833,362.19,-1.06067
16.385,362.207,-1.06072
16.3867,362.224,-1.06076
16.3883,362.24,-1.0608
16.39,362.257,-1.06085
16.3917,362.274,-1.0609
16.3933,362.291,-1.06094
16.395,362.307,-1.06099
16.3967,362.324,-1.06103
16.3983,362.341,-1.06107
16.4,362.357,-1.06112
16.4017,362.374,-1.06116
16.4033,362.391,-1.0612
16.405,362.407,-1.06123
16.4067,362.424,-1.06127
16.4083,362.44,-1.06129
16.41,362.457,-1.06131
16.4117,362.474,-1.06133
16.4133,362.49,-1.06136
16.415,362.507,-1.06138
16.4167,362.523,-1.06141
16.4183,362.54,-1.06144
16.42,362.557,-1.06148
16.4217,362.574,-1.06152
16.4233,362.59,-1.06155
16.425,362.607,-1.06158
16.4267,362.624,-1.06161
16.4283,362.64,-1.06164
16.43,362.657,-1.06167
16.4317,362.674,-1.0617
16.4333,362.691,-1.06172
16.435,362.707,-1.06176
16.4367,362.724,-1.06178
16.4383,362.74,-1.06181
16.44,362.757,-1.06184
16.4417,362.773,-1.06185
16.4433,362.789,-1.06188
16.445,362.807,-1.06189
16.4467,362.823,-1.0619
16.4483,362.84,-1.06192
16.45,362.856,-1.06192
16.4517,362.873,-1.06194
16.4533,362.89,-1.06196
16.455,362.906,-1.062
16.4567,362.923,-1.06203
16.4583,362.94,-1.06207
16.46,362.957,-1.06211
16.4617,362.973,-1.06216
16.4633,362.989,-1.06221
16.465,363.006,-1.06226
16.4667,363.023,-1.06231
16.4683,363.04,-1.06235
16.47,363.056,-1.06238
16.4717,363.073,-1.06242
16.4733,363.09,-1.06245
16.475,363.106,-1.06248
16.4767,363.123,-1.0625
16.4783,363.139,-1.06253
16.48,363.156,-1.06257
16.4817,363.173,-1.06261
16.4833,363.19,-1.06265
16.485,363.206,-1.06269
16.4867,363.222,-1.06272
16.4883,363.239,-1.06276
16.49,363.256,-1.0628
16.4917,363.272,-1.06283
16.4933,363.289,-1.06286
16.495,363.306,-1.06289
16.4967,363.323,-1.06292
16.4983,363.339,-1.06296
16.5,363.356,-1.06299
16.5017,363.372,-1.06303
16.5033,363.389,-1.06306
16.505,363.405,-1.0631
16.5067,363.422,-1.06314
16.5083,363.439,-1.06317
16.51,363.456,-1.0632
16.5117,363.472,-1.06324
16.5133,363.489,-1.06327
16.515,363.506,-1.06331
16.5167,363.523,-1.06333
16.5183,363.539,-1.06336
16.52,363.556,-1.06339
16.5217,363.572,-1.06341
16.5233,363.589,-1.06345
16.525,363.606,-1.06347
16.5267,363.622,-1.06349
16.5283,363.639,-1.06353
16.53,363.655,-1.06356
16.5317,363.672,-1.0636
16.5333,363.689,-1.06363
16.535,363.705,-1.06365
16.5367,363.722,-1.06367
16.5383,363.739,-1.06369
16.54,363.755,-1.06371
16.5417,363.772,-1.06372
16.5433,363.789,-1.06375
16.545,363.806,-1.06378
16.5467,363.822,-1.06381
16.5483,363.839,-1.06384
16.55,363.856,-1.06389
16.5517,363.872,-1.06394
16.5533,363.889,-1.06397
16.555,363.905,-1.06401
16.5567,363.922,-1.06405
16.5583,363.938,-1.06409
16.56,363.955,-1.06411
16.5617,363.971,-1.06414
16.5633,363.988,-1.06417
16.565,364.005,-1.0642
16.5667,364.022,-1.06423
16.5683,364.038,-1.06425
16.57,364.055,-1.06426
16.5717,364.072,-1.06427
16.5733,364.088,-1.06428
16.575,364.105,-1.06429
16.5767,364.122,-1.0643
16.5783,364.138,-1.06432
16.58,364.155,-1.06434
16.5817,364.171,-1.06437
16.5833,364.188,-1.06442
16.585,364.204,-1.06447
16.5867,364.221,-1.06452
16.5883,364.238,-1.06458
16.59,364.255,-1.06463
16.5917,364.271,-1.06468
16.5933,364.288,-1.06472
16.595,364.305,-1.06476
16.5967,364.321,-1.0648
16.5983,364.338,-1.06482
16.6,364.355,-1.06485
16.6017,364.371,-1.06487
16.6033,364.388,-1.0649
16.605,364.404,-1.06493
16.6067,364.421,-1.06496
16.6083,364.438,-1.06499
16.61,364.454,-1.06502
16.6117,364.471,-1.06506
16.6133,364.488,-1.06508
16.615,364.504,-1.06511
16.6167,364.521,-1.06514
16.6183,364.538,-1.06517
16.62,364.554,-1.0652
16.6217,364.571,-1.06523
16.6233,364.588,-1.06526
16.625,364.605,-1.0653
16.6267,364.621,-1.06532
16.6283,364.638,-1.06535
16.63,364.654,-1.06539
16.6317,364.671,-1.06543
16.6333,364.688,-1.06546
16.635,364.704,-1.06552
16.6367,364.721,-1.06557
16.6383,364.737,-1.06563
16.64,364.754,-1.06568
16.6417,364.771,-1.06574
16.6433,364.788,-1.06578
16.645,364.804,-1.06581
16.6467,364.82,-1.06585
16.6483,364.837,-1.06589
16.65,364.854,-1.06592
16.6517,364.87,-1.06595
16.6533,364.887,-1.066
16.655,364.904,-1.06603
16.6567,364.92,-1.06607
16.6583,364.937,-1.06611
16.66,364.954,-1.06613
16.6617,364.97,-1.06615
16.6633,364.987,-1.06616
16.665,365.004,-1.06617
16.6667,365.021,-1.06617
16.6683,365.037,-1.06618
16.67,365.053,-1.06619
16.6717,365.07,-1.06622
16.6733,365.087,-1.06626
16.675,365.103,-1.06629
16.6767,365.12,-1.06633
16.6783,365.137,-1.06638
16.68,365.153,-1.06644
16.6817,365.17,-1.06651
16.6833,365.186,-1.06657
16.685,365.203,-1.06663
16.6867,365.22,-1.0667
16.6883,365.236,-1.06676
16.69,365.253,-1.06681
16.6917,365.27,-1.06686
16.6933,365.287,-1.0669
16.695,365.304,-1.06693
16.6967,365.32,-1.06695
16.6983,365.336,-1.06698
16.7,365.353,-1.067
16.7017,365.37,-1.06701
16.7033,365.386,-1.06703
16.705,365.403,-1.06704
16.7067,365.42,-1.06707
16.7083,365.436,-1.06709
16.71,365.453,-1.06711
16.7117,365.47,-1.06714
16.7133,365.487,-1.06716
16.715,365.503,-1.06719
16.7167,365.52,-1.06724
16.7183,365.537,-1.06727
16.72,365.553,-1.0673
16.7217,365.57,-1.06734
16.7233,365.586,-1.06737
16.725,365.603,-1.06742
16.7267,365.619,-1.06746
16.7283,365.636,-1.06751
16.73,365.653,-1.06756
16.7317,365.67,-1.0676
16.7333,365.686,-1.06764
16.735,365.703,-1.06767
16.7367,365.719,-1.06769
16.7383,365.736,-1.06771
16.74,365.752,-1.06774
16.7417,365.769,-1.06777
16.7433,365.785,-1.0678
16.745,365.802,-1.06782
16.7467,365.818,-1.06785
16.7483,365.835,-1.06789
16.75,365.852,-1.06795
16.7517,365.869,-1.06801
16.7533,365.885,-1.06807
16.755,365.902,-1.06813
16.7567,365.918,-1.0682
16.7583,365.935,-1.06826
16.76,365.952,-1.06831
16.7617,365.968,-1.06836
16.7633,365.985,-1.06841
16.765,366.002,-1.06844
16.7667,366.019,-1.06846
16.7683,366.035,-1.06849
16.77,366.051,-1.06851
16.7717,366.068,-1.06855
16.7733,366.085,-1.06858
16.775,366.101,-1.06863
16.7767,366.117,-1.06868
16.7783,366.134,-1.06874
16.78,366.15,-1.06881
16.7817,366.167,-1.06886
16.7833,366.184,-1.06892
16.785,366.201,-1.06897
16.7867,366.218,-1.06902
16.7883,366.234,-1.06905
16.79,366.251,-1.06908
16.7917,366.268,-1.0691
16.7933,366.285,-1.06911
16.795,366.301,-1.06913
16.7967,366.318,-1.06915
16.7983,366.335,-1.06917
16.8,366.351,-1.06918
16.8017,366.368,-1.06919
16.8033,366.384,-1.06921
16.805,366.401,-1.06923
16.8067,366.417,-1.06925
16.8083,366.434,-1.06927
16.81,366.451,-1.06929
16.8117,366.467,-1.06931
16.8133,366.484,-1.06933
16.815,366.501,-1.06936
16.8167,366.517,-1.06939
16.8183,366.534,-1.06942
16.82,366.551,-1.06944
16.8217,366.567,-1.06947
16.8233,366.584,-1.06951
16.825,366.601,-1.06954
16.8267,366.617,-1.06959
16.8283,366.634,-1.06965
16.83,366.65,-1.06968
16.8317,366.667,-1.06972
16.8333,366.684,-1.06975
16.835,366.7,-1.06979
16.8367,366.717,-1.06983
16.8383,366.733,-1.06986
16.84,366.75,-1.0699
16.8417,366.767,-1.06994
16.8433,366.783,-1.06999
16.845,366.8,-1.07005
16.8467,366.817,-1.07011
16.8483,366.834,-1.07017
16.85,366.851,-1.07021
16.8517,366.867,-1.07027
16.8533,366.884,-1.07031
16.855,366.901,-1.07036
16.8567,366.917,-1.07041
16.8583,366.934,-1.07044
16.86,366.951,-1.07047
16.8617,366.967,-1.07049
16.8633,366.984,-1.07051
16.865,367,-1.07053
16.8667,367.017,-1.07056
16.8683,367.034,-1.07059
16.87,367.05,-1.07062
16.8717,367.067,-1.07066
16.8733,367.083,-1.0707
16.875,367.1,-1.07075
16.8767,367.116,-1.07079
16.8783,367.133,-1.07083
16.88,367.15,-1.07086
16.8817,367.167,-1.0709
16.8833,367.183,-1.07094
16.885,367.2,-1.07098
16.8867,367.217,-1.07103
16.8883,367.233,-1.07107
16.89,367.25,-1.07111
16.8917,367.267,-1.07115
16.8933,367.283,-1.07119
16.895,367.3,-1.07122
16.8967,367.317,-1.07125
16.8983,367.333,-1.07128
16.9,367.35,-1.07131
16.9017,367.367,-1.07134
16.9033,367.383,-1.07138
16.905,367.4,-1.07142
16.9067,367.416,-1.07147
16.9083,367.433,-1.07152
16.91,367.449,-1.07157
16.9117,367.466,-1.07162
16.9133,367.483,-1.07167
16.915,367.5,-1.07172
16.9167,367.517,-1.07177
16.9183,367.533,-1.07183
16.92,367.55,-1.07188
16.9217,367.566,-1.07193
16.9233,367.583,-1.07199
16.925,367.6,-1.07203
16.9267,367.616,-1.07206
16.9283,367.633,-1.07208
16.93,367.65,-1.07208
16.9317,367.667,-1.07208
16.9333,367.683,-1.07209
16.935,367.7,-1.0721
16.9367,367.717,-1.07211
16.9383,367.733,-1.07214
16.94,367.75,-1.07218
16.9417,367.766,-1.07223
16.9433,367.783,-1.07227
16.945,367.799,-1.07232
16.9467,367.816,-1.07237
16.9483,367.833,-1.0724
16.95,367.849,-1.07243
16.9517,367.866,-1.07246
16.9533,367.883,-1.07247
16.955,367.899,-1.07247
16.9567,367.916,-1.07247
16.9583,367.932,-1.07247
16.96,367.949,-1.07247
16.9617,367.965,-1.07246
16.9633,367.982,-1.07246
16.965,367.999,-1.07246
16.9667,368.016,-1.07247
16.9683,368.032,-1.07249
16.97,368.049,-1.07251
16.9717,368.066,-1.07254
16.9733,368.082,-1.07257
16.975,368.099,-1.07261
16.9767,368.115,-1.07264
16.9783,368.132,-1.07267
16.98,368.149,-1.0727
16.9817,368.165,-1.07273
16.9833,368.182,-1.07275
16.985,368.199,-1.07277
16.9867,368.216,-1.07279
16.9883,368.232,-1.07281
16.99,368.249,-1.07284
16.9917,368.265,-1.07288
16.9933,368.282,-1.07292
16.995,368.298,-1.07295
16.9967,368.315,-1.07299
16.9983,368.332,-1.07303
17,368.349,-1.07307
17.0017,368.365,-1.0731
17.0033,368.382,-1.07314
17.005,368.398,-1.07318
17.0067,368.415,-1.0732
17.0083,368.432,-1.07323
17.01,368.448,-1.07327
17.0117,368.465,-1.07331
17.0133,368.482,-1.07335
17.015,368.498,-1.07338
17.0167,368.515,-1.0734
17.0183,368.532,-1.07341
17.02,368.548,-1.07343
17.0217,368.565,-1.07345
17.0233,368.582,-1.07346
17.025,368.598,-1.07349
17.0267,368.615,-1.07352
17.0283,368.632,-1.07355
17.03,368.648,-1.07361
17.0317,368.665,-1.07369
17.0333,368.681,-1.07376
17.035,368.698,-1.07382
17.0367,368.714,-1.07387
17.0383,368.731,-1.07392
17.04,368.748,-1.07396
17.0417,368.764,-1.07398
17.0433,368.781,-1.074
17.045,368.798,-1.07402
17.0467,368.814,-1.07404
17.0483,368.831,-1.07406
17.05,368.848,-1.07408
17.0517,368.865,-1.07411
17.0533,368.882,-1.07413
17.055,368.898,-1.07415
17.0567,368.915,-1.07415
17.0583,368.931,-1.07415
17.06,368.948,-1.07416
17.0617,368.965,-1.07416
17.0633,368.982,-1.07417
17.065,368.998,-1.07419
17.0667,369.015,-1.07422
17.0683,369.032,-1.07425
17.07,369.048,-1.07429
17.0717,369.065,-1.07434
17.0733,369.082,-1.07438
17.075,369.098,-1.07441
17.0767,369.115,-1.07444
17.0783,369.132,-1.07449
17.08,369.148,-1.07454
17.0817,369.165,-1.0746
17.0833,369.182,-1.07465
17.085,369.198,-1.0747
17.0867,369.215,-1.07475
17.0883,369.232,-1.0748
17.09,369.248,-1.07485
17.0917,369.265,-1.07489
17.0933,369.281,-1.07492
17.095,369.298,-1.07494
17.0967,369.315,-1.07496
17.0983,369.331,-1.07499
17.1,369.348,-1.07501
17.1017,369.365,-1.07504
17.1033,369.382,-1.07506
17.105,369.398,-1.07509
17.1067,369.414,-1.07512
17.1083,369.431,-1.07514
17.11,369.448,-1.07517
17.1117,369.465,-1.07519
17.1133,369.481,-1.07522
17.115,369.498,-1.07523
17.1167,369.514,-1.07525
17.1183,369.531,-1.07526
17.12,369.548,-1.07528
17.1217,369.565,-1.07531
17.1233,369.581,-1.07533
17.125,369.598,-1.07536
17.1267,369.615,-1.0754
17.1283,369.631,-1.07543
17.13,369.648,-1.07547
17.1317,369.665,-1.07552
17.1333,369.681,-1.07557
17.135,369.698,-1.07562
17.1367,369.714,-1.07568
17.1383,369.731,-1.07573
17.14,369.748,-1.07578
17.1417,369.764,-1.07583
17.1433,369.781,-1.07587
17.145,369.798,-1.07591
17.1467,369.814,-1.07595
17.1483,369.831,-1.07598
17.15,369.848,-1.07602
17.1517,369.865,-1.07606
17.1533,369.881,-1.07609
17.155,369.898,-1.07612
17.1567,369.914,-1.07614
17.1583,369.931,-1.07617
17.16,369.947,-1.07619
17.1617,369.965,-1.07621
17.1633,369.981,-1.07623
17.165,369.997,-1.07625
17.1667,370.014,-1.07627
17.1683,370.031,-1.07629
17.17,370.047,-1.07631
17.1717,370.064,-1.07633
17.1733,370.081,-1.07634
17.175,370.097,-1.07634
17.1767,370.114,-1.07636
17.1783,370.131,-1.07637
17.18,370.147,-1.07637
17.1817,370.163,-1.07638
17.1833,370.18,-1.07638
17.185,370.197,-1.07637
17.1867,370.214,-1.07637
17.1883,370.23,-1.07638
17.19,370.247,-1.0764
17.1917,370.264,-1.07642
17.1933,370.281,-1.07645
17.195,370.298,-1.07649
17.1967,370.314,-1.07654
17.1983,370.331,-1.07659
17.2,370.347,-1.07664
17.2017,370.364,-1.07669
17.2033,370.381,-1.07674
17.205,370.397,-1.0768
17.2067,370.414,-1.07684
17.2083,370.431,-1.07687
17.21,370.447,-1.0769
17.2117,370.464,-1.07693
17.2133,370.48,-1.07695
17.215,370.497,-1.07696
17.2167,370.514,-1.07698
17.2183,370.53,-1.077
17.22,370.547,-1.07703
17.2217,370.564,-1.07705
17.2233,370.58,-1.07708
17.225,370.597,-1.07711
17.2267,370.613,-1.07713
17.2283,370.631,-1.07715
17.23,370.647,-1.07718
17.2317,370.664,-1.07721
17.2333,370.68,-1.07723
17.235,370.697,-1.07727
17.2367,370.714,-1.07731
17.2383,370.731,-1.07734
17.24,370.747,-1.07738
17.2417,370.764,-1.07742
17.2433,370.781,-1.07746
17.245,370.797,-1.07749
17.2467,370.814,-1.07753
17.2483,370.83,-1.07756
17.25,370.847,-1.07759
17.2517,370.864,-1.07763
17.2533,370.88,-1.07766
17.255,370.897,-1.07771
17.2567,370.914,-1.07775
17.2583,370.93,-1.07779
17.26,370.947,-1.07783
17.2617,370.964,-1.07787
17.2633,370.98,-1.0779
17.265,370.997,-1.07793
17.2667,371.014,-1.07795
17.2683,371.031,-1.07797
17.27,371.047,-1.078
17.2717,371.064,-1.07804
17.2733,371.08,-1.07807
17.275,371.097,-1.07813
17.2767,371.114,-1.07818
17.2783,371.13,-1.07823
17.28,371.148,-1.07828
17.2817,371.164,-1.07832
17.2833,371.181,-1.07837
17.285,371.197,-1.07841
17.2867,371.214,-1.07844
17.2883,371.23,-1.07846
17.29,371.247,-1.07847
17.2917,371.264,-1.07848
17.2933,371.28,-1.07849
17.295,371.297,-1.07848
17.2967,371.314,-1.07847
17.2983,371.33,-1.07847
17.3,371.347,-1.07847
17.3017,371.363,-1.07848
17.3033,371.38,-1.0785
17.305,371.397,-1.07852
17.3067,371.413,-1.07854
17.3083,371.43,-1.07857
17.31,371.447,-1.07861
17.3117,371.464,-1.07865
17.3133,371.48,-1.07869
17.315,371.497,-1.07873
17.3167,371.514,-1.07875
17.3183,371.53,-1.07879
17.32,371.547,-1.07883
17.3217,371.563,-1.07887
17.3233,371.58,-1.0789
17.325,371.597,-1.07893
17.3267,371.613,-1.07896
17.3283,371.63,-1.079
17.33,371.647,-1.07903
17.3317,371.663,-1.07907
17.3333,371.68,-1.0791
17.335,371.696,-1.07914
17.3367,371.713,-1.07919
17.3383,371.73,-1.07924
17.34,371.747,-1.07928
17.3417,371.763,-1.07933
17.3433,371.78,-1.07937
17.345,371.797,-1.07941
17.3467,371.813,-1.07944
17.3483,371.83,-1.07947
17.35,371.846,-1.0795
17.3517,371.863,-1.07953
17.3533,371.88,-1.07956
17.355,371.896,-1.07959
17.3567,371.913,-1.07962
17.3583,371.929,-1.07966
17.36,371.946,-1.0797
17.3617,371.963,-1.07973
17.3633,371.98,-1.07976
17.365,371.996,-1.07979
17.3667,372.013,-1.07981
17.3683,372.029,-1.07983
17.37,372.046,-1.07985
17.3717,372.063,-1.07986
17.3733,372.079,-1.07988
17.375,372.096,-1.07989
17.3767,372.113,-1.0799
17.3783,372.13,-1.07992
17.38,372.146,-1.07993
17.3817,372.163,-1.07995
17.3833,372.179,-1.07998
17.385,372.196,-1.08001
17.3867,372.212,-1.08004
17.3883,372.229,-1.08006
17.39,372.245,-1.08009
17.3917,372.262,-1.08012
17.3933,372.279,-1.08016
17.395,372.296,-1.0802
17.3967,372.313,-1.08024
17.3983,372.329,-1.08029
17.4,372.345,-1.08033
17.4017,372.362,-1.08038
17.4033,372.378,-1.08043
17.405,372.395,-1.08047
17.4067,372.412,-1.08051
17.4083,372.429,-1.08055
17.41,372.446,-1.08059
17.4117,372.463,-1.08064
17.4133,372.479,-1.08067
17.415,372.495,-1.0807
17.4167,372.512,-1.08073
17.4183,372.529,-1.08076
17.42,372.545,-1.08079
17.4217,372.562,-1.08082
17.4233,372.578,-1.08085
17.425,372.595,-1.08087
17.4267,372.612,-1.08089
17.4283,372.628,-1.08089
17.43,372.645,-1.0809
17.4317,372.662,-1.0809
17.4333,372.678,-1.08089
17.435,372.695,-1.08089
17.4367,372.712,-1.08089
17.4383,372.728,-1.0809
17.44,372.745,-1.08092
17.4417,372.762,-1.08094
17.4433,372.778,-1.08098
17.445,372.795,-1.08101
17.4467,372.811,-1.08104
17.4483,372.828,-1.08108
17.45,372.845,-1.08111
17.4517,372.861,-1.08114
17.4533,372.878,-1.08116
17.455,372.895,-1.08118
17.4567,372.911,-1.08121
17.4583,372.928,-1.08122
17.46,372.945,-1.08124
17.4617,372.961,-1.08125
17.4633,372.978,-1.08126
17.465,372.995,-1.08129
17.4667,373.011,-1.08132
17.4683,373.028,-1.08135
17.47,373.045,-1.08138
17.4717,373.061,-1.0814
17.4733,373.078,-1.08143
17.475,373.094,-1.08146
17.4767,373.111,-1.08148
17.4783,373.127,-1.0815
17.48,373.144,-1.08153
17.4817,373.16,-1.08156
17.4833,373.177,-1.0816
17.485,373.194,-1.08163
17.4867,373.211,-1.08168
17.4883,373.227,-1.08172
17.49,373.244,-1.08176
17.4917,373.261,-1.08179
17.4933,373.278,-1.08181
17.495,373.294,-1.08183
17.4967,373.311,-1.08186
17.4983,373.327,-1.08188
17.5,373.344,-1.0819
17.5017,373.361,-1.08192
17.5033,373.377,-1.08194
17.505,373.394,-1.08197
